PE IR       SPECTRUM    SPECTRUM    ASCII       PEDS        1.60        
  -1
C-1B64~1.ASC
17/05/02
13:35:22.00
17/05/02
13:35:22.00
tln
$C-4040-8_t0032$<tbV0>[7.5,12.0,8.0,0.0,22,1,0]
370.000000
64









2002,4.07    
MIRTGS : RIGHTBACK : INTERNAL 2
MIR : ON : INTERNAL 2
OPTKBR

0.200000
8
8.000000
FILLER
RATIO
SPECTRUM
UNLOCKED 256

DOUBLE
64
COMBINED
1
0
0


1.000000
RATIO


1
0
TRUE
51149
0
LEFT NOT FITTED RIGHT NOT FITTED 0
NONE
NONE
15600
12.000000
4.427000
51148
TRUE
1 0 8 72 0 0 0 0 

15798.010000






#HDR
-1
-1
#GR
CM-1
%T
0.00002384185791015625
0.0
7800.000000
-1.000000
7431
8
92.846989
50.846338
#DATA
7800.000000	79.076337 
7799.000000	80.134868 
7798.000000	80.502486 
7797.000000	80.154466 
7796.000000	79.116964 
7795.000000	77.470135 
7794.000000	75.337386 
7793.000000	72.879219 
7792.000000	70.260310 
7791.000000	67.639183 
7790.000000	65.156292 
7789.000000	62.928795 
7788.000000	61.050677 
7787.000000	59.589171 
7786.000000	58.578634 
7785.000000	58.019590 
7784.000000	57.863974 
7783.000000	58.033967 
7782.000000	58.395862 
7781.000000	58.822321 
7780.000000	59.185934 
7779.000000	59.425330 
7778.000000	59.523534 
7777.000000	59.549069 
7776.000000	59.616422 
7775.000000	59.875130 
7774.000000	60.450911 
7773.000000	61.425185 
7772.000000	62.804698 
7771.000000	64.515972 
7770.000000	66.416907 
7769.000000	68.329524 
7768.000000	70.080423 
7767.000000	71.533656 
7766.000000	72.617173 
7765.000000	73.329210 
7764.000000	73.728632 
7763.000000	73.916769 
7762.000000	74.004411 
7761.000000	74.087834 
7760.000000	74.217438 
7759.000000	74.419021 
7758.000000	74.667549 
7757.000000	74.903535 
7756.000000	75.036358 
7755.000000	74.984884 
7754.000000	74.685621 
7753.000000	74.106454 
7752.000000	73.266100 
7751.000000	72.225689 
7750.000000	71.096801 
7749.000000	70.016503 
7748.000000	69.134855 
7747.000000	68.575882 
7746.000000	68.430805 
7745.000000	68.745636 
7744.000000	69.499969 
7743.000000	70.609593 
7742.000000	71.931123 
7741.000000	73.286628 
7740.000000	74.481248 
7739.000000	75.336241 
7738.000000	75.719070 
7737.000000	75.567865 
7736.000000	74.900412 
7735.000000	73.812222 
7734.000000	72.462177 
7733.000000	71.043682 
7732.000000	69.751477 
7731.000000	68.747210 
7730.000000	68.145203 
7729.000000	67.988896 
7728.000000	68.256092 
7727.000000	68.860936 
7726.000000	69.685769 
7725.000000	70.589327 
7724.000000	71.433210 
7723.000000	72.092485 
7722.000000	72.465157 
7721.000000	72.485351 
7720.000000	72.116708 
7719.000000	71.373367 
7718.000000	70.311379 
7717.000000	69.038653 
7716.000000	67.701792 
7715.000000	66.468834 
7714.000000	65.501832 
7713.000000	64.941048 
7712.000000	64.880704 
7711.000000	65.362191 
7710.000000	66.361570 
7709.000000	67.792963 
7708.000000	69.509434 
7707.000000	71.311497 
7706.000000	72.971558 
7705.000000	74.254274 
7704.000000	74.964427 
7703.000000	74.982047 
7702.000000	74.290537 
7701.000000	72.994446 
7700.000000	71.286273 
7699.000000	69.414496 
7698.000000	67.620563 
7697.000000	66.103243 
7696.000000	64.973640 
7695.000000	64.255213 
7694.000000	63.887429 
7693.000000	63.762164 
7692.000000	63.762521 
7691.000000	63.794183 
7690.000000	63.820052 
7689.000000	63.851189 
7688.000000	63.957238 
7687.000000	64.227151 
7686.000000	64.746332 
7685.000000	65.556120 
7684.000000	66.634988 
7683.000000	67.890238 
7682.000000	69.179320 
7681.000000	70.336627 
7680.000000	71.212887 
7679.000000	71.703243 
7678.000000	71.775579 
7677.000000	71.464395 
7676.000000	70.859408 
7675.000000	70.074200 
7674.000000	69.215607 
7673.000000	68.364095 
7672.000000	67.572546 
7671.000000	66.863822 
7670.000000	66.247487 
7669.000000	65.730977 
7668.000000	65.333938 
7667.000000	65.089273 
7666.000000	65.039324 
7665.000000	65.216445 
7664.000000	65.621280 
7663.000000	66.216635 
7662.000000	66.920709 
7661.000000	67.626023 
7660.000000	68.218445 
7659.000000	68.601870 
7658.000000	68.718862 
7657.000000	68.569135 
7656.000000	68.210196 
7655.000000	67.744088 
7654.000000	67.293119 
7653.000000	66.978263 
7652.000000	66.885137 
7651.000000	67.055487 
7650.000000	67.464470 
7649.000000	68.034195 
7648.000000	68.638467 
7647.000000	69.133472 
7646.000000	69.386053 
7645.000000	69.300937 
7644.000000	68.846368 
7643.000000	68.059849 
7642.000000	67.041420 
7641.000000	65.928006 
7640.000000	64.864301 
7639.000000	63.979983 
7638.000000	63.348746 
7637.000000	62.980580 
7636.000000	62.818479 
7635.000000	62.764286 
7634.000000	62.700223 
7633.000000	62.524342 
7632.000000	62.176418 
7631.000000	61.652827 
7630.000000	61.017489 
7629.000000	60.385203 
7628.000000	59.891080 
7627.000000	59.656548 
7626.000000	59.757304 
7625.000000	60.204839 
7624.000000	60.946798 
7623.000000	61.878538 
7622.000000	62.868118 
7621.000000	63.785409 
7620.000000	64.530587 
7619.000000	65.050172 
7618.000000	65.333390 
7617.000000	65.415668 
7616.000000	65.346813 
7615.000000	65.197324 
7614.000000	65.041399 
7613.000000	64.948391 
7612.000000	64.982986 
7611.000000	65.181541 
7610.000000	65.557694 
7609.000000	66.081738 
7608.000000	66.695904 
7607.000000	67.301177 
7606.000000	67.777514 
7605.000000	68.012595 
7604.000000	67.931747 
7603.000000	67.521715 
7602.000000	66.842675 
7601.000000	66.031169 
7600.000000	65.272378 
7599.000000	64.767479 
7598.000000	64.678883 
7597.000000	65.093874 
7596.000000	65.988993 
7595.000000	67.236447 
7594.000000	68.621110 
7593.000000	69.887852 
7592.000000	70.798468 
7591.000000	71.191549 
7590.000000	71.011233 
7589.000000	70.310688 
7588.000000	69.235301 
7587.000000	67.978239 
7586.000000	66.738128 
7585.000000	65.668511 
7584.000000	64.865803 
7583.000000	64.363026 
7582.000000	64.149570 
7581.000000	64.197468 
7580.000000	64.478182 
7579.000000	64.976572 
7578.000000	65.686297 
7577.000000	66.597580 
7576.000000	67.683100 
7575.000000	68.882131 
7574.000000	70.096135 
7573.000000	71.193456 
7572.000000	72.033667 
7571.000000	72.488665 
7570.000000	72.476172 
7569.000000	71.972751 
7568.000000	71.023893 
7567.000000	69.734644 
7566.000000	68.254995 
7565.000000	66.751217 
7564.000000	65.382122 
7563.000000	64.271616 
7562.000000	63.498544 
7561.000000	63.087415 
7560.000000	63.016533 
7559.000000	63.229155 
7558.000000	63.643836 
7557.000000	64.182353 
7556.000000	64.774084 
7555.000000	65.374946 
7554.000000	65.958046 
7553.000000	66.515445 
7552.000000	67.041087 
7551.000000	67.528724 
7550.000000	67.962169 
7549.000000	68.318486 
7548.000000	68.569779 
7547.000000	68.690109 
7546.000000	68.661022 
7545.000000	68.483996 
7544.000000	68.178248 
7543.000000	67.777109 
7542.000000	67.321586 
7541.000000	66.852903 
7540.000000	66.409540 
7539.000000	66.018724 
7538.000000	65.704441 
7537.000000	65.488672 
7536.000000	65.393328 
7535.000000	65.444970 
7534.000000	65.658926 
7533.000000	66.028547 
7532.000000	66.521549 
7531.000000	67.077994 
7530.000000	67.620611 
7529.000000	68.065667 
7528.000000	68.344378 
7527.000000	68.417906 
7526.000000	68.283843 
7525.000000	67.976641 
7524.000000	67.552089 
7523.000000	67.072343 
7522.000000	66.589927 
7521.000000	66.137266 
7520.000000	65.721487 
7519.000000	65.330219 
7518.000000	64.942955 
7517.000000	64.545536 
7516.000000	64.140653 
7515.000000	63.753747 
7514.000000	63.425874 
7513.000000	63.206839 
7512.000000	63.135170 
7511.000000	63.230848 
7510.000000	63.481950 
7509.000000	63.849115 
7508.000000	64.273500 
7507.000000	64.686942 
7506.000000	65.023946 
7505.000000	65.236401 
7504.000000	65.299439 
7503.000000	65.218353 
7502.000000	65.025234 
7501.000000	64.767742 
7500.000000	64.495992 
7499.000000	64.251303 
7498.000000	64.059019 
7497.000000	63.925242 
7496.000000	63.841176 
7495.000000	63.793969 
7494.000000	63.774895 
7493.000000	63.788294 
7492.000000	63.850879 
7491.000000	63.978028 
7490.000000	64.178752 
7489.000000	64.446783 
7488.000000	64.761781 
7487.000000	65.087294 
7486.000000	65.384721 
7485.000000	65.624284 
7484.000000	65.793061 
7483.000000	65.903759 
7482.000000	65.982270 
7481.000000	66.064429 
7480.000000	66.171932 
7479.000000	66.307568 
7478.000000	66.442179 
7477.000000	66.522526 
7476.000000	66.484212 
7475.000000	66.274309 
7474.000000	65.868639 
7473.000000	65.285468 
7472.000000	64.586925 
7471.000000	63.868212 
7470.000000	63.239574 
7469.000000	62.801766 
7468.000000	62.630081 
7467.000000	62.758922 
7466.000000	63.180851 
7465.000000	63.848352 
7464.000000	64.686393 
7463.000000	65.603160 
7462.000000	66.504573 
7461.000000	67.304372 
7460.000000	67.931747 
7459.000000	68.335938 
7458.000000	68.489861 
7457.000000	68.388319 
7456.000000	68.045973 
7455.000000	67.495155 
7454.000000	66.789269 
7453.000000	65.992188 
7452.000000	65.179920 
7451.000000	64.424753 
7450.000000	63.793277 
7449.000000	63.331818 
7448.000000	63.063335 
7447.000000	62.984561 
7446.000000	63.068604 
7445.000000	63.273549 
7444.000000	63.549971 
7443.000000	63.851785 
7442.000000	64.141631 
7441.000000	64.392614 
7440.000000	64.588356 
7439.000000	64.719939 
7438.000000	64.785957 
7437.000000	64.789772 
7436.000000	64.743304 
7435.000000	64.667320 
7434.000000	64.593148 
7433.000000	64.563059 
7432.000000	64.621305 
7431.000000	64.805150 
7430.000000	65.133047 
7429.000000	65.604329 
7428.000000	66.187477 
7427.000000	66.823649 
7426.000000	67.435050 
7425.000000	67.940330 
7424.000000	68.272972 
7423.000000	68.394637 
7422.000000	68.307948 
7421.000000	68.054223 
7420.000000	67.708158 
7419.000000	67.362475 
7418.000000	67.102003 
7417.000000	66.985011 
7416.000000	67.030239 
7415.000000	67.216205 
7414.000000	67.489099 
7413.000000	67.780041 
7412.000000	68.022871 
7411.000000	68.170809 
7410.000000	68.207287 
7409.000000	68.145656 
7408.000000	68.018078 
7407.000000	67.862415 
7406.000000	67.711806 
7405.000000	67.580485 
7404.000000	67.462420 
7403.000000	67.331075 
7402.000000	67.153525 
7401.000000	66.898679 
7400.000000	66.552448 
7399.000000	66.122364 
7398.000000	65.637135 
7397.000000	65.144109 
7396.000000	64.695644 
7395.000000	64.341306 
7394.000000	64.115047 
7393.000000	64.029049 
7392.000000	64.071369 
7391.000000	64.207625 
7390.000000	64.388847 
7389.000000	64.562511 
7388.000000	64.683318 
7387.000000	64.722156 
7386.000000	64.669537 
7385.000000	64.536666 
7384.000000	64.347815 
7383.000000	64.129233 
7382.000000	63.900113 
7381.000000	63.666200 
7380.000000	63.421320 
7379.000000	63.152766 
7378.000000	62.851929 
7377.000000	62.519526 
7376.000000	62.176299 
7375.000000	61.861395 
7374.000000	61.629199 
7373.000000	61.529469 
7372.000000	61.603403 
7371.000000	61.866664 
7370.000000	62.309575 
7369.000000	62.891793 
7368.000000	63.556504 
7367.000000	64.238715 
7366.000000	64.881706 
7365.000000	65.446782 
7364.000000	65.913987 
7363.000000	66.279101 
7362.000000	66.550421 
7361.000000	66.741538 
7360.000000	66.864991 
7359.000000	66.928243 
7358.000000	66.940665 
7357.000000	66.912150 
7356.000000	66.857075 
7355.000000	66.787624 
7354.000000	66.722202 
7353.000000	66.668319 
7352.000000	66.619944 
7351.000000	66.549253 
7350.000000	66.415977 
7349.000000	66.171813 
7348.000000	65.773081 
7347.000000	65.197420 
7346.000000	64.453220 
7345.000000	63.587713 
7344.000000	62.679409 
7343.000000	61.828994 
7342.000000	61.134290 
7341.000000	60.676646 
7340.000000	60.501646 
7339.000000	60.612583 
7338.000000	60.966324 
7337.000000	61.492228 
7336.000000	62.107658 
7335.000000	62.733769 
7334.000000	63.307976 
7333.000000	63.801312 
7332.000000	64.218616 
7331.000000	64.588451 
7330.000000	64.950752 
7329.000000	65.345716 
7328.000000	65.798974 
7327.000000	66.318726 
7326.000000	66.887426 
7325.000000	67.470932 
7324.000000	68.018484 
7323.000000	68.484091 
7322.000000	68.825292 
7321.000000	69.013929 
7320.000000	69.037199 
7319.000000	68.905544 
7318.000000	68.643808 
7317.000000	68.289566 
7316.000000	67.882657 
7315.000000	67.468595 
7314.000000	67.078495 
7313.000000	66.730141 
7312.000000	66.421723 
7311.000000	66.141510 
7310.000000	65.864658 
7309.000000	65.563392 
7308.000000	65.216302 
7307.000000	64.816164 
7306.000000	64.376163 
7305.000000	63.929677 
7304.000000	63.518643 
7303.000000	63.186025 
7302.000000	62.970805 
7301.000000	62.900376 
7300.000000	62.976050 
7299.000000	63.179588 
7298.000000	63.480091 
7297.000000	63.843393 
7296.000000	64.233827 
7295.000000	64.625620 
7294.000000	65.003609 
7293.000000	65.364265 
7292.000000	65.705680 
7291.000000	66.029071 
7290.000000	66.332077 
7289.000000	66.610741 
7288.000000	66.858410 
7287.000000	67.070817 
7286.000000	67.250466 
7285.000000	67.405533 
7284.000000	67.553234 
7283.000000	67.705464 
7282.000000	67.865681 
7281.000000	68.022418 
7280.000000	68.151164 
7279.000000	68.210363 
7278.000000	68.150162 
7277.000000	67.926979 
7276.000000	67.514824 
7275.000000	66.909456 
7274.000000	66.134452 
7273.000000	65.240263 
7272.000000	64.298748 
7271.000000	63.389611 
7270.000000	62.590694 
7269.000000	61.965250 
7268.000000	61.553573 
7267.000000	61.369490 
7266.000000	61.397838 
7265.000000	61.596131 
7264.000000	61.904597 
7263.000000	62.254142 
7262.000000	62.580347 
7261.000000	62.823033 
7260.000000	62.947964 
7259.000000	62.943363 
7258.000000	62.829089 
7257.000000	62.644314 
7256.000000	62.446761 
7255.000000	62.297177 
7254.000000	62.250018 
7253.000000	62.341499 
7252.000000	62.583804 
7251.000000	62.963247 
7250.000000	63.443827 
7249.000000	63.975310 
7248.000000	64.503312 
7247.000000	64.979243 
7246.000000	65.368032 
7245.000000	65.651822 
7244.000000	65.828156 
7243.000000	65.906190 
7242.000000	65.906667 
7241.000000	65.849995 
7240.000000	65.750813 
7239.000000	65.615296 
7238.000000	65.451455 
7237.000000	65.263080 
7236.000000	65.054607 
7235.000000	64.833998 
7234.000000	64.615654 
7233.000000	64.420366 
7232.000000	64.272356 
7231.000000	64.195108 
7230.000000	64.204835 
7229.000000	64.306950 
7228.000000	64.493036 
7227.000000	64.739322 
7226.000000	65.009355 
7225.000000	65.261006 
7224.000000	65.453791 
7223.000000	65.553903 
7222.000000	65.541124 
7221.000000	65.410113 
7220.000000	65.175509 
7219.000000	64.865589 
7218.000000	64.524722 
7217.000000	64.209413 
7216.000000	63.980126 
7215.000000	63.892650 
7214.000000	63.983941 
7213.000000	64.266800 
7212.000000	64.720773 
7211.000000	65.293264 
7210.000000	65.910029 
7209.000000	66.488075 
7208.000000	66.955280 
7207.000000	67.262601 
7206.000000	67.396140 
7205.000000	67.376732 
7204.000000	67.251539 
7203.000000	67.081165 
7202.000000	66.918206 
7201.000000	66.794657 
7200.000000	66.713452 
7199.000000	66.652631 
7198.000000	66.574811 
7197.000000	66.443586 
7196.000000	66.238069 
7195.000000	65.962767 
7194.000000	65.645575 
7193.000000	65.333294 
7192.000000	65.074610 
7191.000000	64.910650 
7190.000000	64.865541 
7189.000000	64.940047 
7188.000000	65.113782 
7187.000000	65.347218 
7186.000000	65.592312 
7185.000000	65.800356 
7184.000000	65.930199 
7183.000000	65.957307 
7182.000000	65.874147 
7181.000000	65.694141 
7180.000000	65.446257 
7179.000000	65.168642 
7178.000000	64.899349 
7177.000000	64.669489 
7176.000000	64.499139 
7175.000000	64.393424 
7174.000000	64.345383 
7173.000000	64.338994 
7172.000000	64.355516 
7171.000000	64.381885 
7170.000000	64.414381 
7169.000000	64.458227 
7168.000000	64.523458 
7167.000000	64.619874 
7166.000000	64.749431 
7165.000000	64.900875 
7164.000000	65.048766 
7163.000000	65.158247 
7162.000000	65.193057 
7161.000000	65.124106 
7160.000000	64.941072 
7159.000000	64.653992 
7158.000000	64.300608 
7157.000000	63.933253 
7156.000000	63.620352 
7155.000000	63.428688 
7154.000000	63.416862 
7153.000000	63.620114 
7152.000000	64.046096 
7151.000000	64.674711 
7150.000000	65.453577 
7149.000000	66.308379 
7148.000000	67.144656 
7147.000000	67.863345 
7146.000000	68.371629 
7145.000000	68.598914 
7144.000000	68.508887 
7143.000000	68.106222 
7142.000000	67.440629 
7141.000000	66.596412 
7140.000000	65.679168 
7139.000000	64.793276 
7138.000000	64.027285 
7137.000000	63.435912 
7136.000000	63.037133 
7135.000000	62.812399 
7134.000000	62.720012 
7133.000000	62.707829 
7132.000000	62.724781 
7131.000000	62.735795 
7130.000000	62.721490 
7129.000000	62.683153 
7128.000000	62.630057 
7127.000000	62.577033 
7126.000000	62.531018 
7125.000000	62.490081 
7124.000000	62.439823 
7123.000000	62.361049 
7122.000000	62.236714 
7121.000000	62.059831 
7120.000000	61.838483 
7119.000000	61.594820 
7118.000000	61.360645 
7117.000000	61.168074 
7116.000000	61.041545 
7115.000000	60.988569 
7114.000000	60.999989 
7113.000000	61.052322 
7112.000000	61.118865 
7111.000000	61.178898 
7110.000000	61.228036 
7109.000000	61.276721 
7108.000000	61.351442 
7107.000000	61.485815 
7106.000000	61.710572 
7105.000000	62.039136 
7104.000000	62.462878 
7103.000000	62.950205 
7102.000000	63.451576 
7101.000000	63.911008 
7100.000000	64.277720 
7099.000000	64.518308 
7098.000000	64.623689 
7097.000000	64.611244 
7096.000000	64.518356 
7095.000000	64.392137 
7094.000000	64.278745 
7093.000000	64.213347 
7092.000000	64.215302 
7091.000000	64.287376 
7090.000000	64.422249 
7089.000000	64.607930 
7088.000000	64.835071 
7087.000000	65.098404 
7086.000000	65.393376 
7085.000000	65.712332 
7084.000000	66.041564 
7083.000000	66.357994 
7082.000000	66.630339 
7081.000000	66.822338 
7080.000000	66.904211 
7079.000000	66.855192 
7078.000000	66.673183 
7077.000000	66.372060 
7076.000000	65.982961 
7075.000000	65.545606 
7074.000000	65.105390 
7073.000000	64.700460 
7072.000000	64.358878 
7071.000000	64.090704 
7070.000000	63.891959 
7069.000000	63.743734 
7068.000000	63.619470 
7067.000000	63.493132 
7066.000000	63.346576 
7065.000000	63.173627 
7064.000000	62.980508 
7063.000000	62.787675 
7062.000000	62.625122 
7061.000000	62.525701 
7060.000000	62.517976 
7059.000000	62.621235 
7058.000000	62.840628 
7057.000000	63.165211 
7056.000000	63.568496 
7055.000000	64.014887 
7054.000000	64.462804 
7053.000000	64.869594 
7052.000000	65.197896 
7051.000000	65.420937 
7050.000000	65.526080 
7049.000000	65.513634 
7048.000000	65.399026 
7047.000000	65.210056 
7046.000000	64.982533 
7045.000000	64.758706 
7044.000000	64.574790 
7043.000000	64.458441 
7042.000000	64.420008 
7041.000000	64.456152 
7040.000000	64.543795 
7039.000000	64.647078 
7038.000000	64.725232 
7037.000000	64.743280 
7036.000000	64.681792 
7035.000000	64.542078 
7034.000000	64.347887 
7033.000000	64.138031 
7032.000000	63.955378 
7031.000000	63.833332 
7030.000000	63.788270 
7029.000000	63.812255 
7028.000000	63.874816 
7027.000000	63.930511 
7026.000000	63.933134 
7025.000000	63.848352 
7024.000000	63.663291 
7023.000000	63.391780 
7022.000000	63.066768 
7021.000000	62.737298 
7020.000000	62.454700 
7019.000000	62.262320 
7018.000000	62.183809 
7017.000000	62.220501 
7016.000000	62.353134 
7015.000000	62.547206 
7014.000000	62.763524 
7013.000000	62.964248 
7012.000000	63.120412 
7011.000000	63.215613 
7010.000000	63.246870 
7009.000000	63.224411 
7008.000000	63.168454 
7007.000000	63.104510 
7006.000000	63.059663 
7005.000000	63.063168 
7004.000000	63.140463 
7003.000000	63.311195 
7002.000000	63.581681 
7001.000000	63.942718 
7000.000000	64.366459 
6999.000000	64.811348 
6998.000000	65.226626 
6997.000000	65.560698 
6996.000000	65.771961 
6995.000000	65.838980 
6994.000000	65.763330 
6993.000000	65.567135 
6992.000000	65.291047 
6991.000000	64.985370 
6990.000000	64.701461 
6989.000000	64.484071 
6988.000000	64.362215 
6987.000000	64.349079 
6986.000000	64.434099 
6985.000000	64.588856 
6984.000000	64.767622 
6983.000000	64.918446 
6982.000000	64.990496 
6981.000000	64.945459 
6980.000000	64.763283 
6979.000000	64.447999 
6978.000000	64.026236 
6977.000000	63.544607 
6976.000000	63.059973 
6975.000000	62.631726 
6974.000000	62.310719 
6973.000000	62.133955 
6972.000000	62.116742 
6971.000000	62.255549 
6970.000000	62.531971 
6969.000000	62.916374 
6968.000000	63.371419 
6967.000000	63.857054 
6966.000000	64.333558 
6965.000000	64.763712 
6964.000000	65.111064 
6963.000000	65.347051 
6962.000000	65.453028 
6961.000000	65.424466 
6960.000000	65.273380 
6959.000000	65.025687 
