PE IR       SPECTRUM    SPECTRUM    ASCII       PEDS        1.60        
  -1
C-9A64~1.ASC
17/05/02
12:41:22.00
17/05/02
12:41:22.00
tln
$C-4040-8_t0022$<tbV0>[-2.5,2.0,8.0,0.0,22,1,0]
370.000000
64









2002,4.07    
MIRTGS : RIGHTBACK : INTERNAL 2
MIR : ON : INTERNAL 2
OPTKBR

0.200000
8
8.000000
FILLER
RATIO
SPECTRUM
UNLOCKED 256

DOUBLE
64
COMBINED
1
0
0


1.000000
RATIO


1
0
TRUE
51149
0
LEFT NOT FITTED RIGHT NOT FITTED 0
NONE
NONE
15600
12.000000
4.427000
51148
TRUE
1 0 8 72 0 0 0 0 

15798.010000






#HDR
-1
-1
#GR
CM-1
%T
0.00002384185791015625
0.0
7800.000000
-1.000000
7431
8
83.180069
47.495055
#DATA
7800.000000	73.266315 
7799.000000	71.529269 
7798.000000	69.810628 
7797.000000	68.341803 
7796.000000	67.256665 
7795.000000	66.575574 
7794.000000	66.209578 
7793.000000	66.008019 
7792.000000	65.823006 
7791.000000	65.574145 
7790.000000	65.262198 
7789.000000	64.988279 
7788.000000	64.939427 
7787.000000	65.338349 
7786.000000	66.366124 
7785.000000	68.098855 
7784.000000	70.478749 
7783.000000	73.291015 
7782.000000	76.205205 
7781.000000	78.824520 
7780.000000	80.780076 
7779.000000	81.797623 
7778.000000	81.764483 
7777.000000	80.740642 
7776.000000	78.946447 
7775.000000	76.701927 
7774.000000	74.369049 
7773.000000	72.254133 
7772.000000	70.567011 
7771.000000	69.373083 
7770.000000	68.621063 
7769.000000	68.163347 
7768.000000	67.826247 
7767.000000	67.467713 
7766.000000	67.027354 
7765.000000	66.559553 
7764.000000	66.217255 
7763.000000	66.204333 
7762.000000	66.705346 
7761.000000	67.821884 
7760.000000	69.520711 
7759.000000	71.619939 
7758.000000	73.816514 
7757.000000	75.759625 
7756.000000	77.123880 
7755.000000	77.695012 
7754.000000	77.410840 
7753.000000	76.362085 
7752.000000	74.779510 
7751.000000	72.960066 
7750.000000	71.224737 
7749.000000	69.857907 
7748.000000	69.051861 
7747.000000	68.899393 
7746.000000	69.363212 
7745.000000	70.318102 
7744.000000	71.554517 
7743.000000	72.839117 
7742.000000	73.931503 
7741.000000	74.625611 
7740.000000	74.777793 
7739.000000	74.324822 
7738.000000	73.284292 
7737.000000	71.747875 
7736.000000	69.870018 
7735.000000	67.845416 
7734.000000	65.885496 
7733.000000	64.191985 
7732.000000	62.932205 
7731.000000	62.222051 
7730.000000	62.114763 
7729.000000	62.602162 
7728.000000	63.608264 
7727.000000	65.015387 
7726.000000	66.677117 
7725.000000	68.443155 
7724.000000	70.157122 
7723.000000	71.688103 
7722.000000	72.932910 
7721.000000	73.826456 
7720.000000	74.342370 
7719.000000	74.483633 
7718.000000	74.276757 
7717.000000	73.767638 
7716.000000	73.026728 
7715.000000	72.130608 
7714.000000	71.163129 
7713.000000	70.207667 
7712.000000	69.345927 
7711.000000	68.650007 
7710.000000	68.177533 
7709.000000	67.960190 
7708.000000	67.999958 
7707.000000	68.268442 
7706.000000	68.710112 
7705.000000	69.247794 
7704.000000	69.796347 
7703.000000	70.265984 
7702.000000	70.585393 
7701.000000	70.710015 
7700.000000	70.634222 
7699.000000	70.383095 
7698.000000	70.012640 
7697.000000	69.596529 
7696.000000	69.210433 
7695.000000	68.921184 
7694.000000	68.768835 
7693.000000	68.760013 
7692.000000	68.873023 
7691.000000	69.072604 
7690.000000	69.313240 
7689.000000	69.550061 
7688.000000	69.751977 
7687.000000	69.906330 
7686.000000	70.013141 
7685.000000	70.078730 
7684.000000	70.105385 
7683.000000	70.085668 
7682.000000	70.001792 
7681.000000	69.831109 
7680.000000	69.556045 
7679.000000	69.174599 
7678.000000	68.707847 
7677.000000	68.201351 
7676.000000	67.717003 
7675.000000	67.324113 
7674.000000	67.079973 
7673.000000	67.023110 
7672.000000	67.165493 
7671.000000	67.488908 
7670.000000	67.953062 
7669.000000	68.494939 
7668.000000	69.041109 
7667.000000	69.514727 
7666.000000	69.846534 
7665.000000	69.985342 
7664.000000	69.905567 
7663.000000	69.609951 
7662.000000	69.128251 
7661.000000	68.510770 
7660.000000	67.819738 
7659.000000	67.117261 
7658.000000	66.456413 
7657.000000	65.868020 
7656.000000	65.358662 
7655.000000	64.913344 
7654.000000	64.504814 
7653.000000	64.097809 
7652.000000	63.666296 
7651.000000	63.199162 
7650.000000	62.713360 
7649.000000	62.241506 
7648.000000	61.838912 
7647.000000	61.560869 
7646.000000	61.462092 
7645.000000	61.583757 
7644.000000	61.939287 
7643.000000	62.510848 
7642.000000	63.237762 
7641.000000	64.027786 
7640.000000	64.761853 
7639.000000	65.311837 
7638.000000	65.570759 
7637.000000	65.473008 
7636.000000	65.017080 
7635.000000	64.266562 
7634.000000	63.343572 
7633.000000	62.402439 
7632.000000	61.605024 
7631.000000	61.088156 
7630.000000	60.942220 
7629.000000	61.197185 
7628.000000	61.822152 
7627.000000	62.736201 
7626.000000	63.831377 
7625.000000	64.990830 
7624.000000	66.109490 
7623.000000	67.100524 
7622.000000	67.896556 
7621.000000	68.446493 
7620.000000	68.717455 
7619.000000	68.686413 
7618.000000	68.343663 
7617.000000	67.691993 
7616.000000	66.769099 
7615.000000	65.633130 
7614.000000	64.362072 
7613.000000	63.054394 
7612.000000	61.816883 
7611.000000	60.766649 
7610.000000	60.019087 
7609.000000	59.668302 
7608.000000	59.772515 
7607.000000	60.323357 
7606.000000	61.240601 
7605.000000	62.367200 
7604.000000	63.493347 
7603.000000	64.395499 
7602.000000	64.881801 
7601.000000	64.834666 
7600.000000	64.237642 
7599.000000	63.168740 
7598.000000	61.791491 
7597.000000	60.309910 
7596.000000	58.941555 
7595.000000	57.883429 
7594.000000	57.282686 
7593.000000	57.222342 
7592.000000	57.709097 
7591.000000	58.685398 
7590.000000	60.035538 
7589.000000	61.606478 
7588.000000	63.231062 
7587.000000	64.741444 
7586.000000	66.002869 
7585.000000	66.917729 
7584.000000	67.447805 
7583.000000	67.605304 
7582.000000	67.454433 
7581.000000	67.095708 
7580.000000	66.641044 
7579.000000	66.194486 
7578.000000	65.834450 
7577.000000	65.606927 
7576.000000	65.523481 
7575.000000	65.567302 
7574.000000	65.701770 
7573.000000	65.880203 
7572.000000	66.048693 
7571.000000	66.159653 
7570.000000	66.166853 
7569.000000	66.047787 
7568.000000	65.801715 
7567.000000	65.466547 
7566.000000	65.112686 
7565.000000	64.835286 
7564.000000	64.733219 
7563.000000	64.883875 
7562.000000	65.328764 
7561.000000	66.048574 
7560.000000	66.968345 
7559.000000	67.959594 
7558.000000	68.866634 
7557.000000	69.538617 
7556.000000	69.868469 
7555.000000	69.805097 
7554.000000	69.363665 
7553.000000	68.614673 
7552.000000	67.666077 
7551.000000	66.635680 
7550.000000	65.628480 
7549.000000	64.728498 
7548.000000	63.992476 
7547.000000	63.459634 
7546.000000	63.154649 
7545.000000	63.086533 
7544.000000	63.251519 
7543.000000	63.628005 
7542.000000	64.179921 
7541.000000	64.850950 
7540.000000	65.573954 
7539.000000	66.273975 
7538.000000	66.879963 
7537.000000	67.331004 
7536.000000	67.586565 
7535.000000	67.630672 
7534.000000	67.473292 
7533.000000	67.148518 
7532.000000	66.707468 
7531.000000	66.212439 
7530.000000	65.724563 
7529.000000	65.299963 
7528.000000	64.977049 
7527.000000	64.776825 
7526.000000	64.698100 
7525.000000	64.724302 
7524.000000	64.824056 
7523.000000	64.960289 
7522.000000	65.104484 
7521.000000	65.244793 
7520.000000	65.388941 
7519.000000	65.562415 
7518.000000	65.798044 
7517.000000	66.125965 
7516.000000	66.564035 
7515.000000	67.108750 
7514.000000	67.732143 
7513.000000	68.383908 
7512.000000	69.006633 
7511.000000	69.540667 
7510.000000	69.939470 
7509.000000	70.173311 
7508.000000	70.234251 
7507.000000	70.135855 
7506.000000	69.913339 
7505.000000	69.612073 
7504.000000	69.280624 
7503.000000	68.961572 
7502.000000	68.691682 
7501.000000	68.490004 
7500.000000	68.364477 
7499.000000	68.299484 
7498.000000	68.263792 
7497.000000	68.211650 
7496.000000	68.095517 
7495.000000	67.872977 
7494.000000	67.520403 
7493.000000	67.039799 
7492.000000	66.465139 
7491.000000	65.859293 
7490.000000	65.306997 
7489.000000	64.895081 
7488.000000	64.697360 
7487.000000	64.765048 
7486.000000	65.107989 
7485.000000	65.691494 
7484.000000	66.434288 
7483.000000	67.226457 
7482.000000	67.942762 
7481.000000	68.462610 
7480.000000	68.696737 
7479.000000	68.601799 
7478.000000	68.192434 
7477.000000	67.534089 
7476.000000	66.732096 
7475.000000	65.907740 
7474.000000	65.176439 
7473.000000	64.628148 
7472.000000	64.311242 
7471.000000	64.230680 
7470.000000	64.353084 
7469.000000	64.621257 
7468.000000	64.969038 
7467.000000	65.335774 
7466.000000	65.673828 
7465.000000	65.951490 
7464.000000	66.146826 
7463.000000	66.243648 
7462.000000	66.226339 
7461.000000	66.079807 
7460.000000	65.791630 
7459.000000	65.358710 
7458.000000	64.798784 
7457.000000	64.149570 
7456.000000	63.465738 
7455.000000	62.813949 
7454.000000	62.261366 
7453.000000	61.867284 
7452.000000	61.671400 
7451.000000	61.688208 
7450.000000	61.905407 
7449.000000	62.282967 
7448.000000	62.759375 
7447.000000	63.260459 
7446.000000	63.711047 
7445.000000	64.045619 
7444.000000	64.216303 
7443.000000	64.203143 
7442.000000	64.015030 
7441.000000	63.685560 
7440.000000	63.265371 
7439.000000	62.816357 
7438.000000	62.400555 
7437.000000	62.072896 
7436.000000	61.872220 
7435.000000	61.817431 
7434.000000	61.906027 
7433.000000	62.117552 
7432.000000	62.420392 
7431.000000	62.770915 
7430.000000	63.131642 
7429.000000	63.471484 
7428.000000	63.780665 
7427.000000	64.060664 
7426.000000	64.333295 
7425.000000	64.628958 
7424.000000	64.980530 
7423.000000	65.414571 
7422.000000	65.936660 
7421.000000	66.527605 
7420.000000	67.142724 
7419.000000	67.723321 
7418.000000	68.205618 
7417.000000	68.537211 
7416.000000	68.689489 
7415.000000	68.665695 
7414.000000	68.498611 
7413.000000	68.241834 
7412.000000	67.959308 
7411.000000	67.707633 
7410.000000	67.524743 
7409.000000	67.417955 
7408.000000	67.371249 
7407.000000	67.343688 
7406.000000	67.284631 
7405.000000	67.142462 
7404.000000	66.879773 
7403.000000	66.481423 
7402.000000	65.955519 
7401.000000	65.337514 
7400.000000	64.674520 
7399.000000	64.028525 
7398.000000	63.464260 
7397.000000	63.039922 
7396.000000	62.793517 
7395.000000	62.740826 
7394.000000	62.872028 
7393.000000	63.155865 
7392.000000	63.541626 
7391.000000	63.979148 
7390.000000	64.425516 
7389.000000	64.857387 
7388.000000	65.269303 
7387.000000	65.672516 
7386.000000	66.083455 
7385.000000	66.512489 
7384.000000	66.953682 
7383.000000	67.382621 
7382.000000	67.758440 
7381.000000	68.037891 
7380.000000	68.183708 
7379.000000	68.180918 
7378.000000	68.036389 
7377.000000	67.786908 
7376.000000	67.480206 
7375.000000	67.167210 
7374.000000	66.882729 
7373.000000	66.640543 
7372.000000	66.429853 
7371.000000	66.222071 
7370.000000	65.986156 
7369.000000	65.703058 
7368.000000	65.378332 
7367.000000	65.043711 
7366.000000	64.753913 
7365.000000	64.569854 
7364.000000	64.545464 
7363.000000	64.709186 
7362.000000	65.056157 
7361.000000	65.544843 
7360.000000	66.110348 
7359.000000	66.677474 
7358.000000	67.177033 
7357.000000	67.557787 
7356.000000	67.793917 
7355.000000	67.883801 
7354.000000	67.842769 
7353.000000	67.694926 
7352.000000	67.464423 
7351.000000	67.171335 
7350.000000	66.834020 
7349.000000	66.468238 
7348.000000	66.096758 
7347.000000	65.743494 
7346.000000	65.439605 
7345.000000	65.210080 
7344.000000	65.071010 
7343.000000	65.020155 
7342.000000	65.034866 
7341.000000	65.076971 
7340.000000	65.099430 
7339.000000	65.060997 
7338.000000	64.935588 
7337.000000	64.720940 
7336.000000	64.437818 
7335.000000	64.127659 
7334.000000	63.841915 
7333.000000	63.629007 
7332.000000	63.523101 
7331.000000	63.540244 
7330.000000	63.676881 
7329.000000	63.913321 
7328.000000	64.220476 
7327.000000	64.567017 
7326.000000	64.925265 
7325.000000	65.275645 
7324.000000	65.605020 
7323.000000	65.902543 
7322.000000	66.155862 
7321.000000	66.351938 
7320.000000	66.472792 
7319.000000	66.500616 
7318.000000	66.418528 
7317.000000	66.220855 
7316.000000	65.913033 
7315.000000	65.515398 
7314.000000	65.062975 
7313.000000	64.600920 
7312.000000	64.182400 
7311.000000	63.859128 
7310.000000	63.677978 
7309.000000	63.671851 
7308.000000	63.858485 
7307.000000	64.236617 
7306.000000	64.783811 
7305.000000	65.458416 
7304.000000	66.205382 
7303.000000	66.963219 
7302.000000	67.671799 
7301.000000	68.277978 
7300.000000	68.746709 
7299.000000	69.055891 
7298.000000	69.199442 
7297.000000	69.175028 
7296.000000	68.988633 
7295.000000	68.641757 
7294.000000	68.142986 
7293.000000	67.499017 
7292.000000	66.726636 
7291.000000	65.850806 
7290.000000	64.912486 
7289.000000	63.966321 
7288.000000	63.074660 
7287.000000	62.305903 
7286.000000	61.721086 
7285.000000	61.370706 
7284.000000	61.281585 
7283.000000	61.456990 
7282.000000	61.870718 
7281.000000	62.476658 
7280.000000	63.213443 
7279.000000	64.013123 
7278.000000	64.809417 
7277.000000	65.548157 
7276.000000	66.191339 
7275.000000	66.720390 
7274.000000	67.131161 
7273.000000	67.431569 
7272.000000	67.629241 
7271.000000	67.734646 
7270.000000	67.747426 
7269.000000	67.662334 
7268.000000	67.466068 
7267.000000	67.153668 
7266.000000	66.727209 
7265.000000	66.207313 
7264.000000	65.630078 
7263.000000	65.043163 
7262.000000	64.503073 
7261.000000	64.063739 
7260.000000	63.773012 
7259.000000	63.659477 
7258.000000	63.737487 
7257.000000	64.002060 
7256.000000	64.435672 
7255.000000	65.008044 
7254.000000	65.685391 
7253.000000	66.431021 
7252.000000	67.212104 
7251.000000	67.997217 
7250.000000	68.755817 
7249.000000	69.452691 
7248.000000	70.051670 
7247.000000	70.511102 
7246.000000	70.788884 
7245.000000	70.845317 
7244.000000	70.658659 
7243.000000	70.227718 
7242.000000	69.581460 
7241.000000	68.775677 
7240.000000	67.892360 
7239.000000	67.024135 
7238.000000	66.265439 
7237.000000	65.691232 
7236.000000	65.346598 
7235.000000	65.238094 
7234.000000	65.336060 
7233.000000	65.582466 
7232.000000	65.903234 
7231.000000	66.225934 
7230.000000	66.490459 
7229.000000	66.661810 
7228.000000	66.729831 
7227.000000	66.707301 
7226.000000	66.618824 
7225.000000	66.494536 
7224.000000	66.359162 
7223.000000	66.225862 
7222.000000	66.093468 
7221.000000	65.954208 
7220.000000	65.796709 
7219.000000	65.610718 
7218.000000	65.392398 
7217.000000	65.146470 
7216.000000	64.889049 
7215.000000	64.640688 
7214.000000	64.428758 
7213.000000	64.280319 
7212.000000	64.218783 
7211.000000	64.260554 
7210.000000	64.406347 
7209.000000	64.639234 
7208.000000	64.923572 
7207.000000	65.210843 
7206.000000	65.447044 
7205.000000	65.582013 
7204.000000	65.582847 
7203.000000	65.440750 
7202.000000	65.173959 
7201.000000	64.823341 
7200.000000	64.442515 
7199.000000	64.085769 
7198.000000	63.793325 
7197.000000	63.584017 
7196.000000	63.452672 
7195.000000	63.376855 
7194.000000	63.326859 
7193.000000	63.279151 
7192.000000	63.225579 
7191.000000	63.177967 
7190.000000	63.162231 
7189.000000	63.210439 
7188.000000	63.345456 
7187.000000	63.571977 
7186.000000	63.871955 
7185.000000	64.203333 
7184.000000	64.512395 
7183.000000	64.739060 
7182.000000	64.832377 
7181.000000	64.759993 
7180.000000	64.516115 
7179.000000	64.123988 
7178.000000	63.630294 
7177.000000	63.099145 
7176.000000	62.598276 
7175.000000	62.190723 
7174.000000	61.923813 
7173.000000	61.824774 
7172.000000	61.898159 
7171.000000	62.126970 
7170.000000	62.476587 
7169.000000	62.900900 
7168.000000	63.348937 
7167.000000	63.768434 
7166.000000	64.112782 
7165.000000	64.344882 
7164.000000	64.442157 
7163.000000	64.395999 
7162.000000	64.214992 
7161.000000	63.923954 
7160.000000	63.560461 
7159.000000	63.172483 
7158.000000	62.807464 
7157.000000	62.510848 
7156.000000	62.311720 
7155.000000	62.220215 
7154.000000	62.225461 
7153.000000	62.298822 
7152.000000	62.405133 
7151.000000	62.510514 
7150.000000	62.594032 
7149.000000	62.649512 
7148.000000	62.688803 
7147.000000	62.734174 
7146.000000	62.811255 
7145.000000	62.938308 
7144.000000	63.118624 
7143.000000	63.337254 
7142.000000	63.566732 
7141.000000	63.773655 
7140.000000	63.928055 
7139.000000	64.011120 
7138.000000	64.020299 
7137.000000	63.969421 
7136.000000	63.884067 
7135.000000	63.795971 
7134.000000	63.731193 
7133.000000	63.708758 
7132.000000	63.738131 
7131.000000	63.819599 
7130.000000	63.950371 
7129.000000	64.122295 
7128.000000	64.325547 
7127.000000	64.546275 
7126.000000	64.770174 
7125.000000	64.978361 
7124.000000	65.148305 
7123.000000	65.257668 
7122.000000	65.287351 
7121.000000	65.230083 
7120.000000	65.093851 
7119.000000	64.902639 
7118.000000	64.692735 
7117.000000	64.506816 
7116.000000	64.384436 
7115.000000	64.353060 
7114.000000	64.421153 
7113.000000	64.575958 
7112.000000	64.786243 
7111.000000	65.009760 
7110.000000	65.203475 
7109.000000	65.331649 
7108.000000	65.376448 
7107.000000	65.336847 
7106.000000	65.233588 
7105.000000	65.101313 
7104.000000	64.983201 
7103.000000	64.921355 
7102.000000	64.945459 
7101.000000	65.069603 
7100.000000	65.282368 
7099.000000	65.554976 
7098.000000	65.838241 
7097.000000	66.075730 
7096.000000	66.212654 
7095.000000	66.208624 
7094.000000	66.047525 
7093.000000	65.741038 
7092.000000	65.330982 
7091.000000	64.880752 
7090.000000	64.464020 
7089.000000	64.149117 
7088.000000	63.985443 
7087.000000	63.993287 
7086.000000	64.163613 
7085.000000	64.461231 
7084.000000	64.831447 
7083.000000	65.214157 
7082.000000	65.556859 
7081.000000	65.825033 
7080.000000	66.000151 
7079.000000	66.084980 
7078.000000	66.097998 
7077.000000	66.067075 
7076.000000	66.017985 
7075.000000	65.971589 
7074.000000	65.939760 
7073.000000	65.928149 
7072.000000	65.939092 
7071.000000	65.976905 
7070.000000	66.050672 
7069.000000	66.175198 
7068.000000	66.368174 
7067.000000	66.643548 
7066.000000	67.005109 
7065.000000	67.437839 
7064.000000	67.905688 
7063.000000	68.353700 
7062.000000	68.715262 
7061.000000	68.926072 
7060.000000	68.935108 
7059.000000	68.712282 
7058.000000	68.253540 
7057.000000	67.589402 
7056.000000	66.774773 
7055.000000	65.877151 
7054.000000	64.965105 
7053.000000	64.101362 
7052.000000	63.334035 
7051.000000	62.693858 
7050.000000	62.196803 
7049.000000	61.843538 
7048.000000	61.630940 
7047.000000	61.554479 
7046.000000	61.610865 
7045.000000	61.790132 
7044.000000	62.076544 
7043.000000	62.440800 
7042.000000	62.840843 
7041.000000	63.219285 
7040.000000	63.518500 
7039.000000	63.689684 
7038.000000	63.705158 
7037.000000	63.564968 
7036.000000	63.304018 
7035.000000	62.988042 
7034.000000	62.701368 
7033.000000	62.532329 
7032.000000	62.560462 
7031.000000	62.839007 
7030.000000	63.387012 
7029.000000	64.179873 
7028.000000	65.155720 
7027.000000	66.219162 
7026.000000	67.261028 
7025.000000	68.171048 
7024.000000	68.855190 
7023.000000	69.250059 
7022.000000	69.334840 
7021.000000	69.128584 
7020.000000	68.685913 
7019.000000	68.081688 
7018.000000	67.405915 
7017.000000	66.735100 
7016.000000	66.128325 
7015.000000	65.612125 
7014.000000	65.190410 
7013.000000	64.841842 
7012.000000	64.536118 
7011.000000	64.242959 
7010.000000	63.944649 
7009.000000	63.639307 
7008.000000	63.341712 
7007.000000	63.075780 
7006.000000	62.867712 
7005.000000	62.739133 
7004.000000	62.700414 
7003.000000	62.746715 
7002.000000	62.857794 
7001.000000	63.002443 
7000.000000	63.143634 
6999.000000	63.245701 
6998.000000	63.280749 
6997.000000	63.233757 
6996.000000	63.104271 
6995.000000	62.901163 
6994.000000	62.644338 
6993.000000	62.360095 
6992.000000	62.078332 
6991.000000	61.823654 
6990.000000	61.620903 
6989.000000	61.491203 
6988.000000	61.454629 
6987.000000	61.526966 
6986.000000	61.719036 
6985.000000	62.031960 
6984.000000	62.456393 
6983.000000	62.970066 
6982.000000	63.535261 
6981.000000	64.101529 
6980.000000	64.613580 
6979.000000	65.020036 
6978.000000	65.280723 
6977.000000	65.375590 
6976.000000	65.312004 
6975.000000	65.122842 
6974.000000	64.860343 
6973.000000	64.583849 
6972.000000	64.353370 
6971.000000	64.211559 
6970.000000	64.180707 
6969.000000	64.253354 
6968.000000	64.402508 
6967.000000	64.581990 
6966.000000	64.742088 
6965.000000	64.836668 
6964.000000	64.834213 
6963.000000	64.721989 
6962.000000	64.505982 
6961.000000	64.208674 
6960.000000	63.861989 
6959.000000	63.501024 
