PE IR       SPECTRUM    SPECTRUM    ASCII       PEDS        1.60        
  -1
C-9964~1.ASC
17/05/02
10:59:27.00
17/05/02
10:59:27.00
tln
$C-4040-8_t0002$<tbV0>[7.5,-13.0,8.0,0.0,22,1,0]
370.000000
64









2002,4.07    
MIRTGS : RIGHTBACK : INTERNAL 2
MIR : ON : INTERNAL 2
OPTKBR

0.200000
8
8.000000
FILLER
RATIO
SPECTRUM
UNLOCKED 256

DOUBLE
64
COMBINED
1
0
0


1.000000
RATIO


1
0
TRUE
51149
0
LEFT NOT FITTED RIGHT NOT FITTED 0
NONE
NONE
15600
12.000000
4.427000
51148
TRUE
1 0 8 72 0 0 0 0 

15798.010000






#HDR
-1
-1
#GR
CM-1

0.00002384185791015625
0.0
7800.000000
-1.000000
7431
8
71.079587
12.369465
#DATA
7800.000000	64.493632 
7799.000000	66.229271 
7798.000000	67.535138 
7797.000000	68.259119 
7796.000000	68.331837 
7795.000000	67.764830 
7794.000000	66.659235 
7793.000000	65.185546 
7792.000000	63.546085 
7791.000000	61.940836 
7790.000000	60.542011 
7789.000000	59.470939 
7788.000000	58.795619 
7787.000000	58.525204 
7786.000000	58.629179 
7785.000000	59.039616 
7784.000000	59.655094 
7783.000000	60.363030 
7782.000000	61.033225 
7781.000000	61.563014 
7780.000000	61.874723 
7779.000000	61.952614 
7778.000000	61.830067 
7777.000000	61.595201 
7776.000000	61.360955 
7775.000000	61.244654 
7774.000000	61.340093 
7773.000000	61.692571 
7772.000000	62.293910 
7771.000000	63.076949 
7770.000000	63.934445 
7769.000000	64.745712 
7768.000000	65.409874 
7767.000000	65.857458 
7766.000000	66.064119 
7765.000000	66.053938 
7764.000000	65.890145 
7763.000000	65.657711 
7762.000000	65.443539 
7761.000000	65.323162 
7760.000000	65.341925 
7759.000000	65.525722 
7758.000000	65.862321 
7757.000000	66.307806 
7756.000000	66.786432 
7755.000000	67.207765 
7754.000000	67.481255 
7753.000000	67.540431 
7752.000000	67.350792 
7751.000000	66.919279 
7750.000000	66.286158 
7749.000000	65.519118 
7748.000000	64.690732 
7747.000000	63.869094 
7746.000000	63.097667 
7745.000000	62.392139 
7744.000000	61.746716 
7743.000000	61.150145 
7742.000000	60.588121 
7741.000000	60.053515 
7740.000000	59.553647 
7739.000000	59.109997 
7738.000000	58.754277 
7737.000000	58.519148 
7736.000000	58.427667 
7735.000000	58.484244 
7734.000000	58.672165 
7733.000000	58.951520 
7732.000000	59.267807 
7731.000000	59.555649 
7730.000000	59.750175 
7729.000000	59.795784 
7728.000000	59.646892 
7727.000000	59.287571 
7726.000000	58.726620 
7725.000000	58.017730 
7724.000000	57.235288 
7723.000000	56.495094 
7722.000000	55.928921 
7721.000000	55.677413 
7720.000000	55.856728 
7719.000000	56.541395 
7718.000000	57.740950 
7717.000000	59.393501 
7716.000000	61.371684 
7715.000000	63.492417 
7714.000000	65.542697 
7713.000000	67.328190 
7712.000000	68.705940 
7711.000000	69.616866 
7710.000000	70.087170 
7709.000000	70.223712 
7708.000000	70.171308 
7707.000000	70.072269 
7706.000000	70.016908 
7705.000000	70.032048 
7704.000000	70.065903 
7703.000000	70.027446 
7702.000000	69.803237 
7701.000000	69.320201 
7700.000000	68.550753 
7699.000000	67.532348 
7698.000000	66.353344 
7697.000000	65.120410 
7696.000000	63.950967 
7695.000000	62.935090 
7694.000000	62.144923 
7693.000000	61.615324 
7692.000000	61.370515 
7691.000000	61.426711 
7690.000000	61.796832 
7689.000000	62.482404 
7688.000000	63.466119 
7687.000000	64.700603 
7686.000000	66.089677 
7685.000000	67.489194 
7684.000000	68.729329 
7683.000000	69.643282 
7682.000000	70.100140 
7681.000000	70.035028 
7680.000000	69.476819 
7679.000000	68.539118 
7678.000000	67.401289 
7677.000000	66.261672 
7676.000000	65.295743 
7675.000000	64.615273 
7674.000000	64.258813 
7673.000000	64.186525 
7672.000000	64.308309 
7671.000000	64.509773 
7670.000000	64.699935 
7669.000000	64.816880 
7668.000000	64.838790 
7667.000000	64.771032 
7666.000000	64.625692 
7665.000000	64.408779 
7664.000000	64.102292 
7663.000000	63.677978 
7662.000000	63.104438 
7661.000000	62.376046 
7660.000000	61.527323 
7659.000000	60.638737 
7658.000000	59.826254 
7657.000000	59.218835 
7656.000000	58.928036 
7655.000000	59.010815 
7654.000000	59.454798 
7653.000000	60.177373 
7652.000000	61.049199 
7651.000000	61.920928 
7650.000000	62.667012 
7649.000000	63.211655 
7648.000000	63.548135 
7647.000000	63.732671 
7646.000000	63.860583 
7645.000000	64.028191 
7644.000000	64.299845 
7643.000000	64.695596 
7642.000000	65.170598 
7641.000000	65.637516 
7640.000000	65.978193 
7639.000000	66.095209 
7638.000000	65.917754 
7637.000000	65.429377 
7636.000000	64.664220 
7635.000000	63.701653 
7634.000000	62.646293 
7633.000000	61.605572 
7632.000000	60.673975 
7631.000000	59.919309 
7630.000000	59.382247 
7629.000000	59.079122 
7628.000000	59.005618 
7627.000000	59.146809 
7626.000000	59.483289 
7625.000000	59.996366 
7624.000000	60.657548 
7623.000000	61.432170 
7622.000000	62.272500 
7621.000000	63.122558 
7620.000000	63.915562 
7619.000000	64.587950 
7618.000000	65.084791 
7617.000000	65.375971 
7616.000000	65.461611 
7615.000000	65.376305 
7614.000000	65.183997 
7613.000000	64.965653 
7612.000000	64.811158 
7611.000000	64.788675 
7610.000000	64.936590 
7609.000000	65.244865 
7608.000000	65.664815 
7607.000000	66.108846 
7606.000000	66.474986 
7605.000000	66.663026 
7604.000000	66.599297 
7603.000000	66.242837 
7602.000000	65.594244 
7601.000000	64.692568 
7600.000000	63.609719 
7599.000000	62.432241 
7598.000000	61.254739 
7597.000000	60.166168 
7596.000000	59.249305 
7595.000000	58.574104 
7594.000000	58.200669 
7593.000000	58.162713 
7592.000000	58.477115 
7591.000000	59.139513 
7590.000000	60.121130 
7589.000000	61.354112 
7588.000000	62.743854 
7587.000000	64.167523 
7586.000000	65.497994 
7585.000000	66.613078 
7584.000000	67.424392 
7583.000000	67.889881 
7582.000000	68.019294 
7581.000000	67.873787 
7580.000000	67.537188 
7579.000000	67.097783 
7578.000000	66.628599 
7577.000000	66.179060 
7576.000000	65.771102 
7575.000000	65.406560 
7574.000000	65.086960 
7573.000000	64.818716 
7572.000000	64.617896 
7571.000000	64.499354 
7570.000000	64.468169 
7569.000000	64.506268 
7568.000000	64.559459 
7567.000000	64.552998 
7566.000000	64.396882 
7565.000000	64.027976 
7564.000000	63.427686 
7563.000000	62.645530 
7562.000000	61.792850 
7561.000000	61.022186 
7560.000000	60.490655 
7559.000000	60.317897 
7558.000000	60.542631 
7557.000000	61.126375 
7556.000000	61.962366 
7555.000000	62.905526 
7554.000000	63.805174 
7553.000000	64.552235 
7552.000000	65.101480 
7551.000000	65.475392 
7550.000000	65.745925 
7549.000000	66.007661 
7548.000000	66.339254 
7547.000000	66.783618 
7546.000000	67.326307 
7545.000000	67.898297 
7544.000000	68.387842 
7543.000000	68.682098 
7542.000000	68.688774 
7541.000000	68.365931 
7540.000000	67.728686 
7539.000000	66.850233 
7538.000000	65.840268 
7537.000000	64.823555 
7536.000000	63.906550 
7535.000000	63.163280 
7534.000000	62.613987 
7533.000000	62.234735 
7532.000000	61.961078 
7531.000000	61.713361 
7530.000000	61.419343 
7529.000000	61.030268 
7528.000000	60.543394 
7527.000000	59.994101 
7526.000000	59.461593 
7525.000000	59.042000 
7524.000000	58.832788 
7523.000000	58.902525 
7522.000000	59.281420 
7521.000000	59.948873 
7520.000000	60.833287 
7519.000000	61.823701 
7518.000000	62.790536 
7517.000000	63.609313 
7516.000000	64.186024 
7515.000000	64.470291 
7514.000000	64.456701 
7513.000000	64.180970 
7512.000000	63.711333 
7511.000000	63.126802 
7510.000000	62.504386 
7509.000000	61.900973 
7508.000000	61.356210 
7507.000000	60.884928 
7506.000000	60.488271 
7505.000000	60.160422 
7504.000000	59.900927 
7503.000000	59.717130 
7502.000000	59.622335 
7501.000000	59.633326 
7500.000000	59.759569 
7499.000000	59.997010 
7498.000000	60.320973 
7497.000000	60.689592 
7496.000000	61.049461 
7495.000000	61.353588 
7494.000000	61.574554 
7493.000000	61.713981 
7492.000000	61.805796 
7491.000000	61.911702 
7490.000000	62.105584 
7489.000000	62.455391 
7488.000000	62.999844 
7487.000000	63.740372 
7486.000000	64.627099 
7485.000000	65.573430 
7484.000000	66.461467 
7483.000000	67.173409 
7482.000000	67.606592 
7481.000000	67.701506 
7480.000000	67.446327 
7479.000000	66.878008 
7478.000000	66.076874 
7477.000000	65.152263 
7476.000000	64.222073 
7475.000000	63.396334 
7474.000000	62.755584 
7473.000000	62.348461 
7472.000000	62.172555 
7471.000000	62.184190 
7470.000000	62.304091 
7469.000000	62.439441 
7468.000000	62.505555 
7467.000000	62.447857 
7466.000000	62.251210 
7465.000000	61.944603 
7464.000000	61.591029 
7463.000000	61.273264 
7462.000000	61.067175 
7461.000000	61.027193 
7460.000000	61.176323 
7459.000000	61.501407 
7458.000000	61.959958 
7457.000000	62.487936 
7456.000000	63.021230 
7455.000000	63.499999 
7454.000000	63.875627 
7453.000000	64.117789 
7452.000000	64.215588 
7451.000000	64.176273 
7450.000000	64.015173 
7449.000000	63.761091 
7448.000000	63.451242 
7447.000000	63.131165 
7446.000000	62.855076 
7445.000000	62.667059 
7444.000000	62.593841 
7443.000000	62.642574 
7442.000000	62.801909 
7441.000000	63.039445 
7440.000000	63.310933 
7439.000000	63.573575 
7438.000000	63.795852 
7437.000000	63.964986 
7436.000000	64.085316 
7435.000000	64.176177 
7434.000000	64.256238 
7433.000000	64.336037 
7432.000000	64.403486 
7431.000000	64.430928 
7430.000000	64.370822 
7429.000000	64.171743 
7428.000000	63.790369 
7427.000000	63.205766 
7426.000000	62.434935 
7425.000000	61.532402 
7424.000000	60.593318 
7423.000000	59.726643 
7422.000000	59.054231 
7421.000000	58.682465 
7420.000000	58.689284 
7419.000000	59.103202 
7418.000000	59.903264 
7417.000000	61.019730 
7416.000000	62.341403 
7415.000000	63.732457 
7414.000000	65.047788 
7413.000000	66.156578 
7412.000000	66.959333 
7411.000000	67.405581 
7410.000000	67.507457 
7409.000000	67.332053 
7408.000000	66.991519 
7407.000000	66.608715 
7406.000000	66.297864 
7405.000000	66.128516 
7404.000000	66.120576 
7403.000000	66.236662 
7402.000000	66.410017 
7401.000000	66.556310 
7400.000000	66.613483 
7399.000000	66.542959 
7398.000000	66.338872 
7397.000000	66.023683 
7396.000000	65.635180 
7395.000000	65.216302 
7394.000000	64.797496 
7393.000000	64.400243 
7392.000000	64.036250 
7391.000000	63.711690 
7390.000000	63.432121 
7389.000000	63.206410 
7388.000000	63.047003 
7387.000000	62.961816 
7386.000000	62.948846 
7385.000000	62.985682 
7384.000000	63.030052 
7383.000000	63.030576 
7382.000000	62.936592 
7381.000000	62.703442 
7380.000000	62.309122 
7379.000000	61.762666 
7378.000000	61.108779 
7377.000000	60.411190 
7376.000000	59.753799 
7375.000000	59.218597 
7374.000000	58.881497 
7373.000000	58.795690 
7372.000000	58.987116 
7371.000000	59.447979 
7370.000000	60.138344 
7369.000000	60.991501 
7368.000000	61.922621 
7367.000000	62.837290 
7366.000000	63.649272 
7365.000000	64.287710 
7364.000000	64.715051 
7363.000000	64.926981 
7362.000000	64.956831 
7361.000000	64.864277 
7360.000000	64.713883 
7359.000000	64.555835 
7358.000000	64.417147 
7357.000000	64.293193 
7356.000000	64.150953 
7355.000000	63.939261 
7354.000000	63.612532 
7353.000000	63.144826 
7352.000000	62.537717 
7351.000000	61.829066 
7350.000000	61.080431 
7349.000000	60.375428 
7348.000000	59.798502 
7347.000000	59.423923 
7346.000000	59.298729 
7345.000000	59.433841 
7344.000000	59.800124 
7343.000000	60.333752 
7342.000000	60.945606 
7341.000000	61.542201 
7340.000000	62.041211 
7339.000000	62.387585 
7338.000000	62.554669 
7337.000000	62.556457 
7336.000000	62.438011 
7335.000000	62.265419 
7334.000000	62.107324 
7333.000000	62.028217 
7332.000000	62.073922 
7331.000000	62.266921 
7330.000000	62.601113 
7329.000000	63.044524 
7328.000000	63.544106 
7327.000000	64.040327 
7326.000000	64.474987 
7325.000000	64.795589 
7324.000000	64.967131 
7323.000000	64.978265 
7322.000000	64.841556 
7321.000000	64.591145 
7320.000000	64.271140 
7319.000000	63.935375 
7318.000000	63.623070 
7317.000000	63.356280 
7316.000000	63.129448 
7315.000000	62.918829 
7314.000000	62.687373 
7313.000000	62.400507 
7312.000000	62.038135 
7311.000000	61.604046 
7310.000000	61.126947 
7309.000000	60.654330 
7308.000000	60.240316 
7307.000000	59.931230 
7306.000000	59.760069 
7305.000000	59.741067 
7304.000000	59.869360 
7303.000000	60.127091 
7302.000000	60.492324 
7301.000000	60.946106 
7300.000000	61.473774 
7299.000000	62.064218 
7298.000000	62.704849 
7297.000000	63.375186 
7296.000000	64.040541 
7295.000000	64.653158 
7294.000000	65.161800 
7293.000000	65.516614 
7292.000000	65.682435 
7291.000000	65.645360 
7290.000000	65.421271 
7289.000000	65.053033 
7288.000000	64.606451 
7287.000000	64.158034 
7286.000000	63.782477 
7285.000000	63.540267 
7284.000000	63.471531 
7283.000000	63.584208 
7282.000000	63.856029 
7281.000000	64.238190 
7280.000000	64.668011 
7279.000000	65.075421 
7278.000000	65.397810 
7277.000000	65.591359 
7276.000000	65.639543 
7275.000000	65.554618 
7274.000000	65.372133 
7273.000000	65.145587 
7272.000000	64.926910 
7271.000000	64.756965 
7270.000000	64.649200 
7269.000000	64.589285 
7268.000000	64.537048 
7267.000000	64.445781 
7266.000000	64.271950 
7265.000000	63.989520 
7264.000000	63.599920 
7263.000000	63.132786 
7262.000000	62.642002 
7261.000000	62.185668 
7260.000000	61.823248 
7259.000000	61.598753 
7258.000000	61.537241 
7257.000000	61.639308 
7256.000000	61.885023 
7255.000000	62.238240 
7254.000000	62.657237 
7253.000000	63.102030 
7252.000000	63.540720 
7251.000000	63.952159 
7250.000000	64.326596 
7249.000000	64.662051 
7248.000000	64.960503 
7247.000000	65.221548 
7246.000000	65.442085 
7245.000000	65.611457 
7244.000000	65.717864 
7243.000000	65.745735 
7242.000000	65.686774 
7241.000000	65.536594 
7240.000000	65.300703 
7239.000000	64.991855 
7238.000000	64.632916 
7237.000000	64.251542 
7236.000000	63.877463 
7235.000000	63.538527 
7234.000000	63.257098 
7233.000000	63.048505 
7232.000000	62.919521 
7231.000000	62.869811 
7230.000000	62.891578 
7229.000000	62.974596 
7228.000000	63.106727 
7227.000000	63.278627 
7226.000000	63.482856 
7225.000000	63.716030 
7224.000000	63.975954 
7223.000000	64.258837 
7222.000000	64.556002 
7221.000000	64.855098 
7220.000000	65.138626 
7219.000000	65.384674 
7218.000000	65.570020 
7217.000000	65.676689 
7216.000000	65.693926 
7215.000000	65.623950 
7214.000000	65.478944 
7213.000000	65.283012 
7212.000000	65.062618 
7211.000000	64.845561 
7210.000000	64.650464 
7209.000000	64.486551 
7208.000000	64.349794 
7207.000000	64.228153 
7206.000000	64.104580 
7205.000000	63.963460 
7204.000000	63.797712 
7203.000000	63.610839 
7202.000000	63.420367 
7201.000000	63.253259 
7200.000000	63.138794 
7199.000000	63.099288 
7198.000000	63.142633 
7197.000000	63.259124 
7196.000000	63.419866 
7195.000000	63.584756 
7194.000000	63.717675 
7193.000000	63.795137 
7192.000000	63.812041 
7191.000000	63.780999 
7190.000000	63.726663 
7189.000000	63.676476 
7188.000000	63.649058 
7187.000000	63.650059 
7186.000000	63.672089 
7185.000000	63.696742 
7184.000000	63.706278 
7183.000000	63.683700 
7182.000000	63.621330 
7181.000000	63.517832 
7180.000000	63.380527 
7179.000000	63.217926 
7178.000000	63.035845 
7177.000000	62.836813 
7176.000000	62.620353 
7175.000000	62.384819 
7174.000000	62.130308 
7173.000000	61.860966 
7172.000000	61.586928 
7171.000000	61.314678 
7170.000000	61.046481 
7169.000000	60.778737 
7168.000000	60.505771 
7167.000000	60.221052 
7166.000000	59.924840 
7165.000000	59.630012 
7164.000000	59.362649 
7163.000000	59.154152 
7162.000000	59.036779 
7161.000000	59.029293 
7160.000000	59.136247 
7159.000000	59.344625 
7158.000000	59.627246 
7157.000000	59.944748 
7156.000000	60.256409 
7155.000000	60.527873 
7154.000000	60.736298 
7153.000000	60.870671 
7152.000000	60.933804 
7151.000000	60.936450 
7150.000000	60.897755 
7149.000000	60.838603 
7148.000000	60.783982 
7147.000000	60.758733 
7146.000000	60.790705 
7145.000000	60.907959 
7144.000000	61.133718 
7143.000000	61.482214 
7142.000000	61.956810 
7141.000000	62.547206 
7140.000000	63.229990 
7139.000000	63.967394 
7138.000000	64.717006 
7137.000000	65.427064 
7136.000000	66.044259 
7135.000000	66.511106 
7134.000000	66.778326 
7133.000000	66.805028 
7132.000000	66.569805 
7131.000000	66.074442 
7130.000000	65.352725 
7129.000000	64.465975 
7128.000000	63.501501 
7127.000000	62.557363 
7126.000000	61.731910 
7125.000000	61.104059 
7124.000000	60.723400 
7123.000000	60.601091 
7122.000000	60.709118 
7121.000000	60.994386 
7120.000000	61.391162 
7119.000000	61.836457 
7118.000000	62.279629 
7117.000000	62.691116 
7116.000000	63.061118 
7115.000000	63.391447 
7114.000000	63.686728 
7113.000000	63.951039 
7112.000000	64.180636 
7111.000000	64.363670 
7110.000000	64.480757 
7109.000000	64.517307 
7108.000000	64.463734 
7107.000000	64.322972 
7106.000000	64.109230 
7105.000000	63.848805 
7104.000000	63.574671 
7103.000000	63.321137 
7102.000000	63.118124 
7101.000000	62.987446 
7100.000000	62.938523 
7099.000000	62.970948 
7098.000000	63.070726 
7097.000000	63.212299 
7096.000000	63.365864 
7095.000000	63.503527 
7094.000000	63.603162 
7093.000000	63.650155 
7092.000000	63.642907 
7091.000000	63.590645 
7090.000000	63.506269 
7089.000000	63.400149 
7088.000000	63.272714 
7087.000000	63.113522 
7086.000000	62.905120 
7085.000000	62.631392 
7084.000000	62.282061 
7083.000000	61.864662 
7082.000000	61.408829 
7081.000000	60.966086 
7080.000000	60.600209 
7079.000000	60.374402 
7078.000000	60.333895 
7077.000000	60.494947 
7076.000000	60.834574 
7075.000000	61.298990 
7074.000000	61.812114 
7073.000000	62.296700 
7072.000000	62.687826 
7071.000000	62.951850 
7070.000000	63.088345 
7069.000000	63.130378 
7068.000000	63.129138 
7067.000000	63.141655 
7066.000000	63.213610 
7065.000000	63.365268 
7064.000000	63.586497 
7063.000000	63.835620 
7062.000000	64.051795 
7061.000000	64.170551 
7060.000000	64.143776 
7059.000000	63.951921 
7058.000000	63.613414 
7057.000000	63.183283 
7056.000000	62.741446 
7055.000000	62.372565 
7054.000000	62.145256 
7053.000000	62.100386 
7052.000000	62.235999 
7051.000000	62.509250 
7050.000000	62.845253 
7049.000000	63.161015 
7048.000000	63.379883 
7047.000000	63.450455 
7046.000000	63.354134 
7045.000000	63.105535 
7044.000000	62.744331 
7043.000000	62.321853 
7042.000000	61.886143 
7041.000000	61.466717 
7040.000000	61.082100 
7039.000000	60.743212 
7038.000000	60.457611 
7037.000000	60.235500 
7036.000000	60.092020 
7035.000000	60.046482 
7034.000000	60.114097 
7033.000000	60.302019 
7032.000000	60.599017 
7031.000000	60.979843 
7030.000000	61.407804 
7029.000000	61.846876 
7028.000000	62.265777 
7027.000000	62.649011 
7026.000000	63.000106 
7025.000000	63.336348 
7024.000000	63.680529 
7023.000000	64.046859 
7022.000000	64.440870 
7021.000000	64.840912 
7020.000000	65.207815 
7019.000000	65.479469 
7018.000000	65.596318 
7017.000000	65.500426 
7016.000000	65.158843 
7015.000000	64.563703 
7014.000000	63.741016 
7013.000000	62.746834 
7012.000000	61.661410 
7011.000000	60.581302 
7010.000000	59.606599 
7009.000000	58.834528 
7008.000000	58.347344 
7007.000000	58.202815 
7006.000000	58.426642 
7005.000000	59.007120 
7004.000000	59.897279 
7003.000000	61.011934 
7002.000000	62.245225 
7001.000000	63.481545 
7000.000000	64.617538 
6999.000000	65.568876 
6998.000000	66.285800 
6997.000000	66.756916 
6996.000000	67.002201 
6995.000000	67.064261 
6994.000000	66.991806 
6993.000000	66.837120 
6992.000000	66.635560 
6991.000000	66.414451 
6990.000000	66.179943 
6989.000000	65.933084 
6988.000000	65.666151 
6987.000000	65.378856 
6986.000000	65.071129 
6985.000000	64.748263 
6984.000000	64.418053 
6983.000000	64.090847 
6982.000000	63.772988 
6981.000000	63.466715 
6980.000000	63.174510 
6979.000000	62.901043 
6978.000000	62.653422 
6977.000000	62.441182 
6976.000000	62.276268 
6975.000000	62.167525 
6974.000000	62.116122 
6973.000000	62.111902 
6972.000000	62.129187 
6971.000000	62.133502 
6970.000000	62.090039 
6969.000000	61.971926 
6968.000000	61.761689 
6967.000000	61.463165 
6966.000000	61.100554 
6965.000000	60.717439 
6964.000000	60.361528 
6963.000000	60.084843 
6962.000000	59.929156 
6961.000000	59.924864 
6960.000000	60.084009 
6959.000000	60.400247 
