PE IR       SPECTRUM    SPECTRUM    ASCII       PEDS        1.60        
  -1
C-99EF~1.ASC
17/05/02
11:23:29.00
17/05/02
11:23:29.00
tln
$C-4040-8_t0007$<tbV0>[12.5,-8.0,8.0,0.0,22,1,0]
370.000000
64









2002,4.07    
MIRTGS : RIGHTBACK : INTERNAL 2
MIR : ON : INTERNAL 2
OPTKBR

0.200000
8
8.000000
FILLER
RATIO
SPECTRUM
UNLOCKED 256

DOUBLE
64
COMBINED
1
0
0


1.000000
RATIO


1
0
TRUE
51149
0
LEFT NOT FITTED RIGHT NOT FITTED 0
NONE
NONE
15600
12.000000
4.427000
51148
TRUE
1 0 8 72 0 0 0 0 

15798.010000






#HDR
-1
-1
#GR
CM-1
%T
0.00002384185791015625
0.0
7800.000000
-1.000000
7431
8
94.191813
48.735189
#DATA
7800.000000	68.295025 
7799.000000	67.000579 
7798.000000	65.842604 
7797.000000	64.792895 
7796.000000	63.843011 
7795.000000	63.012790 
7794.000000	62.345886 
7793.000000	61.892127 
7792.000000	61.706686 
7791.000000	61.826133 
7790.000000	62.263679 
7789.000000	62.991118 
7788.000000	63.925743 
7787.000000	64.938092 
7786.000000	65.865516 
7785.000000	66.549491 
7784.000000	66.859054 
7783.000000	66.736912 
7782.000000	66.204166 
7781.000000	65.378904 
7780.000000	64.445328 
7779.000000	63.630366 
7778.000000	63.147044 
7777.000000	63.159346 
7776.000000	63.757014 
7775.000000	64.920186 
7774.000000	66.545224 
7773.000000	68.427348 
7772.000000	70.302844 
7771.000000	71.895289 
7770.000000	72.970843 
7769.000000	73.385882 
7768.000000	73.110461 
7767.000000	72.248029 
7766.000000	71.008968 
7765.000000	69.665145 
7764.000000	68.488669 
7763.000000	67.699050 
7762.000000	67.419123 
7761.000000	67.669796 
7760.000000	68.372583 
7759.000000	69.381713 
7758.000000	70.521044 
7757.000000	71.628260 
7756.000000	72.588109 
7755.000000	73.320937 
7754.000000	73.814034 
7753.000000	74.103903 
7752.000000	74.268484 
7751.000000	74.390292 
7750.000000	74.545145 
7749.000000	74.786019 
7748.000000	75.131845 
7747.000000	75.579023 
7746.000000	76.094365 
7745.000000	76.637721 
7744.000000	77.157807 
7743.000000	77.611088 
7742.000000	77.953147 
7741.000000	78.148031 
7740.000000	78.161096 
7739.000000	77.962517 
7738.000000	77.545118 
7737.000000	76.923489 
7736.000000	76.138615 
7735.000000	75.240588 
7734.000000	74.274206 
7733.000000	73.259210 
7732.000000	72.188043 
7731.000000	71.026539 
7730.000000	69.730639 
7729.000000	68.268632 
7728.000000	66.638135 
7727.000000	64.887642 
7726.000000	63.109564 
7725.000000	61.441349 
7724.000000	60.017275 
7723.000000	58.969616 
7722.000000	58.390998 
7721.000000	58.323001 
7720.000000	58.738350 
7719.000000	59.545302 
7718.000000	60.595154 
7717.000000	61.711573 
7716.000000	62.714242 
7715.000000	63.457822 
7714.000000	63.849472 
7713.000000	63.870000 
7712.000000	63.566637 
7711.000000	63.039922 
7710.000000	62.411832 
7709.000000	61.804914 
7708.000000	61.309194 
7707.000000	60.962677 
7706.000000	60.745406 
7705.000000	60.602283 
7704.000000	60.460376 
7703.000000	60.249972 
7702.000000	59.931659 
7701.000000	59.512090 
7700.000000	59.043860 
7699.000000	58.594465 
7698.000000	58.244514 
7697.000000	58.053493 
7696.000000	58.061146 
7695.000000	58.269214 
7694.000000	58.656406 
7693.000000	59.186148 
7692.000000	59.815263 
7691.000000	60.499572 
7690.000000	61.203241 
7689.000000	61.896729 
7688.000000	62.561988 
7687.000000	63.186669 
7686.000000	63.766932 
7685.000000	64.302444 
7684.000000	64.799880 
7683.000000	65.269374 
7682.000000	65.723657 
7681.000000	66.174030 
7680.000000	66.629981 
7679.000000	67.095327 
7678.000000	67.568874 
7677.000000	68.042206 
7676.000000	68.506002 
7675.000000	68.944454 
7674.000000	69.351720 
7673.000000	69.714283 
7672.000000	70.013833 
7671.000000	70.220875 
7670.000000	70.308089 
7669.000000	70.246434 
7668.000000	70.016074 
7667.000000	69.613218 
7666.000000	69.060492 
7665.000000	68.404459 
7664.000000	67.711186 
7663.000000	67.059135 
7662.000000	66.522455 
7661.000000	66.171312 
7660.000000	66.060352 
7659.000000	66.217327 
7658.000000	66.634774 
7657.000000	67.266392 
7656.000000	68.030285 
7655.000000	68.809151 
7654.000000	69.472289 
7653.000000	69.895243 
7652.000000	69.993209 
7651.000000	69.731092 
7650.000000	69.148421 
7649.000000	68.353176 
7648.000000	67.512059 
7647.000000	66.813015 
7646.000000	66.431331 
7645.000000	66.501092 
7644.000000	67.073488 
7643.000000	68.114686 
7642.000000	69.495964 
7641.000000	71.026659 
7640.000000	72.482943 
7639.000000	73.652195 
7638.000000	74.378490 
7637.000000	74.591398 
7636.000000	74.314570 
7635.000000	73.651099 
7634.000000	72.754549 
7633.000000	71.789288 
7632.000000	70.898127 
7631.000000	70.176935 
7630.000000	69.673442 
7629.000000	69.390583 
7628.000000	69.305157 
7627.000000	69.379878 
7626.000000	69.572138 
7625.000000	69.840836 
7624.000000	70.135331 
7623.000000	70.407056 
7622.000000	70.607495 
7621.000000	70.700287 
7620.000000	70.665526 
7619.000000	70.503282 
7618.000000	70.232295 
7617.000000	69.883489 
7616.000000	69.501733 
7615.000000	69.123983 
7614.000000	68.775701 
7613.000000	68.458771 
7612.000000	68.159413 
7611.000000	67.845773 
7610.000000	67.483735 
7609.000000	67.043185 
7608.000000	66.508030 
7607.000000	65.887665 
7606.000000	65.218853 
7605.000000	64.552545 
7604.000000	63.941454 
7603.000000	63.425421 
7602.000000	63.021993 
7601.000000	62.722706 
7600.000000	62.501406 
7599.000000	62.316679 
7598.000000	62.136173 
7597.000000	61.947298 
7596.000000	61.774063 
7595.000000	61.666464 
7594.000000	61.698031 
7593.000000	61.938142 
7592.000000	62.437129 
7591.000000	63.204455 
7590.000000	64.200973 
7589.000000	65.340566 
7588.000000	66.503763 
7587.000000	67.562556 
7586.000000	68.402981 
7585.000000	68.953347 
7584.000000	69.186639 
7583.000000	69.124078 
7582.000000	68.820309 
7581.000000	68.351006 
7580.000000	67.787551 
7579.000000	67.185735 
7578.000000	66.581416 
7577.000000	65.996742 
7576.000000	65.451097 
7575.000000	64.973163 
7574.000000	64.609408 
7573.000000	64.421105 
7572.000000	64.469361 
7571.000000	64.797639 
7570.000000	65.411257 
7569.000000	66.267871 
7568.000000	67.274951 
7567.000000	68.305826 
7566.000000	69.218993 
7565.000000	69.891381 
7564.000000	70.244216 
7563.000000	70.260000 
7562.000000	69.982147 
7561.000000	69.503617 
7560.000000	68.947696 
7559.000000	68.431639 
7558.000000	68.044853 
7557.000000	67.825007 
7556.000000	67.765021 
7555.000000	67.808938 
7554.000000	67.878580 
7553.000000	67.893266 
7552.000000	67.796850 
7551.000000	67.567849 
7550.000000	67.224216 
7549.000000	66.815781 
7548.000000	66.408586 
7547.000000	66.069340 
7546.000000	65.846896 
7545.000000	65.760970 
7544.000000	65.796685 
7543.000000	65.915346 
7542.000000	66.061377 
7541.000000	66.176772 
7540.000000	66.213297 
7539.000000	66.143250 
7538.000000	65.962290 
7537.000000	65.685367 
7536.000000	65.342020 
7535.000000	64.963078 
7534.000000	64.577341 
7533.000000	64.209508 
7532.000000	63.873100 
7531.000000	63.571572 
7530.000000	63.300991 
7529.000000	63.055515 
7528.000000	62.831616 
7527.000000	62.630057 
7526.000000	62.458944 
7525.000000	62.329959 
7524.000000	62.258553 
7523.000000	62.258481 
7522.000000	62.334966 
7521.000000	62.481856 
7520.000000	62.681841 
7519.000000	62.912273 
7518.000000	63.149356 
7517.000000	63.378000 
7516.000000	63.597202 
7515.000000	63.821434 
7514.000000	64.075565 
7513.000000	64.384245 
7512.000000	64.766311 
7511.000000	65.217638 
7510.000000	65.711617 
7509.000000	66.192841 
7508.000000	66.592645 
7507.000000	66.836571 
7506.000000	66.867756 
7505.000000	66.655731 
7504.000000	66.209745 
7503.000000	65.575695 
7502.000000	64.827299 
7501.000000	64.056706 
7500.000000	63.357400 
7499.000000	62.810897 
7498.000000	62.473034 
7497.000000	62.373280 
7496.000000	62.513589 
7495.000000	62.868070 
7494.000000	63.389801 
7493.000000	64.015269 
7492.000000	64.675378 
7491.000000	65.303015 
7490.000000	65.843510 
7489.000000	66.258144 
7488.000000	66.528725 
7487.000000	66.658782 
7486.000000	66.665911 
7485.000000	66.580772 
7484.000000	66.430234 
7483.000000	66.239547 
7482.000000	66.017127 
7481.000000	65.761804 
7480.000000	65.461492 
7479.000000	65.103006 
7478.000000	64.683890 
7477.000000	64.215636 
7476.000000	63.738203 
7475.000000	63.314700 
7474.000000	63.023090 
7473.000000	62.935709 
7472.000000	63.103079 
7471.000000	63.536810 
7470.000000	64.200592 
7469.000000	65.012931 
7468.000000	65.861940 
7467.000000	66.628313 
7466.000000	67.210054 
7465.000000	67.544174 
7464.000000	67.619967 
7463.000000	67.477464 
7462.000000	67.192816 
7461.000000	66.856884 
7460.000000	66.554474 
7459.000000	66.342449 
7458.000000	66.245746 
7457.000000	66.251659 
7456.000000	66.327404 
7455.000000	66.425418 
7454.000000	66.511130 
7453.000000	66.557884 
7452.000000	66.552448 
7451.000000	66.491007 
7450.000000	66.374349 
7449.000000	66.203570 
7448.000000	65.975356 
7447.000000	65.686535 
7446.000000	65.338397 
7445.000000	64.936900 
7444.000000	64.496111 
7443.000000	64.034938 
7442.000000	63.576006 
7441.000000	63.137578 
7440.000000	62.732124 
7439.000000	62.361669 
7438.000000	62.023448 
7437.000000	61.713576 
7436.000000	61.437416 
7435.000000	61.207938 
7434.000000	61.053109 
7433.000000	61.005973 
7432.000000	61.104679 
7431.000000	61.373114 
7430.000000	61.822199 
7429.000000	62.440085 
7428.000000	63.194847 
7427.000000	64.035868 
7426.000000	64.900755 
7425.000000	65.723085 
7424.000000	66.442084 
7423.000000	67.011022 
7422.000000	67.402768 
7421.000000	67.613410 
7420.000000	67.658591 
7419.000000	67.571425 
7418.000000	67.390370 
7417.000000	67.154479 
7416.000000	66.895198 
7415.000000	66.637039 
7414.000000	66.395616 
7413.000000	66.183543 
7412.000000	66.017198 
7411.000000	65.919947 
7410.000000	65.922927 
7409.000000	66.057181 
7408.000000	66.345715 
7407.000000	66.788554 
7406.000000	67.356610 
7405.000000	67.987895 
7404.000000	68.590116 
7403.000000	69.062709 
7402.000000	69.319534 
7401.000000	69.311022 
7400.000000	69.037437 
7399.000000	68.550229 
7398.000000	67.944860 
7397.000000	67.332386 
7396.000000	66.817188 
7395.000000	66.465854 
7394.000000	66.297626 
7393.000000	66.279053 
7392.000000	66.340017 
7391.000000	66.397237 
7390.000000	66.382169 
7389.000000	66.260337 
7388.000000	66.040301 
7387.000000	65.768814 
7386.000000	65.512514 
7385.000000	65.333414 
7384.000000	65.264678 
7383.000000	65.298771 
7382.000000	65.383529 
7381.000000	65.437793 
7380.000000	65.370130 
7379.000000	65.106177 
7378.000000	64.609360 
7377.000000	63.892221 
7376.000000	63.018774 
7375.000000	62.082195 
7374.000000	61.196446 
7373.000000	60.461783 
7372.000000	59.960103 
7371.000000	59.737229 
7370.000000	59.803724 
7369.000000	60.137438 
7368.000000	60.689187 
7367.000000	61.390709 
7366.000000	62.166619 
7365.000000	62.940502 
7364.000000	63.647031 
7363.000000	64.233708 
7362.000000	64.668011 
7361.000000	64.935374 
7360.000000	65.033364 
7359.000000	64.967179 
7358.000000	64.747452 
7357.000000	64.390468 
7356.000000	63.919734 
7355.000000	63.369822 
7354.000000	62.792181 
7353.000000	62.251496 
7352.000000	61.815738 
7351.000000	61.548566 
7350.000000	61.498594 
7349.000000	61.690330 
7348.000000	62.114620 
7347.000000	62.732362 
7346.000000	63.477039 
7345.000000	64.269948 
7344.000000	65.031123 
7343.000000	65.694260 
7342.000000	66.214275 
7341.000000	66.570925 
7340.000000	66.765594 
7339.000000	66.815853 
7338.000000	66.746735 
7337.000000	66.587972 
7336.000000	66.371750 
7335.000000	66.126084 
7334.000000	65.875506 
7333.000000	65.641713 
7332.000000	65.446305 
7331.000000	65.304923 
7330.000000	65.231037 
7329.000000	65.237188 
7328.000000	65.336251 
7327.000000	65.539550 
7326.000000	65.854024 
7325.000000	66.275930 
7324.000000	66.786909 
7323.000000	67.357540 
7322.000000	67.941689 
7321.000000	68.481564 
7320.000000	68.912243 
7319.000000	69.178485 
7318.000000	69.236707 
7317.000000	69.068837 
7316.000000	68.679428 
7315.000000	68.102192 
7314.000000	67.385864 
7313.000000	66.592025 
7312.000000	65.777921 
7311.000000	64.992380 
7310.000000	64.268827 
7309.000000	63.628411 
7308.000000	63.077878 
7307.000000	62.616324 
7306.000000	62.238097 
7305.000000	61.940217 
7304.000000	61.718797 
7303.000000	61.575937 
7302.000000	61.519670 
7301.000000	61.567425 
7300.000000	61.735844 
7299.000000	62.040972 
7298.000000	62.489080 
7297.000000	63.073348 
7296.000000	63.766813 
7295.000000	64.524412 
7294.000000	65.286827 
7293.000000	65.989637 
7292.000000	66.571164 
7291.000000	66.987061 
7290.000000	67.219543 
7289.000000	67.279958 
7288.000000	67.207837 
7287.000000	67.058277 
7286.000000	66.892719 
7285.000000	66.760587 
7284.000000	66.694545 
7283.000000	66.697001 
7282.000000	66.745519 
7281.000000	66.798162 
7280.000000	66.809844 
7279.000000	66.733312 
7278.000000	66.533470 
7277.000000	66.195678 
7276.000000	65.732479 
7275.000000	65.181684 
7274.000000	64.601373 
7273.000000	64.059805 
7272.000000	63.621020 
7271.000000	63.332676 
7270.000000	63.215279 
7269.000000	63.257026 
7268.000000	63.418865 
7267.000000	63.644409 
7266.000000	63.874292 
7265.000000	64.056897 
7264.000000	64.160871 
7263.000000	64.177298 
7262.000000	64.118742 
7261.000000	64.006876 
7260.000000	63.868808 
7259.000000	63.725399 
7258.000000	63.591074 
7257.000000	63.471579 
7256.000000	63.370561 
7255.000000	63.292980 
7254.000000	63.250708 
7253.000000	63.262486 
7252.000000	63.343286 
7251.000000	63.497686 
7250.000000	63.711905 
7249.000000	63.953423 
7248.000000	64.172410 
7247.000000	64.315009 
7246.000000	64.335942 
7245.000000	64.214658 
7244.000000	63.962602 
7243.000000	63.624978 
7242.000000	63.271045 
7241.000000	62.979435 
7240.000000	62.818217 
7239.000000	62.830352 
7238.000000	63.021159 
7237.000000	63.362097 
7236.000000	63.799667 
7235.000000	64.270997 
7234.000000	64.717221 
7233.000000	65.100884 
7232.000000	65.410661 
7231.000000	65.661072 
7230.000000	65.880537 
7229.000000	66.101789 
7228.000000	66.346979 
7227.000000	66.624069 
7226.000000	66.923737 
7225.000000	67.222690 
7224.000000	67.490005 
7223.000000	67.699241 
7222.000000	67.832946 
7221.000000	67.884349 
7220.000000	67.854857 
7219.000000	67.752146 
7218.000000	67.583441 
7217.000000	67.356014 
7216.000000	67.071533 
7215.000000	66.732740 
7214.000000	66.339445 
7213.000000	65.896940 
7212.000000	65.413308 
7211.000000	64.901638 
7210.000000	64.380955 
7209.000000	63.873815 
7208.000000	63.407564 
7207.000000	63.006114 
7206.000000	62.694311 
7205.000000	62.491369 
7204.000000	62.411499 
7203.000000	62.455463 
7202.000000	62.619543 
7201.000000	62.893247 
7200.000000	63.260030 
7199.000000	63.695502 
7198.000000	64.171171 
7197.000000	64.655232 
7196.000000	65.114426 
7195.000000	65.516543 
7194.000000	65.837931 
7193.000000	66.063547 
7192.000000	66.189765 
7191.000000	66.220259 
7190.000000	66.165399 
7189.000000	66.036748 
7188.000000	65.849542 
7187.000000	65.616679 
7186.000000	65.353298 
7185.000000	65.071511 
7184.000000	64.790105 
7183.000000	64.522361 
7182.000000	64.276933 
7181.000000	64.054226 
7180.000000	63.849472 
7179.000000	63.652682 
7178.000000	63.448882 
7177.000000	63.230252 
7176.000000	62.998390 
7175.000000	62.769412 
7174.000000	62.569975 
7173.000000	62.431025 
7172.000000	62.377667 
7171.000000	62.417364 
7170.000000	62.535524 
7169.000000	62.692022 
7168.000000	62.832045 
7167.000000	62.903547 
7166.000000	62.872409 
7165.000000	62.732577 
7164.000000	62.508702 
7163.000000	62.248659 
7162.000000	62.011647 
7161.000000	61.846375 
7160.000000	61.784815 
7159.000000	61.832141 
7158.000000	61.973762 
7157.000000	62.181782 
7156.000000	62.427616 
7155.000000	62.691235 
7154.000000	62.965488 
7153.000000	63.256239 
7152.000000	63.572216 
7151.000000	63.914990 
7150.000000	64.271926 
7149.000000	64.613962 
7148.000000	64.898371 
7147.000000	65.078210 
7146.000000	65.116095 
7145.000000	64.996504 
7144.000000	64.728331 
7143.000000	64.345741 
7142.000000	63.899946 
7141.000000	63.449382 
7140.000000	63.048291 
7139.000000	62.736892 
7138.000000	62.537479 
7137.000000	62.452125 
7136.000000	62.467670 
7135.000000	62.559604 
7134.000000	62.698483 
7133.000000	62.856078 
7132.000000	63.006234 
7131.000000	63.131189 
7130.000000	63.218808 
7129.000000	63.266086 
7128.000000	63.270854 
7127.000000	63.238596 
7126.000000	63.180565 
7125.000000	63.112545 
7124.000000	63.052749 
7123.000000	63.017773 
7122.000000	63.020563 
7121.000000	63.065099 
7120.000000	63.146448 
7119.000000	63.248729 
7118.000000	63.348698 
7117.000000	63.421940 
7116.000000	63.449072 
7115.000000	63.418292 
7114.000000	63.328480 
7113.000000	63.189363 
7112.000000	63.019800 
7111.000000	62.841057 
7110.000000	62.675547 
7109.000000	62.538743 
7108.000000	62.444901 
7107.000000	62.403488 
7106.000000	62.427973 
7105.000000	62.533235 
7104.000000	62.739348 
7103.000000	63.064146 
7102.000000	63.520479 
7101.000000	64.107728 
7100.000000	64.807033 
7099.000000	65.577888 
7098.000000	66.362571 
7097.000000	67.095232 
7096.000000	67.710852 
7095.000000	68.159866 
7094.000000	68.410325 
7093.000000	68.454194 
7092.000000	68.304204 
7091.000000	67.991662 
7090.000000	67.556381 
7089.000000	67.040872 
7088.000000	66.486215 
7087.000000	65.928840 
7086.000000	65.401816 
7085.000000	64.933848 
7084.000000	64.549922 
7083.000000	64.269280 
7082.000000	64.104104 
7081.000000	64.057135 
7080.000000	64.114642 
7079.000000	64.252161 
7078.000000	64.434790 
7077.000000	64.626836 
7076.000000	64.790248 
7075.000000	64.899420 
7074.000000	64.942622 
7073.000000	64.926147 
7072.000000	64.866256 
7071.000000	64.790391 
7070.000000	64.729452 
7069.000000	64.710283 
7068.000000	64.748549 
7067.000000	64.847588 
7066.000000	64.999699 
7065.000000	65.184736 
7064.000000	65.375590 
7063.000000	65.542173 
7062.000000	65.657377 
7061.000000	65.701651 
7060.000000	65.666007 
7059.000000	65.551280 
7058.000000	65.365862 
7057.000000	65.128684 
7056.000000	64.859557 
7055.000000	64.575457 
7054.000000	64.283227 
7053.000000	63.984322 
7052.000000	63.670873 
7051.000000	63.330054 
7050.000000	62.950110 
7049.000000	62.528085 
7048.000000	62.073349 
7047.000000	61.606049 
7046.000000	61.157441 
7045.000000	60.761833 
7044.000000	60.451149 
7043.000000	60.244846 
7042.000000	60.148143 
7041.000000	60.147452 
7040.000000	60.219192 
7039.000000	60.333347 
7038.000000	60.466003 
7037.000000	60.603451 
7036.000000	60.747718 
7035.000000	60.912513 
7034.000000	61.118721 
7033.000000	61.383700 
7032.000000	61.710286 
7031.000000	62.082171 
7030.000000	62.464118 
7029.000000	62.810349 
7028.000000	63.074731 
7027.000000	63.225960 
7026.000000	63.257098 
7025.000000	63.191127 
7024.000000	63.076019 
7023.000000	62.974715 
7022.000000	62.950444 
7021.000000	63.049936 
7020.000000	63.292765 
7019.000000	63.664555 
7018.000000	64.123010 
7017.000000	64.606022 
7016.000000	65.048456 
7015.000000	65.396738 
7014.000000	65.622496 
7013.000000	65.724372 
7012.000000	65.724062 
7011.000000	65.663170 
7010.000000	65.590500 
7009.000000	65.555524 
7008.000000	65.596771 
7007.000000	65.738677 
7006.000000	65.984892 
7005.000000	66.318845 
7004.000000	66.705131 
7003.000000	67.095398 
7002.000000	67.436695 
7001.000000	67.685174 
7000.000000	67.810440 
6999.000000	67.802643 
6998.000000	67.667889 
6997.000000	67.428827 
6996.000000	67.112445 
6995.000000	66.742658 
6994.000000	66.338419 
6993.000000	65.915679 
6992.000000	65.489554 
6991.000000	65.076684 
6990.000000	64.701867 
6989.000000	64.398241 
6988.000000	64.202880 
6987.000000	64.148116 
6986.000000	64.253187 
6985.000000	64.515876 
6984.000000	64.907813 
6983.000000	65.375828 
6982.000000	65.854930 
6981.000000	66.280698 
6980.000000	66.602492 
6979.000000	66.792535 
6978.000000	66.850233 
6977.000000	66.797590 
6976.000000	66.671180 
6975.000000	66.508340 
6974.000000	66.340613 
6973.000000	66.180753 
6972.000000	66.029357 
6971.000000	65.868377 
6970.000000	65.673851 
6969.000000	65.419054 
6968.000000	65.087676 
6967.000000	64.677953 
6966.000000	64.203858 
6965.000000	63.697695 
6964.000000	63.200783 
6963.000000	62.761139 
6962.000000	62.420344 
6961.000000	62.210798 
6960.000000	62.147879 
6959.000000	62.228965 
