PE IR       SPECTRUM    SPECTRUM    ASCII       PEDS        1.60        
  -1
C-99E0~1.ASC
17/05/02
11:32:51.00
17/05/02
11:32:51.00
tln
$C-4040-8_t0009$<tbV0>[2.5,-8.0,8.0,0.0,22,1,0]
370.000000
64









2002,4.07    
MIRTGS : RIGHTBACK : INTERNAL 2
MIR : ON : INTERNAL 2
OPTKBR

0.200000
8
8.000000
FILLER
RATIO
SPECTRUM
UNLOCKED 256

DOUBLE
64
COMBINED
1
0
0


1.000000
RATIO


1
0
TRUE
51149
0
LEFT NOT FITTED RIGHT NOT FITTED 0
NONE
NONE
15600
12.000000
4.427000
51148
TRUE
1 0 8 72 0 0 0 0 

15798.010000






#HDR
-1
-1
#GR
CM-1
%T
0.00002384185791015625
0.0
7800.000000
-1.000000
7431
8
79.586076
23.928070
#DATA
7800.000000	71.128630 
7799.000000	71.326184 
7798.000000	71.272397 
7797.000000	70.859813 
7796.000000	70.051741 
7795.000000	68.867349 
7794.000000	67.401170 
7793.000000	65.799283 
7792.000000	64.235115 
7791.000000	62.876605 
7790.000000	61.860585 
7789.000000	61.270642 
7788.000000	61.128258 
7787.000000	61.397814 
7786.000000	61.986136 
7785.000000	62.777352 
7784.000000	63.657021 
7783.000000	64.543151 
7782.000000	65.365743 
7781.000000	66.102051 
7780.000000	66.768598 
7779.000000	67.407727 
7778.000000	68.064832 
7777.000000	68.762493 
7776.000000	69.486594 
7775.000000	70.180296 
7774.000000	70.770621 
7773.000000	71.168851 
7772.000000	71.298074 
7771.000000	71.120643 
7770.000000	70.659589 
7769.000000	69.995665 
7768.000000	69.254803 
7767.000000	68.591737 
7766.000000	68.158960 
7765.000000	68.088674 
7764.000000	68.465900 
7763.000000	69.321918 
7762.000000	70.620775 
7761.000000	72.267913 
7760.000000	74.109864 
7759.000000	75.962400 
7758.000000	77.618741 
7757.000000	78.880667 
7756.000000	79.576063 
7755.000000	79.586076 
7754.000000	78.862810 
7753.000000	77.445244 
7752.000000	75.456261 
7751.000000	73.090314 
7750.000000	70.589399 
7749.000000	68.218564 
7748.000000	66.219139 
7747.000000	64.778351 
7746.000000	64.001417 
7745.000000	63.907384 
7744.000000	64.424371 
7743.000000	65.407109 
7742.000000	66.667151 
7741.000000	68.004393 
7740.000000	69.234633 
7739.000000	70.209431 
7738.000000	70.836424 
7737.000000	71.078705 
7736.000000	70.952153 
7735.000000	70.507788 
7734.000000	69.814491 
7733.000000	68.940973 
7732.000000	67.956423 
7731.000000	66.918277 
7730.000000	65.882611 
7729.000000	64.896488 
7728.000000	64.008140 
7727.000000	63.257884 
7726.000000	62.678575 
7725.000000	62.287807 
7724.000000	62.077236 
7723.000000	62.021136 
7722.000000	62.072014 
7721.000000	62.178754 
7720.000000	62.290239 
7719.000000	62.369060 
7718.000000	62.388849 
7717.000000	62.344574 
7716.000000	62.247872 
7715.000000	62.117719 
7714.000000	61.969089 
7713.000000	61.818122 
7712.000000	61.679172 
7711.000000	61.569976 
7710.000000	61.512565 
7709.000000	61.533451 
7708.000000	61.659932 
7707.000000	61.915922 
7706.000000	62.314510 
7705.000000	62.845253 
7704.000000	63.476991 
7703.000000	64.160394 
7702.000000	64.838814 
7701.000000	65.461897 
7700.000000	65.990591 
7699.000000	66.408014 
7698.000000	66.708278 
7697.000000	66.903591 
7696.000000	66.999149 
7695.000000	66.988277 
7694.000000	66.851615 
7693.000000	66.565895 
7692.000000	66.118884 
7691.000000	65.522050 
7690.000000	64.825916 
7689.000000	64.120650 
7688.000000	63.522028 
7687.000000	63.148689 
7686.000000	63.091993 
7685.000000	63.391208 
7684.000000	64.019823 
7683.000000	64.886832 
7682.000000	65.854382 
7681.000000	66.764998 
7680.000000	67.477941 
7679.000000	67.893099 
7678.000000	67.966866 
7677.000000	67.711782 
7676.000000	67.181396 
7675.000000	66.454911 
7674.000000	65.614676 
7673.000000	64.736175 
7672.000000	63.881611 
7671.000000	63.099741 
7670.000000	62.439799 
7669.000000	61.942672 
7668.000000	61.643147 
7667.000000	61.562871 
7666.000000	61.701631 
7665.000000	62.038874 
7664.000000	62.527561 
7663.000000	63.106966 
7662.000000	63.705348 
7661.000000	64.259099 
7660.000000	64.719080 
7659.000000	65.057563 
7658.000000	65.266990 
7657.000000	65.350818 
7656.000000	65.316867 
7655.000000	65.170121 
7654.000000	64.913392 
7653.000000	64.552450 
7652.000000	64.105081 
7651.000000	63.603353 
7650.000000	63.101768 
7649.000000	62.673974 
7648.000000	62.407875 
7647.000000	62.375855 
7646.000000	62.635397 
7645.000000	63.214993 
7644.000000	64.108109 
7643.000000	65.272808 
7642.000000	66.628217 
7641.000000	68.062329 
7640.000000	69.444704 
7639.000000	70.646333 
7638.000000	71.556973 
7637.000000	72.101545 
7636.000000	72.253370 
7635.000000	72.040081 
7634.000000	71.531891 
7633.000000	70.829224 
7632.000000	70.041847 
7631.000000	69.270920 
7630.000000	68.596148 
7629.000000	68.064999 
7628.000000	67.689752 
7627.000000	67.447090 
7626.000000	67.285013 
7625.000000	67.134094 
7624.000000	66.918706 
7623.000000	66.577339 
7622.000000	66.069912 
7621.000000	65.395665 
7620.000000	64.590001 
7619.000000	63.724780 
7618.000000	62.883186 
7617.000000	62.154030 
7616.000000	61.607170 
7615.000000	61.289095 
7614.000000	61.214494 
7613.000000	61.366343 
7612.000000	61.699676 
7611.000000	62.151479 
7610.000000	62.652087 
7609.000000	63.133263 
7608.000000	63.531684 
7607.000000	63.805675 
7606.000000	63.936686 
7605.000000	63.927698 
7604.000000	63.797593 
7603.000000	63.571429 
7602.000000	63.274145 
7601.000000	62.929773 
7600.000000	62.563514 
7599.000000	62.198829 
7598.000000	61.865544 
7597.000000	61.607003 
7596.000000	61.477279 
7595.000000	61.529040 
7594.000000	61.803698 
7593.000000	62.317466 
7592.000000	63.052487 
7591.000000	63.951921 
7590.000000	64.928150 
7589.000000	65.872979 
7588.000000	66.681575 
7587.000000	67.272973 
7586.000000	67.604756 
7585.000000	67.681908 
7584.000000	67.547583 
7583.000000	67.271232 
7582.000000	66.928386 
7581.000000	66.583776 
7580.000000	66.284370 
7579.000000	66.058087 
7578.000000	65.915894 
7577.000000	65.860962 
7576.000000	65.895271 
7575.000000	66.026020 
7574.000000	66.266012 
7573.000000	66.629862 
7572.000000	67.123413 
7571.000000	67.735815 
7570.000000	68.437051 
7569.000000	69.172835 
7568.000000	69.875836 
7567.000000	70.465970 
7566.000000	70.868301 
7565.000000	71.018028 
7564.000000	70.878934 
7563.000000	70.443964 
7562.000000	69.742608 
7561.000000	68.832540 
7560.000000	67.802095 
7559.000000	66.743087 
7558.000000	65.744733 
7557.000000	64.868545 
7556.000000	64.147901 
7555.000000	63.578462 
7554.000000	63.125371 
7553.000000	62.746238 
7552.000000	62.406492 
7551.000000	62.105083 
7550.000000	61.876535 
7549.000000	61.793851 
7548.000000	61.943149 
7547.000000	62.400650 
7546.000000	63.195729 
7545.000000	64.283204 
7544.000000	65.537214 
7543.000000	66.764163 
7542.000000	67.744970 
7541.000000	68.291425 
7540.000000	68.289351 
7539.000000	67.733073 
7538.000000	66.721320 
7537.000000	65.436434 
7536.000000	64.094114 
7535.000000	62.891459 
7534.000000	61.965703 
7533.000000	61.375761 
7532.000000	61.097478 
7531.000000	61.054635 
7530.000000	61.142277 
7529.000000	61.264348 
7528.000000	61.361312 
7527.000000	61.418294 
7526.000000	61.469125 
7525.000000	61.570453 
7524.000000	61.790466 
7523.000000	62.177085 
7522.000000	62.748908 
7521.000000	63.480544 
7520.000000	64.314198 
7519.000000	65.163660 
7518.000000	65.929579 
7517.000000	66.513180 
7516.000000	66.834330 
7515.000000	66.844010 
7514.000000	66.531658 
7513.000000	65.929222 
7512.000000	65.107393 
7511.000000	64.163637 
7510.000000	63.214421 
7509.000000	62.366724 
7508.000000	61.707663 
7507.000000	61.282706 
7506.000000	61.096811 
7505.000000	61.111712 
7504.000000	61.262249 
7503.000000	61.469316 
7502.000000	61.653971 
7501.000000	61.760926 
7500.000000	61.763334 
7499.000000	61.671233 
7498.000000	61.520147 
7497.000000	61.363267 
7496.000000	61.252546 
7495.000000	61.230921 
7494.000000	61.321806 
7493.000000	61.527466 
7492.000000	61.830544 
7491.000000	62.206268 
7490.000000	62.625288 
7489.000000	63.061118 
7488.000000	63.487744 
7487.000000	63.880038 
7486.000000	64.210557 
7485.000000	64.446711 
7484.000000	64.556598 
7483.000000	64.518713 
7482.000000	64.325070 
7481.000000	63.994002 
7480.000000	63.559842 
7479.000000	63.068819 
7478.000000	62.571096 
7477.000000	62.115812 
7476.000000	61.740946 
7475.000000	61.467123 
7474.000000	61.302471 
7473.000000	61.246061 
7472.000000	61.288905 
7471.000000	61.417293 
7470.000000	61.611294 
7469.000000	61.845684 
7468.000000	62.090277 
7467.000000	62.313055 
7466.000000	62.482714 
7465.000000	62.574768 
7464.000000	62.578225 
7463.000000	62.497210 
7462.000000	62.356424 
7461.000000	62.190198 
7460.000000	62.031173 
7459.000000	61.902165 
7458.000000	61.808347 
7457.000000	61.742186 
7456.000000	61.687994 
7455.000000	61.634540 
7454.000000	61.580109 
7453.000000	61.540913 
7452.000000	61.547541 
7451.000000	61.638784 
7450.000000	61.845731 
7449.000000	62.184166 
7448.000000	62.645196 
7447.000000	63.193178 
7446.000000	63.772296 
7445.000000	64.311838 
7444.000000	64.740347 
7443.000000	65.002512 
7442.000000	65.072989 
7441.000000	64.958977 
7440.000000	64.701509 
7439.000000	64.370226 
7438.000000	64.051938 
7437.000000	63.839650 
7436.000000	63.812732 
7435.000000	64.027190 
7434.000000	64.497280 
7433.000000	65.194988 
7432.000000	66.047286 
7431.000000	66.951417 
7430.000000	67.790126 
7429.000000	68.456721 
7428.000000	68.871021 
7427.000000	68.995308 
7426.000000	68.834280 
7425.000000	68.429875 
7424.000000	67.850470 
7423.000000	67.172813 
7422.000000	66.476297 
7421.000000	65.833973 
7420.000000	65.308666 
7419.000000	64.950203 
7418.000000	64.797282 
7417.000000	64.877939 
7416.000000	65.199780 
7415.000000	65.746498 
7414.000000	66.473150 
7413.000000	67.309689 
7412.000000	68.161392 
7411.000000	68.926239 
7410.000000	69.518804 
7409.000000	69.885420 
7408.000000	70.016813 
7407.000000	69.943761 
7406.000000	69.727444 
7405.000000	69.439220 
7404.000000	69.144892 
7403.000000	68.887138 
7402.000000	68.688058 
7401.000000	68.539690 
7400.000000	68.426752 
7399.000000	68.318438 
7398.000000	68.186926 
7397.000000	68.005895 
7396.000000	67.758488 
7395.000000	67.438530 
7394.000000	67.048406 
7393.000000	66.603183 
7392.000000	66.127181 
7391.000000	65.650939 
7390.000000	65.205359 
7389.000000	64.817452 
7388.000000	64.505863 
7387.000000	64.273166 
7386.000000	64.106893 
7385.000000	63.980937 
7384.000000	63.864350 
7383.000000	63.733291 
7382.000000	63.578248 
7381.000000	63.401079 
7380.000000	63.217592 
7379.000000	63.051486 
7378.000000	62.931418 
7377.000000	62.868738 
7376.000000	62.871837 
7375.000000	62.938427 
7374.000000	63.072395 
7373.000000	63.282990 
7372.000000	63.589549 
7371.000000	64.015460 
7370.000000	64.577293 
7369.000000	65.278363 
7368.000000	66.089701 
7367.000000	66.945934 
7366.000000	67.754793 
7365.000000	68.412494 
7364.000000	68.833971 
7363.000000	68.974328 
7362.000000	68.845915 
7361.000000	68.517041 
7360.000000	68.089461 
7359.000000	67.669272 
7358.000000	67.336416 
7357.000000	67.120790 
7356.000000	66.994810 
7355.000000	66.882681 
7354.000000	66.691088 
7353.000000	66.338658 
7352.000000	65.782880 
7351.000000	65.040826 
7350.000000	64.181256 
7349.000000	63.320970 
7348.000000	62.588882 
7347.000000	62.105703 
7346.000000	61.946392 
7345.000000	62.132692 
7344.000000	62.627387 
7343.000000	63.344836 
7342.000000	64.174365 
7341.000000	64.997386 
7340.000000	65.711736 
7339.000000	66.240692 
7338.000000	66.537714 
7337.000000	66.590142 
7336.000000	66.412615 
7335.000000	66.040086 
7334.000000	65.518045 
7333.000000	64.902830 
7332.000000	64.255023 
7331.000000	63.637781 
7330.000000	63.108825 
7329.000000	62.715601 
7328.000000	62.485432 
7327.000000	62.423920 
7326.000000	62.510442 
7325.000000	62.694644 
7324.000000	62.912106 
7323.000000	63.091182 
7322.000000	63.179492 
7321.000000	63.146901 
7320.000000	63.004827 
7319.000000	62.797904 
7318.000000	62.598276 
7317.000000	62.483763 
7316.000000	62.516951 
7315.000000	62.731146 
7314.000000	63.111543 
7313.000000	63.599681 
7312.000000	64.101362 
7311.000000	64.510345 
7310.000000	64.734935 
7309.000000	64.722871 
7308.000000	64.472317 
7307.000000	64.032268 
7306.000000	63.488078 
7305.000000	62.940025 
7304.000000	62.481379 
7303.000000	62.178421 
7302.000000	62.059903 
7301.000000	62.115502 
7300.000000	62.310385 
7299.000000	62.595438 
7298.000000	62.919402 
7297.000000	63.242650 
7296.000000	63.537120 
7295.000000	63.794398 
7294.000000	64.019155 
7293.000000	64.224386 
7292.000000	64.420866 
7291.000000	64.610290 
7290.000000	64.784812 
7289.000000	64.922738 
7288.000000	64.997220 
7287.000000	64.980721 
7286.000000	64.855384 
7285.000000	64.622497 
7284.000000	64.306139 
7283.000000	63.954949 
7282.000000	63.633394 
7281.000000	63.412809 
7280.000000	63.355231 
7279.000000	63.501477 
7278.000000	63.860130 
7277.000000	64.402270 
7276.000000	65.064549 
7275.000000	65.764045 
7274.000000	66.410303 
7273.000000	66.923880 
7272.000000	67.245221 
7271.000000	67.340373 
7270.000000	67.203450 
7269.000000	66.853785 
7268.000000	66.331505 
7267.000000	65.691304 
7266.000000	64.994573 
7265.000000	64.305472 
7264.000000	63.681650 
7263.000000	63.174128 
7262.000000	62.818050 
7261.000000	62.631082 
7260.000000	62.613272 
7259.000000	62.747383 
7258.000000	63.004970 
7257.000000	63.348126 
7256.000000	63.738465 
7255.000000	64.138722 
7254.000000	64.516305 
7253.000000	64.842653 
7252.000000	65.088319 
7251.000000	65.223360 
7250.000000	65.219974 
7249.000000	65.059256 
7248.000000	64.738249 
7247.000000	64.276599 
7246.000000	63.722252 
7245.000000	63.144397 
7244.000000	62.625813 
7243.000000	62.242865 
7242.000000	62.048935 
7241.000000	62.061047 
7240.000000	62.258100 
7239.000000	62.584757 
7238.000000	62.962102 
7237.000000	63.310194 
7236.000000	63.563013 
7235.000000	63.687658 
7234.000000	63.684606 
7233.000000	63.590264 
7232.000000	63.458847 
7231.000000	63.352823 
7230.000000	63.323879 
7229.000000	63.402438 
7228.000000	63.590192 
7227.000000	63.867235 
7226.000000	64.200735 
7225.000000	64.553642 
7224.000000	64.894509 
7223.000000	65.202927 
7222.000000	65.470528 
7221.000000	65.696954 
7220.000000	65.884590 
7219.000000	66.032028 
7218.000000	66.131424 
7217.000000	66.174125 
7216.000000	66.148209 
7215.000000	66.050457 
7214.000000	65.879654 
7213.000000	65.643501 
7212.000000	65.350866 
7211.000000	65.014243 
7210.000000	64.645457 
7209.000000	64.253497 
7208.000000	63.850164 
7207.000000	63.447570 
7206.000000	63.069057 
7205.000000	62.746357 
7204.000000	62.521648 
7203.000000	62.435054 
7202.000000	62.526202 
7201.000000	62.822008 
7200.000000	63.328027 
7199.000000	64.020347 
7198.000000	64.846444 
7197.000000	65.728759 
7196.000000	66.573095 
7195.000000	67.282319 
7194.000000	67.775511 
7193.000000	67.999291 
7192.000000	67.936372 
7191.000000	67.605638 
7190.000000	67.057180 
7189.000000	66.362071 
7188.000000	65.604066 
7187.000000	64.863634 
7186.000000	64.212989 
7185.000000	63.701987 
7184.000000	63.364362 
7183.000000	63.204789 
7182.000000	63.205504 
7181.000000	63.326215 
7180.000000	63.512158 
7179.000000	63.704895 
7178.000000	63.848805 
7177.000000	63.905501 
7176.000000	63.856697 
7175.000000	63.705325 
7174.000000	63.469171 
7173.000000	63.174295 
7172.000000	62.846040 
7171.000000	62.500548 
7170.000000	62.143421 
7169.000000	61.770129 
7168.000000	61.375188 
7167.000000	60.961484 
7166.000000	60.549426 
7165.000000	60.175395 
7164.000000	59.890198 
7163.000000	59.748959 
7162.000000	59.797096 
7161.000000	60.051727 
7160.000000	60.496330 
7159.000000	61.076092 
7158.000000	61.711168 
7157.000000	62.309718 
7156.000000	62.791299 
7155.000000	63.099193 
7154.000000	63.218212 
7153.000000	63.174962 
7152.000000	63.028860 
7151.000000	62.853956 
7150.000000	62.719678 
7149.000000	62.674188 
7148.000000	62.732696 
7147.000000	62.878441 
7146.000000	63.069915 
7145.000000	63.257646 
7144.000000	63.395214 
7143.000000	63.453698 
7142.000000	63.428354 
7141.000000	63.338899 
7140.000000	63.219785 
7139.000000	63.109469 
7138.000000	63.040471 
7137.000000	63.029122 
7136.000000	63.071537 
7135.000000	63.145303 
7134.000000	63.220095 
7133.000000	63.264989 
7132.000000	63.259506 
7131.000000	63.197660 
7130.000000	63.090372 
7129.000000	62.959432 
7128.000000	62.830877 
7127.000000	62.725448 
7126.000000	62.648916 
7125.000000	62.595367 
7124.000000	62.550711 
7123.000000	62.499141 
7122.000000	62.427949 
7121.000000	62.340259 
7120.000000	62.256288 
7119.000000	62.210106 
7118.000000	62.239909 
7117.000000	62.375497 
7116.000000	62.627363 
7115.000000	62.979626 
7114.000000	63.391184 
7113.000000	63.806056 
7112.000000	64.165592 
7111.000000	64.421725 
7110.000000	64.548468 
7109.000000	64.547395 
7108.000000	64.445567 
7107.000000	64.288449 
7106.000000	64.125657 
7105.000000	63.999056 
7104.000000	63.930106 
7103.000000	63.923621 
7102.000000	63.958978 
7101.000000	64.003872 
7100.000000	64.015626 
7099.000000	63.957691 
7098.000000	63.803410 
7097.000000	63.542819 
7096.000000	63.186645 
7095.000000	62.762069 
7094.000000	62.312412 
7093.000000	61.887073 
7092.000000	61.535096 
7091.000000	61.294746 
7090.000000	61.184692 
7089.000000	61.199522 
7088.000000	61.306786 
7087.000000	61.455321 
7086.000000	61.584281 
7085.000000	61.641597 
7084.000000	61.591529 
7083.000000	61.430883 
7082.000000	61.189460 
7081.000000	60.926985 
7080.000000	60.716629 
7079.000000	60.627222 
7078.000000	60.705518 
7077.000000	60.961318 
7076.000000	61.364936 
7075.000000	61.852049 
7074.000000	62.339997 
7073.000000	62.747311 
7072.000000	63.014340 
7071.000000	63.115382 
7070.000000	63.061618 
7069.000000	62.895989 
7068.000000	62.678050 
7067.000000	62.468981 
7066.000000	62.314963 
7065.000000	62.239193 
7064.000000	62.240028 
7063.000000	62.288904 
7062.000000	62.341928 
7061.000000	62.354969 
7060.000000	62.297749 
7059.000000	62.160158 
7058.000000	61.957025 
7057.000000	61.720848 
7056.000000	61.495876 
7055.000000	61.325144 
7054.000000	61.241436 
7053.000000	61.258697 
7052.000000	61.370229 
7051.000000	61.553406 
7050.000000	61.773610 
7049.000000	61.996364 
7048.000000	62.189698 
7047.000000	62.331700 
7046.000000	62.408614 
7045.000000	62.411165 
7044.000000	62.338376 
7043.000000	62.193965 
7042.000000	61.991739 
7041.000000	61.750102 
7040.000000	61.505389 
7039.000000	61.307740 
7038.000000	61.215639 
7037.000000	61.283469 
7036.000000	61.542987 
7035.000000	61.990356 
7034.000000	62.579035 
7033.000000	63.225293 
7032.000000	63.817310 
7031.000000	64.243674 
7030.000000	64.419364 
7029.000000	64.311122 
7028.000000	63.949561 
7027.000000	63.421654 
7026.000000	62.854719 
7025.000000	62.376546 
7024.000000	62.087392 
7023.000000	62.025833 
7022.000000	62.168574 
7021.000000	62.428665 
7020.000000	62.687945 
7019.000000	62.823367 
7018.000000	62.746882 
7017.000000	62.422466 
7016.000000	61.873459 
7015.000000	61.175084 
7014.000000	60.427284 
7013.000000	59.737205 
7012.000000	59.189939 
7011.000000	58.841252 
7010.000000	58.709287 
7009.000000	58.786582 
7008.000000	59.048008 
7007.000000	59.463095 
7006.000000	60.000491 
7005.000000	60.624051 
7004.000000	61.292767 
7003.000000	61.951351 
7002.000000	62.538766 
7001.000000	62.993288 
7000.000000	63.267374 
6999.000000	63.337588 
6998.000000	63.212418 
6997.000000	62.936258 
6996.000000	62.577605 
6995.000000	62.217473 
6994.000000	61.930155 
6993.000000	61.770772 
6992.000000	61.763024 
6991.000000	61.901926 
6990.000000	62.153434 
6989.000000	62.469029 
6988.000000	62.794065 
6987.000000	63.081479 
6986.000000	63.298344 
6985.000000	63.429188 
6984.000000	63.476681 
6983.000000	63.456487 
6982.000000	63.394594 
6981.000000	63.319611 
6980.000000	63.263678 
6979.000000	63.254022 
6978.000000	63.309216 
6977.000000	63.432240 
6976.000000	63.611364 
6975.000000	63.818335 
6974.000000	64.016103 
6973.000000	64.162516 
6972.000000	64.219927 
6971.000000	64.160823 
6970.000000	63.975238 
6969.000000	63.670539 
6968.000000	63.271164 
6967.000000	62.812399 
6966.000000	62.333726 
6965.000000	61.872887 
6964.000000	61.461019 
6963.000000	61.119890 
6962.000000	60.860753 
6961.000000	60.687232 
6960.000000	60.597610 
6959.000000	60.586571 
