PE IR       SPECTRUM    SPECTRUM    ASCII       PEDS        1.60        
  -1
C-1B6E~1.ASC
17/05/02
13:54:07.00
17/05/02
13:54:07.00
tln
$C-4040-8_t0036$<tbV0>[-12.5,12.0,8.0,0.0,22,1,0]
370.000000
64









2002,4.07    
MIRTGS : RIGHTBACK : INTERNAL 2
MIR : ON : INTERNAL 2
OPTKBR

0.200000
8
8.000000
FILLER
RATIO
SPECTRUM
UNLOCKED 256

DOUBLE
64
COMBINED
1
0
0


1.000000
RATIO


1
0
TRUE
51149
0
LEFT NOT FITTED RIGHT NOT FITTED 0
NONE
NONE
15600
12.000000
4.427000
51148
TRUE
1 0 8 72 0 0 0 0 

15798.010000






#HDR
-1
-1
#GR
CM-1
%T
0.00002384185791015625
0.0
7800.000000
-1.000000
7431
8
79.185199
47.868919
#DATA
7800.000000	68.406033 
7799.000000	70.375990 
7798.000000	72.372460 
7797.000000	74.272775 
7796.000000	75.955200 
7795.000000	77.314758 
7794.000000	78.291344 
7793.000000	78.879880 
7792.000000	79.105710 
7791.000000	79.008865 
7790.000000	78.640532 
7789.000000	78.040385 
7788.000000	77.230167 
7787.000000	76.207542 
7786.000000	74.967408 
7785.000000	73.508834 
7784.000000	71.861648 
7783.000000	70.092082 
7782.000000	68.287658 
7781.000000	66.571187 
7780.000000	65.075969 
7779.000000	63.943743 
7778.000000	63.282275 
7777.000000	63.166856 
7776.000000	63.613343 
7775.000000	64.578533 
7774.000000	65.955328 
7773.000000	67.585992 
7772.000000	69.277215 
7771.000000	70.828843 
7770.000000	72.053265 
7769.000000	72.821712 
7768.000000	73.079729 
7767.000000	72.858595 
7766.000000	72.260975 
7765.000000	71.442627 
7764.000000	70.574784 
7763.000000	69.805407 
7762.000000	69.228839 
7761.000000	68.882894 
7760.000000	68.745684 
7759.000000	68.756914 
7758.000000	68.839621 
7757.000000	68.917012 
7756.000000	68.945503 
7755.000000	68.912076 
7754.000000	68.855905 
7753.000000	68.840861 
7752.000000	68.953919 
7751.000000	69.276046 
7750.000000	69.859576 
7749.000000	70.700883 
7748.000000	71.744656 
7747.000000	72.890400 
7746.000000	74.019312 
7745.000000	75.022935 
7744.000000	75.825405 
7743.000000	76.398253 
7742.000000	76.760578 
7741.000000	76.970052 
7740.000000	77.086853 
7739.000000	77.150869 
7738.000000	77.171468 
7737.000000	77.124857 
7736.000000	76.962471 
7735.000000	76.630616 
7734.000000	76.096963 
7733.000000	75.366067 
7732.000000	74.493503 
7731.000000	73.574209 
7730.000000	72.713661 
7729.000000	72.011709 
7728.000000	71.533894 
7727.000000	71.308064 
7726.000000	71.322703 
7725.000000	71.534514 
7724.000000	71.886873 
7723.000000	72.313475 
7722.000000	72.754478 
7721.000000	73.151087 
7720.000000	73.446393 
7719.000000	73.586940 
7718.000000	73.525810 
7717.000000	73.226213 
7716.000000	72.670722 
7715.000000	71.862339 
7714.000000	70.830535 
7713.000000	69.630241 
7712.000000	68.340682 
7711.000000	67.052674 
7710.000000	65.860795 
7709.000000	64.854383 
7708.000000	64.110040 
7707.000000	63.681411 
7706.000000	63.596916 
7705.000000	63.850021 
7704.000000	64.404797 
7703.000000	65.200543 
7702.000000	66.157984 
7701.000000	67.176437 
7700.000000	68.152689 
7699.000000	68.986082 
7698.000000	69.598674 
7697.000000	69.938588 
7696.000000	69.994020 
7695.000000	69.792413 
7694.000000	69.397282 
7693.000000	68.893313 
7692.000000	68.378520 
7691.000000	67.946791 
7690.000000	67.681908 
7689.000000	67.644023 
7688.000000	67.879128 
7687.000000	68.414258 
7686.000000	69.263148 
7685.000000	70.420074 
7684.000000	71.847558 
7683.000000	73.465156 
7682.000000	75.150775 
7681.000000	76.741647 
7680.000000	78.042912 
7679.000000	78.856611 
7678.000000	79.025006 
7677.000000	78.462839 
7676.000000	77.189755 
7675.000000	75.326442 
7674.000000	73.095726 
7673.000000	70.760917 
7672.000000	68.588423 
7671.000000	66.779875 
7670.000000	65.446400 
7669.000000	64.590048 
7668.000000	64.129137 
7667.000000	63.925290 
7666.000000	63.826322 
7665.000000	63.714194 
7664.000000	63.525223 
7663.000000	63.266587 
7662.000000	62.983822 
7661.000000	62.766647 
7660.000000	62.704300 
7659.000000	62.870788 
7658.000000	63.294339 
7657.000000	63.958930 
7656.000000	64.801788 
7655.000000	65.727329 
7654.000000	66.623163 
7653.000000	67.380142 
7652.000000	67.911124 
7651.000000	68.158936 
7650.000000	68.109178 
7649.000000	67.789101 
7648.000000	67.264103 
7647.000000	66.630673 
7646.000000	65.992927 
7645.000000	65.447807 
7644.000000	65.060710 
7643.000000	64.873623 
7642.000000	64.878726 
7641.000000	65.027236 
7640.000000	65.236544 
7639.000000	65.421390 
7638.000000	65.497517 
7637.000000	65.397787 
7636.000000	65.087604 
7635.000000	64.567327 
7634.000000	63.876962 
7633.000000	63.085365 
7632.000000	62.278842 
7631.000000	61.543297 
7630.000000	60.952138 
7629.000000	60.555458 
7628.000000	60.373663 
7627.000000	60.401177 
7626.000000	60.610127 
7625.000000	60.965585 
7624.000000	61.427068 
7623.000000	61.965894 
7622.000000	62.564492 
7621.000000	63.221645 
7620.000000	63.935422 
7619.000000	64.703536 
7618.000000	65.514588 
7617.000000	66.341376 
7616.000000	67.147111 
7615.000000	67.878103 
7614.000000	68.476843 
7613.000000	68.885564 
7612.000000	69.069671 
7611.000000	69.011926 
7610.000000	68.722867 
7609.000000	68.235278 
7608.000000	67.606353 
7607.000000	66.900038 
7606.000000	66.179847 
7605.000000	65.504002 
7604.000000	64.922428 
7603.000000	64.475035 
7602.000000	64.191007 
7601.000000	64.091467 
7600.000000	64.185166 
7599.000000	64.462447 
7598.000000	64.893031 
7597.000000	65.417385 
7596.000000	65.959596 
7595.000000	66.438293 
7594.000000	66.786360 
7593.000000	66.955041 
7592.000000	66.933703 
7591.000000	66.753697 
7590.000000	66.480278 
7589.000000	66.193199 
7588.000000	65.971660 
7587.000000	65.876841 
7586.000000	65.938973 
7585.000000	66.153049 
7584.000000	66.486310 
7583.000000	66.889405 
7582.000000	67.316126 
7581.000000	67.735552 
7580.000000	68.141818 
7579.000000	68.550252 
7578.000000	68.988084 
7577.000000	69.477844 
7576.000000	70.016288 
7575.000000	70.563244 
7574.000000	71.045708 
7573.000000	71.367239 
7572.000000	71.432757 
7571.000000	71.167182 
7570.000000	70.543742 
7569.000000	69.586610 
7568.000000	68.367719 
7567.000000	66.995072 
7566.000000	65.587472 
7565.000000	64.264035 
7564.000000	63.125014 
7563.000000	62.248539 
7562.000000	61.682677 
7561.000000	61.450743 
7560.000000	61.547541 
7559.000000	61.950111 
7558.000000	62.608790 
7557.000000	63.467144 
7556.000000	64.457726 
7555.000000	65.512442 
7554.000000	66.556620 
7553.000000	67.522644 
7552.000000	68.351078 
7551.000000	68.991112 
7550.000000	69.401979 
7549.000000	69.564247 
7548.000000	69.481539 
7547.000000	69.178581 
7546.000000	68.697524 
7545.000000	68.096232 
7544.000000	67.439198 
7543.000000	66.792440 
7542.000000	66.215276 
7541.000000	65.752959 
7540.000000	65.436697 
7539.000000	65.284657 
7538.000000	65.304350 
7537.000000	65.488600 
7536.000000	65.820789 
7535.000000	66.282558 
7534.000000	66.841030 
7533.000000	67.443728 
7532.000000	68.020915 
7531.000000	68.495702 
7530.000000	68.787264 
7529.000000	68.828678 
7528.000000	68.572211 
7527.000000	68.005394 
7526.000000	67.144894 
7525.000000	66.039967 
7524.000000	64.757919 
7523.000000	63.377261 
7522.000000	61.981558 
7521.000000	60.654211 
7520.000000	59.467697 
7519.000000	58.483242 
7518.000000	57.746005 
7517.000000	57.290053 
7516.000000	57.124495 
7515.000000	57.248783 
7514.000000	57.642412 
7513.000000	58.283519 
7512.000000	59.134006 
7511.000000	60.156965 
7510.000000	61.306738 
7509.000000	62.533569 
7508.000000	63.781762 
7507.000000	64.983630 
7506.000000	66.060018 
7505.000000	66.927075 
7504.000000	67.507386 
7503.000000	67.748951 
7502.000000	67.644786 
7501.000000	67.233729 
7500.000000	66.605496 
7499.000000	65.871429 
7498.000000	65.147042 
7497.000000	64.526057 
7496.000000	64.067339 
7495.000000	63.786935 
7494.000000	63.662433 
7493.000000	63.651919 
7492.000000	63.707065 
7491.000000	63.775110 
7490.000000	63.813161 
7489.000000	63.787889 
7488.000000	63.687372 
7487.000000	63.511180 
7486.000000	63.280296 
7485.000000	63.031864 
7484.000000	62.812781 
7483.000000	62.672328 
7482.000000	62.643909 
7481.000000	62.743210 
7480.000000	62.950992 
7479.000000	63.216328 
7478.000000	63.465213 
7477.000000	63.611626 
7476.000000	63.591814 
7475.000000	63.381433 
7474.000000	63.008952 
7473.000000	62.548398 
7472.000000	62.106943 
7471.000000	61.797499 
7470.000000	61.705780 
7469.000000	61.865997 
7468.000000	62.255430 
7467.000000	62.800168 
7466.000000	63.396072 
7465.000000	63.936090 
7464.000000	64.334106 
7463.000000	64.547014 
7462.000000	64.577364 
7461.000000	64.474701 
7460.000000	64.309167 
7459.000000	64.164137 
7458.000000	64.110231 
7457.000000	64.200425 
7456.000000	64.465355 
7455.000000	64.908647 
7454.000000	65.519690 
7453.000000	66.263318 
7452.000000	67.091894 
7451.000000	67.939305 
7450.000000	68.729519 
7449.000000	69.384026 
7448.000000	69.835567 
7447.000000	70.035743 
7446.000000	69.967865 
7445.000000	69.640827 
7444.000000	69.090533 
7443.000000	68.366670 
7442.000000	67.527818 
7441.000000	66.627073 
7440.000000	65.711522 
7439.000000	64.823126 
7438.000000	64.005041 
7437.000000	63.307428 
7436.000000	62.787747 
7435.000000	62.501692 
7434.000000	62.493014 
7433.000000	62.782311 
7432.000000	63.353204 
7431.000000	64.137840 
7430.000000	65.029001 
7429.000000	65.893363 
7428.000000	66.598677 
7427.000000	67.036485 
7426.000000	67.145395 
7425.000000	66.921496 
7424.000000	66.416692 
7423.000000	65.722894 
7422.000000	64.952826 
7421.000000	64.214658 
7420.000000	63.596391 
7419.000000	63.153934 
7418.000000	62.911987 
7417.000000	62.870502 
7416.000000	63.011884 
7415.000000	63.310265 
7414.000000	63.729667 
7413.000000	64.226150 
7412.000000	64.741039 
7411.000000	65.205359 
7410.000000	65.541934 
7409.000000	65.680551 
7408.000000	65.573501 
7407.000000	65.208959 
7406.000000	64.618992 
7405.000000	63.874435 
7404.000000	63.076758 
7403.000000	62.332057 
7402.000000	61.731934 
7401.000000	61.332058 
7400.000000	61.140394 
7399.000000	61.126351 
7398.000000	61.231398 
7397.000000	61.395955 
7396.000000	61.570739 
7395.000000	61.741781 
7394.000000	61.928319 
7393.000000	62.174797 
7392.000000	62.528514 
7391.000000	63.014411 
7390.000000	63.614201 
7389.000000	64.267992 
7388.000000	64.883708 
7387.000000	65.354824 
7386.000000	65.586161 
7385.000000	65.526032 
7384.000000	65.177369 
7383.000000	64.594340 
7382.000000	63.866496 
7381.000000	63.095116 
7380.000000	62.368369 
7379.000000	61.746287 
7378.000000	61.250233 
7377.000000	60.870265 
7376.000000	60.573840 
7375.000000	60.326647 
7374.000000	60.103273 
7373.000000	59.894466 
7372.000000	59.710812 
7371.000000	59.566998 
7370.000000	59.485745 
7369.000000	59.475040 
7368.000000	59.541296 
7367.000000	59.677362 
7366.000000	59.880304 
7365.000000	60.147762 
7364.000000	60.491371 
7363.000000	60.931849 
7362.000000	61.492967 
7361.000000	62.188768 
7360.000000	63.014245 
7359.000000	63.936686 
7358.000000	64.896893 
7357.000000	65.813994 
7356.000000	66.601824 
7355.000000	67.180871 
7354.000000	67.497897 
7353.000000	67.530727 
7352.000000	67.294859 
7351.000000	66.834378 
7350.000000	66.219067 
7349.000000	65.525364 
7348.000000	64.825391 
7347.000000	64.176154 
7346.000000	63.624978 
7345.000000	63.198614 
7344.000000	62.909793 
7343.000000	62.755489 
7342.000000	62.723612 
7341.000000	62.792944 
7340.000000	62.933421 
7339.000000	63.113594 
7338.000000	63.297986 
7337.000000	63.462734 
7336.000000	63.594770 
7335.000000	63.698148 
7334.000000	63.788199 
7333.000000	63.890361 
7332.000000	64.029622 
7331.000000	64.218068 
7330.000000	64.447522 
7329.000000	64.691591 
7328.000000	64.909315 
7327.000000	65.051698 
7326.000000	65.077209 
7325.000000	64.967107 
7324.000000	64.732623 
7323.000000	64.413690 
7322.000000	64.072823 
7321.000000	63.778758 
7320.000000	63.593387 
7319.000000	63.558244 
7318.000000	63.685822 
7317.000000	63.956570 
7316.000000	64.326167 
7315.000000	64.742159 
7314.000000	65.148496 
7313.000000	65.495729 
7312.000000	65.749955 
7311.000000	65.895199 
7310.000000	65.934395 
7309.000000	65.884041 
7308.000000	65.768361 
7307.000000	65.611243 
7306.000000	65.429759 
7305.000000	65.230941 
7304.000000	65.008449 
7303.000000	64.748239 
7302.000000	64.437866 
7301.000000	64.076137 
7300.000000	63.674283 
7299.000000	63.262820 
7298.000000	62.886357 
7297.000000	62.600302 
7296.000000	62.452769 
7295.000000	62.481403 
7294.000000	62.700343 
7293.000000	63.100671 
7292.000000	63.647365 
7291.000000	64.288783 
7290.000000	64.961957 
7289.000000	65.607047 
7288.000000	66.176843 
7287.000000	66.640543 
7286.000000	66.983246 
7285.000000	67.205166 
7284.000000	67.318129 
7283.000000	67.335915 
7282.000000	67.271089 
7281.000000	67.129039 
7280.000000	66.910171 
7279.000000	66.609716 
7278.000000	66.223883 
7277.000000	65.752434 
7276.000000	65.204024 
7275.000000	64.598798 
7274.000000	63.968682 
7273.000000	63.353276 
7272.000000	62.795615 
7271.000000	62.332510 
7270.000000	61.992478 
7269.000000	61.784291 
7268.000000	61.706280 
7267.000000	61.743187 
7266.000000	61.880087 
7265.000000	62.096047 
7264.000000	62.380814 
7263.000000	62.726211 
7262.000000	63.135147 
7261.000000	63.609433 
7260.000000	64.150857 
7259.000000	64.752769 
7258.000000	65.395522 
7257.000000	66.047286 
7256.000000	66.658115 
7255.000000	67.168402 
7254.000000	67.515587 
7253.000000	67.648792 
7252.000000	67.537522 
7251.000000	67.181324 
7250.000000	66.616344 
7249.000000	65.909409 
7248.000000	65.149235 
7247.000000	64.425539 
7246.000000	63.816690 
7245.000000	63.367843 
7244.000000	63.084220 
7243.000000	62.931180 
7242.000000	62.846088 
7241.000000	62.760710 
7240.000000	62.613487 
7239.000000	62.379550 
7238.000000	62.067294 
7237.000000	61.731958 
7236.000000	61.449360 
7235.000000	61.309957 
7234.000000	61.382174 
7233.000000	61.707997 
7232.000000	62.286853 
7231.000000	63.078880 
7230.000000	64.010095 
7229.000000	64.992451 
7228.000000	65.941977 
7227.000000	66.787290 
7226.000000	67.477941 
7225.000000	67.983579 
7224.000000	68.291091 
7223.000000	68.397092 
7222.000000	68.304920 
7221.000000	68.027234 
7220.000000	67.585730 
7219.000000	67.023324 
7218.000000	66.397261 
7217.000000	65.774440 
7216.000000	65.221381 
7215.000000	64.800310 
7214.000000	64.554357 
7213.000000	64.499664 
7212.000000	64.623236 
7211.000000	64.887142 
7210.000000	65.235280 
7209.000000	65.605020 
7208.000000	65.936970 
7207.000000	66.179728 
7206.000000	66.302084 
7205.000000	66.294622 
7204.000000	66.166901 
7203.000000	65.939593 
7202.000000	65.641140 
7201.000000	65.301537 
7200.000000	64.946770 
7199.000000	64.597535 
7198.000000	64.269852 
7197.000000	63.978934 
7196.000000	63.739323 
7195.000000	63.569140 
7194.000000	63.490653 
7193.000000	63.528871 
7192.000000	63.705015 
7191.000000	64.030051 
7190.000000	64.496827 
7189.000000	65.075206 
7188.000000	65.715646 
7187.000000	66.349601 
7186.000000	66.902112 
7185.000000	67.298150 
7184.000000	67.484140 
7183.000000	67.425227 
7182.000000	67.114758 
7181.000000	66.569495 
7180.000000	65.830969 
7179.000000	64.955306 
7178.000000	64.007210 
7177.000000	63.055348 
7176.000000	62.167549 
7175.000000	61.407971 
7174.000000	60.832405 
7173.000000	60.486435 
7172.000000	60.400223 
7171.000000	60.584735 
7170.000000	61.028409 
7169.000000	61.692523 
7168.000000	62.515377 
7167.000000	63.418793 
7166.000000	64.320039 
7165.000000	65.138506 
7164.000000	65.810084 
7163.000000	66.295528 
7162.000000	66.583466 
7161.000000	66.689991 
7160.000000	66.648960 
7159.000000	66.505718 
7158.000000	66.303491 
7157.000000	66.081142 
7156.000000	65.865135 
7155.000000	65.674328 
7154.000000	65.520620 
7153.000000	65.414738 
7152.000000	65.370750 
7151.000000	65.408039 
7150.000000	65.547299 
7149.000000	65.805006 
7148.000000	66.183161 
7147.000000	66.662645 
7146.000000	67.201232 
7145.000000	67.737412 
7144.000000	68.194627 
7143.000000	68.494439 
7142.000000	68.573045 
7141.000000	68.394851 
7140.000000	67.958116 
7139.000000	67.299175 
7138.000000	66.485738 
7137.000000	65.608286 
7136.000000	64.768886 
7135.000000	64.062857 
7134.000000	63.563966 
7133.000000	63.312029 
7132.000000	63.314318 
7131.000000	63.541054 
7130.000000	63.932108 
7129.000000	64.409756 
7128.000000	64.891266 
7127.000000	65.304493 
7126.000000	65.592503 
7125.000000	65.726947 
7124.000000	65.704417 
7123.000000	65.546560 
7122.000000	65.289378 
7121.000000	64.976930 
7120.000000	64.651679 
7119.000000	64.349341 
7118.000000	64.095544 
7117.000000	63.906431 
7116.000000	63.790011 
7115.000000	63.748073 
7114.000000	63.777232 
7113.000000	63.868021 
7112.000000	64.005804 
7111.000000	64.168691 
7110.000000	64.331984 
7109.000000	64.468693 
7108.000000	64.556789 
7107.000000	64.585566 
7106.000000	64.555215 
7105.000000	64.474129 
7104.000000	64.355444 
7103.000000	64.219379 
7102.000000	64.079523 
7101.000000	63.939690 
7100.000000	63.792729 
7099.000000	63.625383 
7098.000000	63.423180 
7097.000000	63.178944 
7096.000000	62.896442 
7095.000000	62.591528 
7094.000000	62.292170 
7093.000000	62.032985 
7092.000000	61.845946 
7091.000000	61.752009 
7090.000000	61.758160 
7089.000000	61.856174 
7088.000000	62.025737 
7087.000000	62.241005 
7086.000000	62.475752 
7085.000000	62.711310 
7084.000000	62.936925 
7083.000000	63.153934 
7082.000000	63.369560 
7081.000000	63.597393 
7080.000000	63.848352 
7079.000000	64.130711 
7078.000000	64.448928 
7077.000000	64.799404 
7076.000000	65.174818 
7075.000000	65.557432 
7074.000000	65.926074 
7073.000000	66.251182 
7072.000000	66.503596 
7071.000000	66.654300 
7070.000000	66.682362 
7069.000000	66.578483 
7068.000000	66.351604 
7067.000000	66.023778 
7066.000000	65.628385 
7065.000000	65.204906 
7064.000000	64.794182 
7063.000000	64.430284 
7062.000000	64.136600 
7061.000000	63.925457 
7060.000000	63.798332 
7059.000000	63.746905 
7058.000000	63.756728 
7057.000000	63.809180 
7056.000000	63.885903 
7055.000000	63.971042 
7054.000000	64.052319 
7053.000000	64.117050 
7052.000000	64.154601 
7051.000000	64.155554 
7050.000000	64.113473 
7049.000000	64.023876 
7048.000000	63.888096 
7047.000000	63.713765 
7046.000000	63.516354 
7045.000000	63.315653 
7044.000000	63.137245 
7043.000000	63.008999 
7042.000000	62.955355 
7041.000000	62.991023 
7040.000000	63.120055 
7039.000000	63.333868 
7038.000000	63.613986 
7037.000000	63.934826 
7036.000000	64.268779 
7035.000000	64.589452 
7034.000000	64.878320 
7033.000000	65.123939 
7032.000000	65.317440 
7031.000000	65.450572 
7030.000000	65.516614 
7029.000000	65.510296 
7028.000000	65.427303 
7027.000000	65.269827 
7026.000000	65.052413 
7025.000000	64.800763 
7024.000000	64.554691 
7023.000000	64.355039 
7022.000000	64.240264 
7021.000000	64.228892 
7020.000000	64.317226 
7019.000000	64.473414 
7018.000000	64.641952 
7017.000000	64.761304 
7016.000000	64.779090 
7015.000000	64.669728 
7014.000000	64.441156 
7013.000000	64.136600 
7012.000000	63.822603 
7011.000000	63.574004 
7010.000000	63.453555 
7009.000000	63.501095 
7008.000000	63.724184 
7007.000000	64.099073 
7006.000000	64.577960 
7005.000000	65.102434 
7004.000000	65.616726 
7003.000000	66.078209 
7002.000000	66.462802 
7001.000000	66.765022 
7000.000000	66.990900 
6999.000000	67.152881 
6998.000000	67.256808 
6997.000000	67.301225 
6996.000000	67.270684 
6995.000000	67.147946 
6994.000000	66.913414 
6993.000000	66.559886 
6992.000000	66.094756 
6991.000000	65.547013 
6990.000000	64.962625 
6989.000000	64.399552 
6988.000000	63.914656 
6987.000000	63.553094 
6986.000000	63.337445 
6985.000000	63.264012 
6984.000000	63.303160 
6983.000000	63.407754 
6982.000000	63.526725 
6981.000000	63.619184 
6980.000000	63.664126 
6979.000000	63.666367 
6978.000000	63.653278 
6977.000000	63.666486 
6976.000000	63.747549 
6975.000000	63.924360 
6974.000000	64.203047 
6973.000000	64.561820 
6972.000000	64.956331 
6971.000000	65.326523 
6970.000000	65.616035 
6969.000000	65.779042 
6968.000000	65.792989 
6967.000000	65.658378 
6966.000000	65.398216 
6965.000000	65.050053 
6964.000000	64.656448 
6963.000000	64.258146 
6962.000000	63.887763 
6961.000000	63.569092 
6960.000000	63.319563 
6959.000000	63.148427 
