PE IR       SPECTRUM    SPECTRUM    ASCII       PEDS        1.60        
  -1
C-996F~1.ASC
17/05/02
11:08:49.00
17/05/02
11:08:49.00
tln
$C-4040-8_t0004$<tbV0>[-2.5,-13.0,8.0,0.0,22,1,0]
370.000000
64









2002,4.07    
MIRTGS : RIGHTBACK : INTERNAL 2
MIR : ON : INTERNAL 2
OPTKBR

0.200000
8
8.000000
FILLER
RATIO
SPECTRUM
UNLOCKED 256

DOUBLE
64
COMBINED
1
0
0


1.000000
RATIO


1
0
TRUE
51149
0
LEFT NOT FITTED RIGHT NOT FITTED 0
NONE
NONE
15600
12.000000
4.427000
51148
TRUE
1 0 8 72 0 0 0 0 

15798.010000






#HDR
-1
-1
#GR
CM-1
%T
0.00002384185791015625
0.0
7800.000000
-1.000000
7431
8
85.371708
37.120890
#DATA
7800.000000	69.649624 
7799.000000	68.068075 
7798.000000	66.911792 
7797.000000	66.193628 
7796.000000	65.901064 
7795.000000	65.996026 
7794.000000	66.410660 
7793.000000	67.045998 
7792.000000	67.789196 
7791.000000	68.524575 
7790.000000	69.152188 
7789.000000	69.598579 
7788.000000	69.833087 
7787.000000	69.856882 
7786.000000	69.698286 
7785.000000	69.384503 
7784.000000	68.936300 
7783.000000	68.346333 
7782.000000	67.587924 
7781.000000	66.622662 
7780.000000	65.420603 
7779.000000	63.990902 
7778.000000	62.391400 
7777.000000	60.746836 
7776.000000	59.229993 
7775.000000	58.037686 
7774.000000	57.346510 
7773.000000	57.267951 
7772.000000	57.805657 
7771.000000	58.863019 
7770.000000	60.253643 
7769.000000	61.753392 
7768.000000	63.142561 
7767.000000	64.272546 
7766.000000	65.091180 
7765.000000	65.643668 
7764.000000	66.044473 
7763.000000	66.439604 
7762.000000	66.954278 
7761.000000	67.656278 
7760.000000	68.531799 
7759.000000	69.499778 
7758.000000	70.428633 
7757.000000	71.195197 
7756.000000	71.702837 
7755.000000	71.915936 
7754.000000	71.854805 
7753.000000	71.591305 
7752.000000	71.218967 
7751.000000	70.821118 
7750.000000	70.456337 
7749.000000	70.154595 
7748.000000	69.911551 
7747.000000	69.715309 
7746.000000	69.538164 
7745.000000	69.353222 
7744.000000	69.143533 
7743.000000	68.905329 
7742.000000	68.661379 
7741.000000	68.453383 
7740.000000	68.344831 
7739.000000	68.402123 
7738.000000	68.688964 
7737.000000	69.241738 
7736.000000	70.055198 
7735.000000	71.064972 
7734.000000	72.153401 
7733.000000	73.153972 
7732.000000	73.883652 
7731.000000	74.166202 
7730.000000	73.877930 
7729.000000	72.960472 
7728.000000	71.442985 
7727.000000	69.428443 
7726.000000	67.076134 
7725.000000	64.578914 
7724.000000	62.126016 
7723.000000	59.895467 
7722.000000	58.041048 
7721.000000	56.676006 
7720.000000	55.875134 
7719.000000	55.650281 
7718.000000	55.947732 
7717.000000	56.650042 
7716.000000	57.579708 
7715.000000	58.549070 
7714.000000	59.383606 
7713.000000	59.973263 
7712.000000	60.284042 
7711.000000	60.374522 
7710.000000	60.367393 
7709.000000	60.423660 
7708.000000	60.686135 
7707.000000	61.229062 
7706.000000	62.028813 
7705.000000	62.972903 
7704.000000	63.883686 
7703.000000	64.573788 
7702.000000	64.892506 
7701.000000	64.779853 
7700.000000	64.272356 
7699.000000	63.489007 
7698.000000	62.600636 
7697.000000	61.777210 
7696.000000	61.155319 
7695.000000	60.811758 
7694.000000	60.748028 
7693.000000	60.919976 
7692.000000	61.228060 
7691.000000	61.549711 
7690.000000	61.769151 
7689.000000	61.802291 
7688.000000	61.625599 
7687.000000	61.274147 
7686.000000	60.853123 
7685.000000	60.509037 
7684.000000	60.404491 
7683.000000	60.675954 
7682.000000	61.405467 
7681.000000	62.595295 
7680.000000	64.167356 
7679.000000	65.973877 
7678.000000	67.824339 
7677.000000	69.521832 
7676.000000	70.909571 
7675.000000	71.887111 
7674.000000	72.428727 
7673.000000	72.563099 
7672.000000	72.360396 
7671.000000	71.897363 
7670.000000	71.241736 
7669.000000	70.438933 
7668.000000	69.527244 
7667.000000	68.537068 
7666.000000	67.521166 
7665.000000	66.544079 
7664.000000	65.683579 
7663.000000	65.025782 
7662.000000	64.642453 
7661.000000	64.602303 
7660.000000	64.952063 
7659.000000	65.713715 
7658.000000	66.869211 
7657.000000	68.361282 
7656.000000	70.088005 
7655.000000	71.902871 
7654.000000	73.627495 
7653.000000	75.072360 
7652.000000	76.065945 
7651.000000	76.487183 
7650.000000	76.287603 
7649.000000	75.507330 
7648.000000	74.266004 
7647.000000	72.746896 
7646.000000	71.157789 
7645.000000	69.710612 
7644.000000	68.567085 
7643.000000	67.824554 
7642.000000	67.494845 
7641.000000	67.525434 
7640.000000	67.806935 
7639.000000	68.211245 
7638.000000	68.610858 
7637.000000	68.902420 
7636.000000	69.019079 
7635.000000	68.929433 
7634.000000	68.634915 
7633.000000	68.154263 
7632.000000	67.525339 
7631.000000	66.795206 
7630.000000	66.028046 
7629.000000	65.300011 
7628.000000	64.699149 
7627.000000	64.310812 
7626.000000	64.207553 
7625.000000	64.427423 
7624.000000	64.953708 
7623.000000	65.713071 
7622.000000	66.588330 
7621.000000	67.437481 
7620.000000	68.117380 
7619.000000	68.515992 
7618.000000	68.569993 
7617.000000	68.280959 
7616.000000	67.712712 
7615.000000	66.973781 
7614.000000	66.185712 
7613.000000	65.463018 
7612.000000	64.898562 
7611.000000	64.538836 
7610.000000	64.383244 
7609.000000	64.393377 
7608.000000	64.513850 
7607.000000	64.686655 
7606.000000	64.868283 
7605.000000	65.034055 
7604.000000	65.177154 
7603.000000	65.301394 
7602.000000	65.411043 
7601.000000	65.501165 
7600.000000	65.555071 
7599.000000	65.546679 
7598.000000	65.450620 
7597.000000	65.254616 
7596.000000	64.969515 
7595.000000	64.629197 
7594.000000	64.291977 
7593.000000	64.025926 
7592.000000	63.901281 
7591.000000	63.971948 
7590.000000	64.267873 
7589.000000	64.783525 
7588.000000	65.483093 
7587.000000	66.306185 
7586.000000	67.179822 
7585.000000	68.030691 
7584.000000	68.796682 
7583.000000	69.433784 
7582.000000	69.918894 
7581.000000	70.249247 
7580.000000	70.432853 
7579.000000	70.483398 
7578.000000	70.412731 
7577.000000	70.230150 
7576.000000	69.945430 
7575.000000	69.573068 
7574.000000	69.136452 
7573.000000	68.668866 
7572.000000	68.211603 
7571.000000	67.809009 
7570.000000	67.498898 
7569.000000	67.307615 
7568.000000	67.247056 
7567.000000	67.313003 
7566.000000	67.480874 
7565.000000	67.717123 
7564.000000	67.983055 
7563.000000	68.247747 
7562.000000	68.488693 
7561.000000	68.699002 
7560.000000	68.885421 
7559.000000	69.059443 
7558.000000	69.233202 
7557.000000	69.402694 
7556.000000	69.550776 
7555.000000	69.634652 
7554.000000	69.597291 
7553.000000	69.379353 
7552.000000	68.939805 
7551.000000	68.272376 
7550.000000	67.415452 
7549.000000	66.455268 
7548.000000	65.509605 
7547.000000	64.710140 
7546.000000	64.167022 
7545.000000	63.934803 
7544.000000	63.995456 
7543.000000	64.258003 
7542.000000	64.583325 
7541.000000	64.815115 
7540.000000	64.829063 
7539.000000	64.559602 
7538.000000	64.026165 
7537.000000	63.323807 
7536.000000	62.599062 
7535.000000	62.005257 
7534.000000	61.660122 
7533.000000	61.612296 
7532.000000	61.826729 
7531.000000	62.197351 
7530.000000	62.577891 
7529.000000	62.825536 
7528.000000	62.843728 
7527.000000	62.608075 
7526.000000	62.176179 
7525.000000	61.666917 
7524.000000	61.233973 
7523.000000	61.019825 
7522.000000	61.131882 
7521.000000	61.612439 
7520.000000	62.438344 
7519.000000	63.521599 
7518.000000	64.730763 
7517.000000	65.912055 
7516.000000	66.920232 
7515.000000	67.639899 
7514.000000	67.994546 
7513.000000	67.960929 
7512.000000	67.567181 
7511.000000	66.887736 
7510.000000	66.027307 
7509.000000	65.104508 
7508.000000	64.239978 
7507.000000	63.533449 
7506.000000	63.059210 
7505.000000	62.850856 
7504.000000	62.907433 
7503.000000	63.192176 
7502.000000	63.644719 
7501.000000	64.191341 
7500.000000	64.756155 
7499.000000	65.272521 
7498.000000	65.688967 
7497.000000	65.967988 
7496.000000	66.084718 
7495.000000	66.027975 
7494.000000	65.799951 
7493.000000	65.417361 
7492.000000	64.912605 
7491.000000	64.334106 
7490.000000	63.743734 
7489.000000	63.214874 
7488.000000	62.819623 
7487.000000	62.619018 
7486.000000	62.647724 
7485.000000	62.903547 
7484.000000	63.347005 
7483.000000	63.909316 
7482.000000	64.503669 
7481.000000	65.041279 
7480.000000	65.446925 
7479.000000	65.669798 
7478.000000	65.690803 
7477.000000	65.523910 
7476.000000	65.204000 
7475.000000	64.776039 
7474.000000	64.284062 
7473.000000	63.765692 
7472.000000	63.246059 
7471.000000	62.741541 
7470.000000	62.262701 
7469.000000	61.821675 
7468.000000	61.440873 
7467.000000	61.155080 
7466.000000	61.001348 
7465.000000	61.012506 
7464.000000	61.207270 
7463.000000	61.584019 
7462.000000	62.111997 
7461.000000	62.738275 
7460.000000	63.393759 
7459.000000	64.008665 
7458.000000	64.526009 
7457.000000	64.911317 
7456.000000	65.153932 
7455.000000	65.267181 
7454.000000	65.282678 
7453.000000	65.238189 
7452.000000	65.169548 
7451.000000	65.099644 
7450.000000	65.040683 
7449.000000	64.988183 
7448.000000	64.932703 
7447.000000	64.857316 
7446.000000	64.751315 
7445.000000	64.602184 
7444.000000	64.400672 
7443.000000	64.139938 
7442.000000	63.817930 
7441.000000	63.436031 
7440.000000	63.000488 
7439.000000	62.526345 
7438.000000	62.037587 
7437.000000	61.560201 
7436.000000	61.122822 
7435.000000	60.752558 
7434.000000	60.475635 
7433.000000	60.310220 
7432.000000	60.268878 
7431.000000	60.354804 
7430.000000	60.562610 
7429.000000	60.874986 
7428.000000	61.265373 
7427.000000	61.690258 
7426.000000	62.105870 
7425.000000	62.471199 
7424.000000	62.760591 
7423.000000	62.961483 
7422.000000	63.084816 
7421.000000	63.161087 
7420.000000	63.231444 
7419.000000	63.337635 
7418.000000	63.506865 
7417.000000	63.745188 
7416.000000	64.032983 
7415.000000	64.332199 
7414.000000	64.597964 
7413.000000	64.795088 
7412.000000	64.912605 
7411.000000	64.971685 
7410.000000	65.022897 
7409.000000	65.133929 
7408.000000	65.373253 
7407.000000	65.786075 
7406.000000	66.382741 
7405.000000	67.123675 
7404.000000	67.931175 
7403.000000	68.694305 
7402.000000	69.299697 
7401.000000	69.647169 
7400.000000	69.679307 
7399.000000	69.384527 
7398.000000	68.800783 
7397.000000	68.004608 
7396.000000	67.097115 
7395.000000	66.181278 
7394.000000	65.346622 
7393.000000	64.653730 
7392.000000	64.133191 
7391.000000	63.783645 
7390.000000	63.583207 
7389.000000	63.497304 
7388.000000	63.490533 
7387.000000	63.537764 
7386.000000	63.627004 
7385.000000	63.754010 
7384.000000	63.914775 
7383.000000	64.100003 
7382.000000	64.288091 
7381.000000	64.437770 
7380.000000	64.497852 
7379.000000	64.419817 
7378.000000	64.174604 
7377.000000	63.759207 
7376.000000	63.210105 
7375.000000	62.598013 
7374.000000	62.021327 
7373.000000	61.580967 
7372.000000	61.366367 
7371.000000	61.434531 
7370.000000	61.798214 
7369.000000	62.422466 
7368.000000	63.230824 
7367.000000	64.119267 
7366.000000	64.978957 
7365.000000	65.717506 
7364.000000	66.271066 
7363.000000	66.609096 
7362.000000	66.738390 
7361.000000	66.693758 
7360.000000	66.515731 
7359.000000	66.236066 
7358.000000	65.874886 
7357.000000	65.437126 
7356.000000	64.920520 
7355.000000	64.321160 
7354.000000	63.652014 
7353.000000	62.941122 
7352.000000	62.226986 
7351.000000	61.556077 
7350.000000	60.967922 
7349.000000	60.497760 
7348.000000	60.165977 
7347.000000	59.984898 
7346.000000	59.950995 
7345.000000	60.056471 
7344.000000	60.285401 
7343.000000	60.621905 
7342.000000	61.039447 
7341.000000	61.515951 
7340.000000	62.027573 
7339.000000	62.556695 
7338.000000	63.084721 
7337.000000	63.602042 
7336.000000	64.105534 
7335.000000	64.593148 
7334.000000	65.059995 
7333.000000	65.499329 
7332.000000	65.903615 
7331.000000	66.263270 
7330.000000	66.571927 
7329.000000	66.836714 
7328.000000	67.075896 
7327.000000	67.324185 
7326.000000	67.614603 
7325.000000	67.969846 
7324.000000	68.384051 
7323.000000	68.827009 
7322.000000	69.237709 
7321.000000	69.540810 
7320.000000	69.658231 
7319.000000	69.541311 
7318.000000	69.170093 
7317.000000	68.565487 
7316.000000	67.779111 
7315.000000	66.889381 
7314.000000	65.976595 
7313.000000	65.109467 
7312.000000	64.332604 
7311.000000	63.664984 
7310.000000	63.103103 
7309.000000	62.632393 
7308.000000	62.232923 
7307.000000	61.888980 
7306.000000	61.589860 
7305.000000	61.332416 
7304.000000	61.109781 
7303.000000	60.913801 
7302.000000	60.737156 
7301.000000	60.577917 
7300.000000	60.437250 
7299.000000	60.323929 
7298.000000	60.252332 
7297.000000	60.240697 
7296.000000	60.298848 
7295.000000	60.431170 
7294.000000	60.630226 
7293.000000	60.883903 
7292.000000	61.170053 
7291.000000	61.471033 
7290.000000	61.775660 
7289.000000	62.083244 
7288.000000	62.400245 
7287.000000	62.736320 
7286.000000	63.096904 
7285.000000	63.479375 
7284.000000	63.871693 
7283.000000	64.250612 
7282.000000	64.585351 
7281.000000	64.848661 
7280.000000	65.024900 
7279.000000	65.105390 
7278.000000	65.090465 
7277.000000	64.989066 
7276.000000	64.816784 
7275.000000	64.593911 
7274.000000	64.341783 
7273.000000	64.085531 
7272.000000	63.846206 
7271.000000	63.641571 
7270.000000	63.477492 
7269.000000	63.351726 
7268.000000	63.248586 
7267.000000	63.142728 
7266.000000	63.004684 
7265.000000	62.808489 
7264.000000	62.540221 
7263.000000	62.197971 
7262.000000	61.801362 
7261.000000	61.384940 
7260.000000	60.997533 
7259.000000	60.689520 
7258.000000	60.505151 
7257.000000	60.469961 
7256.000000	60.588741 
7255.000000	60.843896 
7254.000000	61.196398 
7253.000000	61.592435 
7252.000000	61.975026 
7251.000000	62.293815 
7250.000000	62.509822 
7249.000000	62.601327 
7248.000000	62.563300 
7247.000000	62.408232 
7246.000000	62.160801 
7245.000000	61.857223 
7244.000000	61.538624 
7243.000000	61.250591 
7242.000000	61.037349 
7241.000000	60.940575 
7240.000000	60.992360 
7239.000000	61.213827 
7238.000000	61.609673 
7237.000000	62.167644 
7236.000000	62.856554 
7235.000000	63.629293 
7234.000000	64.428472 
7233.000000	65.190029 
7232.000000	65.852379 
7231.000000	66.360616 
7230.000000	66.676402 
7229.000000	66.776537 
7228.000000	66.656637 
7227.000000	66.334509 
7226.000000	65.850186 
7225.000000	65.263223 
7224.000000	64.645695 
7223.000000	64.075708 
7222.000000	63.623309 
7221.000000	63.341259 
7220.000000	63.252782 
7219.000000	63.344788 
7218.000000	63.571739 
7217.000000	63.865256 
7216.000000	64.152050 
7215.000000	64.366102 
7214.000000	64.467883 
7213.000000	64.447283 
7212.000000	64.326977 
7211.000000	64.150047 
7210.000000	63.968992 
7209.000000	63.827157 
7208.000000	63.750767 
7207.000000	63.743066 
7206.000000	63.788104 
7205.000000	63.859033 
7204.000000	63.930845 
7203.000000	63.990449 
7202.000000	64.042282 
7201.000000	64.107966 
7200.000000	64.212417 
7199.000000	64.372396 
7198.000000	64.585757 
7197.000000	64.827251 
7196.000000	65.049338 
7195.000000	65.194177 
7194.000000	65.212821 
7193.000000	65.079379 
7192.000000	64.804053 
7191.000000	64.430356 
7190.000000	64.023184 
7189.000000	63.654136 
7188.000000	63.379979 
7187.000000	63.235187 
7186.000000	63.223075 
7185.000000	63.325095 
7184.000000	63.506197 
7183.000000	63.734602 
7182.000000	63.992857 
7181.000000	64.282083 
7180.000000	64.616680 
7179.000000	65.015006 
7178.000000	65.485024 
7177.000000	66.014456 
7176.000000	66.566109 
7175.000000	67.080616 
7174.000000	67.488694 
7173.000000	67.725014 
7172.000000	67.745828 
7171.000000	67.534470 
7170.000000	67.107415 
7169.000000	66.508388 
7168.000000	65.801239 
7167.000000	65.059924 
7166.000000	64.355874 
7165.000000	63.751959 
7164.000000	63.290452 
7163.000000	62.992811 
7162.000000	62.853956 
7161.000000	62.848830 
7160.000000	62.934899 
7159.000000	63.057041 
7158.000000	63.162374 
7157.000000	63.201785 
7156.000000	63.148927 
7155.000000	62.997579 
7154.000000	62.770056 
7153.000000	62.506198 
7152.000000	62.257122 
7151.000000	62.070369 
7150.000000	61.979842 
7149.000000	61.997652 
7148.000000	62.112545 
7147.000000	62.294435 
7146.000000	62.501645 
7145.000000	62.692022 
7144.000000	62.829947 
7143.000000	62.894511 
7142.000000	62.877464 
7141.000000	62.786054 
7140.000000	62.641763 
7139.000000	62.477540 
7138.000000	62.332177 
7137.000000	62.243151 
7136.000000	62.242293 
7135.000000	62.345385 
7134.000000	62.554979 
7133.000000	62.850451 
7132.000000	63.188505 
7131.000000	63.512635 
7130.000000	63.761830 
7129.000000	63.891053 
7128.000000	63.876533 
7127.000000	63.733196 
7126.000000	63.509845 
7125.000000	63.282847 
7124.000000	63.136100 
7123.000000	63.141775 
7122.000000	63.343310 
7121.000000	63.738751 
7120.000000	64.280629 
7119.000000	64.885354 
7118.000000	65.453767 
7117.000000	65.887689 
7116.000000	66.111922 
7115.000000	66.086792 
7114.000000	65.814924 
7113.000000	65.336418 
7112.000000	64.719676 
7111.000000	64.042997 
7110.000000	63.382458 
7109.000000	62.803363 
7108.000000	62.352418 
7107.000000	62.057590 
7106.000000	61.927914 
7105.000000	61.958551 
7104.000000	62.134623 
7103.000000	62.429213 
7102.000000	62.814688 
7101.000000	63.258028 
7100.000000	63.732409 
7099.000000	64.208006 
7098.000000	64.666557 
7097.000000	65.096545 
7096.000000	65.496969 
7095.000000	65.871524 
7094.000000	66.227388 
7093.000000	66.570615 
7092.000000	66.901373 
7091.000000	67.212462 
7090.000000	67.486953 
7089.000000	67.700386 
7088.000000	67.825531 
7087.000000	67.837285 
7086.000000	67.719960 
7085.000000	67.469859 
7084.000000	67.098498 
7083.000000	66.630601 
7082.000000	66.100978 
7081.000000	65.550112 
7080.000000	65.021610 
7079.000000	64.554905 
7078.000000	64.180421 
7077.000000	63.916015 
7076.000000	63.767981 
7075.000000	63.728857 
7074.000000	63.779115 
7073.000000	63.890767 
7072.000000	64.027190 
7071.000000	64.155077 
7070.000000	64.247083 
7069.000000	64.287829 
7068.000000	64.271306 
7067.000000	64.204978 
7066.000000	64.105224 
7065.000000	63.991594 
7064.000000	63.880848 
7063.000000	63.783335 
7062.000000	63.701629 
7061.000000	63.630867 
7060.000000	63.563275 
7059.000000	63.493752 
7058.000000	63.424277 
7057.000000	63.365125 
7056.000000	63.333249 
7055.000000	63.347268 
7054.000000	63.420844 
7053.000000	63.558506 
7052.000000	63.749837 
7051.000000	63.968873 
7050.000000	64.178061 
7049.000000	64.338660 
7048.000000	64.416384 
7047.000000	64.390110 
7046.000000	64.255976 
7045.000000	64.027142 
7044.000000	63.733530 
7043.000000	63.415455 
7042.000000	63.116741 
7041.000000	62.874746 
7040.000000	62.718367 
7039.000000	62.664365 
7038.000000	62.715291 
7037.000000	62.860822 
7036.000000	63.078784 
7035.000000	63.339257 
7034.000000	63.607597 
7033.000000	63.850975 
7032.000000	64.039611 
7031.000000	64.154696 
7030.000000	64.192032 
7029.000000	64.164113 
7028.000000	64.098834 
7027.000000	64.030480 
7026.000000	63.998198 
7025.000000	64.025568 
7024.000000	64.119338 
7023.000000	64.255452 
7022.000000	64.391279 
7021.000000	64.464354 
7020.000000	64.410734 
7019.000000	64.178419 
7018.000000	63.743543 
7017.000000	63.118886 
7016.000000	62.354087 
7015.000000	61.527490 
7014.000000	60.729575 
7013.000000	60.045456 
7012.000000	59.537148 
7011.000000	59.236073 
7010.000000	59.140253 
7009.000000	59.224224 
7008.000000	59.449291 
7007.000000	59.775876 
7006.000000	60.171890 
7005.000000	60.611867 
7004.000000	61.078405 
7003.000000	61.551260 
7002.000000	62.009978 
7001.000000	62.429070 
7000.000000	62.784838 
6999.000000	63.059854 
6998.000000	63.246917 
6997.000000	63.356208 
6996.000000	63.407945 
6995.000000	63.432860 
6994.000000	63.457703 
6993.000000	63.501954 
6992.000000	63.569068 
6991.000000	63.648653 
6990.000000	63.719630 
6989.000000	63.761353 
6988.000000	63.758277 
6987.000000	63.709092 
6986.000000	63.622617 
6985.000000	63.516068 
6984.000000	63.409042 
6983.000000	63.318467 
6982.000000	63.255929 
6981.000000	63.227009 
6980.000000	63.236713 
6979.000000	63.290643 
6978.000000	63.397669 
6977.000000	63.566374 
6976.000000	63.802337 
6975.000000	64.100694 
6974.000000	64.443564 
6973.000000	64.797067 
6972.000000	65.115475 
6971.000000	65.347695 
6970.000000	65.450906 
6969.000000	65.396642 
6968.000000	65.182518 
6967.000000	64.827585 
6966.000000	64.371395 
6965.000000	63.863086 
6964.000000	63.352942 
6963.000000	62.883329 
6962.000000	62.484550 
6961.000000	62.171411 
6960.000000	61.947536 
6959.000000	61.804008 
