PE IR       SPECTRUM    SPECTRUM    ASCII       PEDS        1.60        
  -1
C-9AEF~1.ASC
17/05/02
13:11:19.00
17/05/02
13:11:19.00
tln
$C-4040-8_t0027$<tbV0>[2.5,7.0,8.0,0.0,22,1,0]
370.000000
64









2002,4.07    
MIRTGS : RIGHTBACK : INTERNAL 2
MIR : ON : INTERNAL 2
OPTKBR

0.200000
8
8.000000
FILLER
RATIO
SPECTRUM
UNLOCKED 256

DOUBLE
64
COMBINED
1
0
0


1.000000
RATIO


1
0
TRUE
51149
0
LEFT NOT FITTED RIGHT NOT FITTED 0
NONE
NONE
15600
12.000000
4.427000
51148
TRUE
1 0 8 72 0 0 0 0 

15798.010000






#HDR
-1
-1
#GR
CM-1
%T
0.00002384185791015625
0.0
7800.000000
-1.000000
7431
8
87.697434
36.415362
#DATA
7800.000000	87.236022 
7799.000000	87.697434 
7798.000000	87.182784 
7797.000000	85.562729 
7796.000000	82.889604 
7795.000000	79.403734 
7794.000000	75.479078 
7793.000000	71.550059 
7792.000000	68.020057 
7791.000000	65.187883 
7790.000000	63.200950 
7789.000000	62.051439 
7788.000000	61.617136 
7787.000000	61.710786 
7786.000000	62.136220 
7785.000000	62.731742 
7784.000000	63.367509 
7783.000000	63.970208 
7782.000000	64.462161 
7781.000000	64.802575 
7780.000000	64.944362 
7779.000000	64.879584 
7778.000000	64.631223 
7777.000000	64.266300 
7776.000000	63.892626 
7775.000000	63.627099 
7774.000000	63.578772 
7773.000000	63.803672 
7772.000000	64.295125 
7771.000000	64.968276 
7770.000000	65.683174 
7769.000000	66.269373 
7768.000000	66.569519 
7767.000000	66.482520 
7766.000000	65.994000 
7765.000000	65.176916 
7764.000000	64.178895 
7763.000000	63.197731 
7762.000000	62.441420 
7761.000000	62.075591 
7760.000000	62.195897 
7759.000000	62.830042 
7758.000000	63.926982 
7757.000000	65.377449 
7756.000000	67.024540 
7755.000000	68.695092 
7754.000000	70.216155 
7753.000000	71.440601 
7752.000000	72.258019 
7751.000000	72.598409 
7750.000000	72.444057 
7749.000000	71.825003 
7748.000000	70.823812 
7747.000000	69.568157 
7746.000000	68.216490 
7745.000000	66.944026 
7744.000000	65.912532 
7743.000000	65.253162 
7742.000000	65.040278 
7741.000000	65.285062 
7740.000000	65.933442 
7739.000000	66.879630 
7738.000000	67.991757 
7737.000000	69.133973 
7736.000000	70.188927 
7735.000000	71.065974 
7734.000000	71.699428 
7733.000000	72.043490 
7732.000000	72.066807 
7731.000000	71.750950 
7730.000000	71.088576 
7729.000000	70.097279 
7728.000000	68.835115 
7727.000000	67.403006 
7726.000000	65.948081 
7725.000000	64.637923 
7724.000000	63.637542 
7723.000000	63.071751 
7722.000000	63.008046 
7721.000000	63.425087 
7720.000000	64.210844 
7719.000000	65.187931 
7718.000000	66.147208 
7717.000000	66.898155 
7716.000000	67.303347 
7715.000000	67.314147 
7714.000000	66.968894 
7713.000000	66.391110 
7712.000000	65.751695 
7711.000000	65.228962 
7710.000000	64.963436 
7709.000000	65.037727 
7708.000000	65.459752 
7707.000000	66.167545 
7706.000000	67.049360 
7705.000000	67.978048 
7704.000000	68.839859 
7703.000000	69.559836 
7702.000000	70.108342 
7701.000000	70.497298 
7700.000000	70.759916 
7699.000000	70.929026 
7698.000000	71.018314 
7697.000000	71.017503 
7696.000000	70.893883 
7695.000000	70.613670 
7694.000000	70.155358 
7693.000000	69.536375 
7692.000000	68.809938 
7691.000000	68.062853 
7690.000000	67.398881 
7689.000000	66.914296 
7688.000000	66.684389 
7687.000000	66.746258 
7686.000000	67.096948 
7685.000000	67.695522 
7684.000000	68.484377 
7683.000000	69.404244 
7682.000000	70.405483 
7681.000000	71.454906 
7680.000000	72.534322 
7679.000000	73.631739 
7678.000000	74.732899 
7677.000000	75.805807 
7676.000000	76.804161 
7675.000000	77.657032 
7674.000000	78.290295 
7673.000000	78.625321 
7672.000000	78.616046 
7671.000000	78.240132 
7670.000000	77.520012 
7669.000000	76.509928 
7668.000000	75.299549 
7667.000000	73.993730 
7666.000000	72.702741 
7665.000000	71.527004 
7664.000000	70.550036 
7663.000000	69.827675 
7662.000000	69.386601 
7661.000000	69.223427 
7660.000000	69.309306 
7659.000000	69.595456 
7658.000000	70.020222 
7657.000000	70.523309 
7656.000000	71.052074 
7655.000000	71.566319 
7654.000000	72.036623 
7653.000000	72.445201 
7652.000000	72.777032 
7651.000000	73.012280 
7650.000000	73.123240 
7649.000000	73.084807 
7648.000000	72.873544 
7647.000000	72.481012 
7646.000000	71.913933 
7645.000000	71.204495 
7644.000000	70.401787 
7643.000000	69.572019 
7642.000000	68.781208 
7641.000000	68.088006 
7640.000000	67.529225 
7639.000000	67.117166 
7638.000000	66.837954 
7637.000000	66.656255 
7636.000000	66.529512 
7635.000000	66.418862 
7634.000000	66.297483 
7633.000000	66.152024 
7632.000000	65.988087 
7631.000000	65.823292 
7630.000000	65.679931 
7629.000000	65.574955 
7628.000000	65.514373 
7627.000000	65.490460 
7626.000000	65.479278 
7625.000000	65.451884 
7624.000000	65.381574 
7623.000000	65.259933 
7622.000000	65.100288 
7621.000000	64.942479 
7620.000000	64.843297 
7619.000000	64.863252 
7618.000000	65.052127 
7617.000000	65.428233 
7616.000000	65.968394 
7615.000000	66.608405 
7614.000000	67.256879 
7613.000000	67.812895 
7612.000000	68.190026 
7611.000000	68.335938 
7610.000000	68.243885 
7609.000000	67.953419 
7608.000000	67.542648 
7607.000000	67.097592 
7606.000000	66.688752 
7605.000000	66.362977 
7604.000000	66.139507 
7603.000000	66.013360 
7602.000000	65.968823 
7601.000000	66.002583 
7600.000000	66.131067 
7599.000000	66.389322 
7598.000000	66.816663 
7597.000000	67.438316 
7596.000000	68.242597 
7595.000000	69.175601 
7594.000000	70.132374 
7593.000000	70.976376 
7592.000000	71.555900 
7591.000000	71.746277 
7590.000000	71.467185 
7589.000000	70.707798 
7588.000000	69.528055 
7587.000000	68.048071 
7586.000000	66.433191 
7585.000000	64.858031 
7584.000000	63.494443 
7583.000000	62.481164 
7582.000000	61.921596 
7581.000000	61.870050 
7580.000000	62.341809 
7579.000000	63.313150 
7578.000000	64.724230 
7577.000000	66.479563 
7576.000000	68.456101 
7575.000000	70.507717 
7574.000000	72.471737 
7573.000000	74.181509 
7572.000000	75.489425 
7571.000000	76.280570 
7570.000000	76.496148 
7569.000000	76.133847 
7568.000000	75.255823 
7567.000000	73.970079 
7566.000000	72.427535 
7565.000000	70.788216 
7564.000000	69.212961 
7563.000000	67.832446 
7562.000000	66.745996 
7561.000000	66.006040 
7560.000000	65.622520 
7559.000000	65.569710 
7558.000000	65.791988 
7557.000000	66.225862 
7556.000000	66.804385 
7555.000000	67.469596 
7554.000000	68.169188 
7553.000000	68.851375 
7552.000000	69.456720 
7551.000000	69.917416 
7550.000000	70.160293 
7549.000000	70.120429 
7548.000000	69.756507 
7547.000000	69.065189 
7546.000000	68.090295 
7545.000000	66.928362 
7544.000000	65.714287 
7543.000000	64.595818 
7542.000000	63.707137 
7541.000000	63.147783 
7540.000000	62.962841 
7539.000000	63.131785 
7538.000000	63.582181 
7537.000000	64.206528 
7536.000000	64.892315 
7535.000000	65.541052 
7534.000000	66.089439 
7533.000000	66.506457 
7532.000000	66.796803 
7531.000000	66.985106 
7530.000000	67.099475 
7529.000000	67.154979 
7528.000000	67.147231 
7527.000000	67.057228 
7526.000000	66.855168 
7525.000000	66.517972 
7524.000000	66.039466 
7523.000000	65.442919 
7522.000000	64.778017 
7521.000000	64.116072 
7520.000000	63.537740 
7519.000000	63.117694 
7518.000000	62.908840 
7517.000000	62.930655 
7516.000000	63.168621 
7515.000000	63.573718 
7514.000000	64.069151 
7513.000000	64.565801 
7512.000000	64.976954 
7511.000000	65.236186 
7510.000000	65.305352 
7509.000000	65.181207 
7508.000000	64.894795 
7507.000000	64.496064 
7506.000000	64.040923 
7505.000000	63.575696 
7504.000000	63.128352 
7503.000000	62.709283 
7502.000000	62.318468 
7501.000000	61.954617 
7500.000000	61.624193 
7499.000000	61.349391 
7498.000000	61.165714 
7497.000000	61.120700 
7496.000000	61.260318 
7495.000000	61.620354 
7494.000000	62.211465 
7493.000000	63.015699 
7492.000000	63.980674 
7491.000000	65.022993 
7490.000000	66.037321 
7489.000000	66.913461 
7488.000000	67.554092 
7487.000000	67.890572 
7486.000000	67.897105 
7485.000000	67.596077 
7484.000000	67.054057 
7483.000000	66.372513 
7482.000000	65.664744 
7481.000000	65.041375 
7480.000000	64.583754 
7479.000000	64.337611 
7478.000000	64.303302 
7477.000000	64.445948 
7476.000000	64.707565 
7475.000000	65.024256 
7474.000000	65.345740 
7473.000000	65.642309 
7472.000000	65.913963 
7471.000000	66.180729 
7470.000000	66.473984 
7469.000000	66.818428 
7468.000000	67.221951 
7467.000000	67.666363 
7466.000000	68.111705 
7465.000000	68.501377 
7464.000000	68.777489 
7463.000000	68.891334 
7462.000000	68.817758 
7461.000000	68.558573 
7460.000000	68.142247 
7459.000000	67.619323 
7458.000000	67.048311 
7457.000000	66.491675 
7456.000000	66.009378 
7455.000000	65.649819 
7454.000000	65.449976 
7453.000000	65.423607 
7452.000000	65.564131 
7451.000000	65.838050 
7450.000000	66.193079 
7449.000000	66.560411 
7448.000000	66.863632 
7447.000000	67.035841 
7446.000000	67.029452 
7445.000000	66.831660 
7444.000000	66.465425 
7443.000000	65.988445 
7442.000000	65.479278 
7441.000000	65.026593 
7440.000000	64.709973 
7439.000000	64.582180 
7438.000000	64.658951 
7437.000000	64.920878 
7436.000000	65.319705 
7435.000000	65.788125 
7434.000000	66.257715 
7433.000000	66.672945 
7432.000000	67.002868 
7431.000000	67.238688 
7430.000000	67.394661 
7429.000000	67.495393 
7428.000000	67.569255 
7427.000000	67.639088 
7426.000000	67.716073 
7425.000000	67.801237 
7424.000000	67.884802 
7423.000000	67.958068 
7422.000000	68.010258 
7421.000000	68.036413 
7420.000000	68.034672 
7419.000000	68.008995 
7418.000000	67.963480 
7417.000000	67.900943 
7416.000000	67.820453 
7415.000000	67.717671 
7414.000000	67.581868 
7413.000000	67.399024 
7412.000000	67.155003 
7411.000000	66.841411 
7410.000000	66.459870 
7409.000000	66.026329 
7408.000000	65.569853 
7407.000000	65.130019 
7406.000000	64.751434 
7405.000000	64.473724 
7404.000000	64.321541 
7403.000000	64.298200 
7402.000000	64.386677 
7401.000000	64.549446 
7400.000000	64.732837 
7399.000000	64.882040 
7398.000000	64.949131 
7397.000000	64.909529 
7396.000000	64.760351 
7395.000000	64.531350 
7394.000000	64.272856 
7393.000000	64.051747 
7392.000000	63.933706 
7391.000000	63.970232 
7390.000000	64.185333 
7389.000000	64.570498 
7388.000000	65.085983 
7387.000000	65.662217 
7386.000000	66.213202 
7385.000000	66.653418 
7384.000000	66.914105 
7383.000000	66.953420 
7382.000000	66.763830 
7381.000000	66.372966 
7380.000000	65.835738 
7379.000000	65.222668 
7378.000000	64.605283 
7377.000000	64.046263 
7376.000000	63.588023 
7375.000000	63.254380 
7374.000000	63.046717 
7373.000000	62.950754 
7372.000000	62.942647 
7371.000000	62.996125 
7370.000000	63.089728 
7369.000000	63.200521 
7368.000000	63.319945 
7367.000000	63.446497 
7366.000000	63.591957 
7365.000000	63.769221 
7364.000000	63.998317 
7363.000000	64.296627 
7362.000000	64.677524 
7361.000000	65.143775 
7360.000000	65.680742 
7359.000000	66.254806 
7358.000000	66.820430 
7357.000000	67.325377 
7356.000000	67.720103 
7355.000000	67.963886 
7354.000000	68.038272 
7353.000000	67.942070 
7352.000000	67.694234 
7351.000000	67.319774 
7350.000000	66.850948 
7349.000000	66.311097 
7348.000000	65.718579 
7347.000000	65.079069 
7346.000000	64.400386 
7345.000000	63.686394 
7344.000000	62.945318 
7343.000000	62.191772 
7342.000000	61.447620 
7341.000000	60.744571 
7340.000000	60.115718 
7339.000000	59.598946 
7338.000000	59.223341 
7337.000000	59.017729 
7336.000000	59.001708 
7335.000000	59.187102 
7334.000000	59.570980 
7333.000000	60.143518 
7332.000000	60.884094 
7331.000000	61.758041 
7330.000000	62.715625 
7329.000000	63.695764 
7328.000000	64.629340 
7327.000000	65.445017 
7326.000000	66.078233 
7325.000000	66.484355 
7324.000000	66.642785 
7323.000000	66.567373 
7322.000000	66.297245 
7321.000000	65.891003 
7320.000000	65.414142 
7319.000000	64.938759 
7318.000000	64.523434 
7317.000000	64.208054 
7316.000000	64.010262 
7315.000000	63.937568 
7314.000000	63.977432 
7313.000000	64.104986 
7312.000000	64.284920 
7311.000000	64.479732 
7310.000000	64.649248 
7309.000000	64.754819 
7308.000000	64.765238 
7307.000000	64.660263 
7306.000000	64.436078 
7305.000000	64.106249 
7304.000000	63.699674 
7303.000000	63.256263 
7302.000000	62.822198 
7301.000000	62.444043 
7300.000000	62.153410 
7299.000000	61.971569 
7298.000000	61.909151 
7297.000000	61.975073 
7296.000000	62.167453 
7295.000000	62.489628 
7294.000000	62.946867 
7293.000000	63.547492 
7292.000000	64.290070 
7291.000000	65.161180 
7290.000000	66.127777 
7289.000000	67.135620 
7288.000000	68.113708 
7287.000000	68.981742 
7286.000000	69.665884 
7285.000000	70.109200 
7284.000000	70.287442 
7283.000000	70.207238 
7282.000000	69.907093 
7281.000000	69.446945 
7280.000000	68.898272 
7279.000000	68.327045 
7278.000000	67.782902 
7277.000000	67.295002 
7276.000000	66.870141 
7275.000000	66.495275 
7274.000000	66.146397 
7273.000000	65.798115 
7272.000000	65.435528 
7271.000000	65.056228 
7270.000000	64.677119 
7269.000000	64.326667 
7268.000000	64.040875 
7267.000000	63.849592 
7266.000000	63.769006 
7265.000000	63.794732 
7264.000000	63.899517 
7263.000000	64.038228 
7262.000000	64.155793 
7261.000000	64.198064 
7260.000000	64.126133 
7259.000000	63.922429 
7258.000000	63.599753 
7257.000000	63.194608 
7256.000000	62.767338 
7255.000000	62.387800 
7254.000000	62.121486 
7253.000000	62.014269 
7252.000000	62.085270 
7251.000000	62.323021 
7250.000000	62.686347 
7249.000000	63.114762 
7248.000000	63.541388 
7247.000000	63.908863 
7246.000000	64.178514 
7245.000000	64.339232 
7244.000000	64.403104 
7243.000000	64.403080 
7242.000000	64.379143 
7241.000000	64.371752 
7240.000000	64.409732 
7239.000000	64.510107 
7238.000000	64.677143 
7237.000000	64.908051 
7236.000000	65.196037 
7235.000000	65.537071 
7234.000000	65.933537 
7233.000000	66.388511 
7232.000000	66.900992 
7231.000000	67.458987 
7230.000000	68.037509 
7229.000000	68.594098 
7228.000000	69.074940 
7227.000000	69.420981 
7226.000000	69.580817 
7225.000000	69.518828 
7224.000000	69.224143 
7223.000000	68.714451 
7222.000000	68.033123 
7221.000000	67.241954 
7220.000000	66.409516 
7219.000000	65.602898 
7218.000000	64.876151 
7217.000000	64.265799 
7216.000000	63.788604 
7215.000000	63.441777 
7214.000000	63.212776 
7213.000000	63.082742 
7212.000000	63.039278 
7211.000000	63.067054 
7210.000000	63.164305 
7209.000000	63.332891 
7208.000000	63.581776 
7207.000000	63.912010 
7206.000000	64.318299 
7205.000000	64.783334 
7204.000000	65.274882 
7203.000000	65.748381 
7202.000000	66.151118 
7201.000000	66.432380 
7200.000000	66.550707 
7199.000000	66.484093 
7198.000000	66.233801 
7197.000000	65.827393 
7196.000000	65.316987 
7195.000000	64.772105 
7194.000000	64.270162 
7193.000000	63.882160 
7192.000000	63.665437 
7191.000000	63.648748 
7190.000000	63.827896 
7189.000000	64.162874 
7188.000000	64.590096 
7187.000000	65.029764 
7186.000000	65.397787 
7185.000000	65.624165 
7184.000000	65.663886 
7183.000000	65.506529 
7182.000000	65.171861 
7181.000000	64.709353 
7180.000000	64.183831 
7179.000000	63.665986 
7178.000000	63.218927 
7177.000000	62.889361 
7176.000000	62.701582 
7175.000000	62.661504 
7174.000000	62.761688 
7173.000000	62.984442 
7172.000000	63.306641 
7171.000000	63.704657 
7170.000000	64.155626 
7169.000000	64.634180 
7168.000000	65.112185 
7167.000000	65.559339 
7166.000000	65.945196 
7165.000000	66.242957 
7164.000000	66.433525 
7163.000000	66.509914 
7162.000000	66.478419 
7161.000000	66.362500 
7160.000000	66.195297 
7159.000000	66.015529 
7158.000000	65.857768 
7157.000000	65.751123 
7156.000000	65.708851 
7155.000000	65.733146 
7154.000000	65.808057 
7153.000000	65.908122 
7152.000000	65.998721 
7151.000000	66.045784 
7150.000000	66.020345 
7149.000000	65.904283 
7148.000000	65.695571 
7147.000000	65.407705 
7146.000000	65.071535 
7145.000000	64.728546 
7144.000000	64.423418 
7143.000000	64.193916 
7142.000000	64.061474 
7141.000000	64.026212 
7140.000000	64.067673 
7139.000000	64.151000 
7138.000000	64.231538 
7137.000000	64.270806 
7136.000000	64.246582 
7135.000000	64.160799 
7134.000000	64.036035 
7133.000000	63.910293 
7132.000000	63.825893 
7131.000000	63.814520 
7130.000000	63.888454 
7129.000000	64.032936 
7128.000000	64.208269 
7127.000000	64.361310 
7126.000000	64.440751 
7125.000000	64.412236 
7124.000000	64.268612 
7123.000000	64.033508 
7122.000000	63.755917 
7121.000000	63.494062 
7120.000000	63.298654 
7119.000000	63.198184 
7118.000000	63.191199 
7117.000000	63.248324 
7116.000000	63.321423 
7115.000000	63.359999 
7114.000000	63.325953 
7113.000000	63.200449 
7112.000000	62.990140 
7111.000000	62.722587 
7110.000000	62.440967 
7109.000000	62.186980 
7108.000000	61.996698 
7107.000000	61.891436 
7106.000000	61.878824 
7105.000000	61.954259 
7104.000000	62.104821 
7103.000000	62.315654 
7102.000000	62.570714 
7101.000000	62.852931 
7100.000000	63.146209 
7099.000000	63.430333 
7098.000000	63.688731 
7097.000000	63.908457 
7096.000000	64.081978 
7095.000000	64.207601 
7094.000000	64.287447 
7093.000000	64.327168 
7092.000000	64.331650 
7091.000000	64.305305 
7090.000000	64.252972 
7089.000000	64.182162 
7088.000000	64.107275 
7087.000000	64.049720 
7086.000000	64.035558 
7085.000000	64.090967 
7084.000000	64.234948 
7083.000000	64.474773 
7082.000000	64.803361 
7081.000000	65.198993 
7080.000000	65.628194 
7079.000000	66.051363 
7078.000000	66.432547 
7077.000000	66.740798 
7076.000000	66.960287 
7075.000000	67.081022 
7074.000000	67.101573 
7073.000000	67.019581 
7072.000000	66.832351 
7071.000000	66.537332 
7070.000000	66.138887 
7069.000000	65.651154 
7068.000000	65.102767 
7067.000000	64.537310 
7066.000000	64.010405 
7065.000000	63.578939 
7064.000000	63.290619 
7063.000000	63.172912 
7062.000000	63.225865 
7061.000000	63.420772 
7060.000000	63.705015 
7059.000000	64.008522 
7058.000000	64.260053 
7057.000000	64.398932 
7056.000000	64.390945 
7055.000000	64.233636 
7054.000000	63.957071 
7053.000000	63.613319 
7052.000000	63.263559 
7051.000000	62.963581 
7050.000000	62.749075 
7049.000000	62.632656 
7048.000000	62.598323 
7047.000000	62.611436 
7046.000000	62.626290 
7045.000000	62.602949 
7044.000000	62.514448 
7043.000000	62.352299 
7042.000000	62.129139 
7041.000000	61.870408 
7040.000000	61.614298 
7039.000000	61.399531 
7038.000000	61.264491 
7037.000000	61.238551 
7036.000000	61.343693 
7035.000000	61.589026 
7034.000000	61.972570 
7033.000000	62.476015 
7032.000000	63.059997 
7031.000000	63.665866 
7030.000000	64.219927 
7029.000000	64.648604 
7028.000000	64.887094 
7027.000000	64.902234 
7026.000000	64.698815 
7025.000000	64.329266 
7024.000000	63.884139 
7023.000000	63.476586 
7022.000000	63.222050 
7021.000000	63.206911 
7020.000000	63.472819 
7019.000000	63.999247 
7018.000000	64.713644 
7017.000000	65.500044 
7016.000000	66.230010 
7015.000000	66.785216 
7014.000000	67.083883 
7013.000000	67.094516 
7012.000000	66.838479 
7011.000000	66.381382 
7010.000000	65.813779 
7009.000000	65.234661 
7008.000000	64.730596 
7007.000000	64.364933 
7006.000000	64.169430 
7005.000000	64.147305 
7004.000000	64.278364 
7003.000000	64.527654 
7002.000000	64.856147 
7001.000000	65.226721 
7000.000000	65.611815 
6999.000000	65.989065 
6998.000000	66.344809 
6997.000000	66.670203 
6996.000000	66.956329 
6995.000000	67.194867 
6994.000000	67.369580 
6993.000000	67.460179 
6992.000000	67.442178 
6991.000000	67.298269 
6990.000000	67.020440 
6989.000000	66.618943 
6988.000000	66.121983 
6987.000000	65.576791 
6986.000000	65.037941 
6985.000000	64.560031 
6984.000000	64.180874 
6983.000000	63.914847 
6982.000000	63.753938 
6981.000000	63.673353 
6980.000000	63.638448 
6979.000000	63.617968 
6978.000000	63.591384 
6977.000000	63.557887 
6976.000000	63.532042 
6975.000000	63.543033 
6974.000000	63.620638 
6973.000000	63.790154 
6972.000000	64.058613 
6971.000000	64.416718 
6970.000000	64.839673 
6969.000000	65.293407 
6968.000000	65.742206 
6967.000000	66.154766 
6966.000000	66.511535 
6965.000000	66.802239 
6964.000000	67.026758 
6963.000000	67.187094 
6962.000000	67.285323 
6961.000000	67.318439 
6960.000000	67.282009 
6959.000000	67.167520 
