PE IR       SPECTRUM    SPECTRUM    ASCII       PEDS        1.60        
  -1
C-1BE1~1.ASC
17/05/02
13:40:03.00
17/05/02
13:40:03.00
tln
$C-4040-8_t0033$<tbV0>[2.5,12.0,8.0,0.0,22,1,0]
370.000000
64









2002,4.07    
MIRTGS : RIGHTBACK : INTERNAL 2
MIR : ON : INTERNAL 2
OPTKBR

0.200000
8
8.000000
FILLER
RATIO
SPECTRUM
UNLOCKED 256

DOUBLE
64
COMBINED
1
0
0


1.000000
RATIO


1
0
TRUE
51149
0
LEFT NOT FITTED RIGHT NOT FITTED 0
NONE
NONE
15600
12.000000
4.427000
51148
TRUE
1 0 8 72 0 0 0 0 

15798.010000






#HDR
-1
-1
#GR
CM-1
%T
0.00002384185791015625
0.0
7800.000000
-1.000000
7431
8
90.543389
57.801222
#DATA
7800.000000	71.735310 
7799.000000	72.973084 
7798.000000	73.749279 
7797.000000	73.981070 
7796.000000	73.632001 
7795.000000	72.724652 
7794.000000	71.350336 
7793.000000	69.668960 
7792.000000	67.884135 
7791.000000	66.221094 
7790.000000	64.909243 
7789.000000	64.147520 
7788.000000	64.080333 
7787.000000	64.759922 
7786.000000	66.155576 
7785.000000	68.122148 
7784.000000	70.405340 
7783.000000	72.670912 
7782.000000	74.549961 
7781.000000	75.714683 
7780.000000	75.937294 
7779.000000	75.142312 
7778.000000	73.436307 
7777.000000	71.063065 
7776.000000	68.351912 
7775.000000	65.638923 
7774.000000	63.202691 
7773.000000	61.218881 
7772.000000	59.760379 
7771.000000	58.794665 
7770.000000	58.232140 
7769.000000	57.949233 
7768.000000	57.833552 
7767.000000	57.801222 
7766.000000	57.810258 
7765.000000	57.870435 
7764.000000	58.033657 
7763.000000	58.380126 
7762.000000	58.997392 
7761.000000	59.959745 
7760.000000	61.305260 
7759.000000	63.025641 
7758.000000	65.052151 
7757.000000	67.261695 
7756.000000	69.486880 
7755.000000	71.541070 
7754.000000	73.247981 
7753.000000	74.487709 
7752.000000	75.200319 
7751.000000	75.399255 
7750.000000	75.153803 
7749.000000	74.584364 
7748.000000	73.821878 
7747.000000	72.988867 
7746.000000	72.184610 
7745.000000	71.482396 
7744.000000	70.941758 
7743.000000	70.623683 
7742.000000	70.585799 
7741.000000	70.879864 
7740.000000	71.539163 
7739.000000	72.564148 
7738.000000	73.894810 
7737.000000	75.408768 
7736.000000	76.930236 
7735.000000	78.258967 
7734.000000	79.220867 
7733.000000	79.694414 
7732.000000	79.650425 
7731.000000	79.131674 
7730.000000	78.242397 
7729.000000	77.099132 
7728.000000	75.802636 
7727.000000	74.410510 
7726.000000	72.952198 
7725.000000	71.426773 
7724.000000	69.839406 
7723.000000	68.210434 
7722.000000	66.604399 
7721.000000	65.111541 
7720.000000	63.827848 
7719.000000	62.838983 
7718.000000	62.187314 
7717.000000	61.872458 
7716.000000	61.839485 
7715.000000	62.005257 
7714.000000	62.270474 
7713.000000	62.556028 
7712.000000	62.816476 
7711.000000	63.041615 
7710.000000	63.250398 
7709.000000	63.471531 
7708.000000	63.730573 
7707.000000	64.045763 
7706.000000	64.420270 
7705.000000	64.841246 
7704.000000	65.280461 
7703.000000	65.714693 
7702.000000	66.117119 
7701.000000	66.461014 
7700.000000	66.718935 
7699.000000	66.866278 
7698.000000	66.885972 
7697.000000	66.772079 
7696.000000	66.538262 
7695.000000	66.212582 
7694.000000	65.848374 
7693.000000	65.520930 
7692.000000	65.313291 
7691.000000	65.293121 
7690.000000	65.513634 
7689.000000	66.001105 
7688.000000	66.751718 
7687.000000	67.726969 
7686.000000	68.867111 
7685.000000	70.096611 
7684.000000	71.317076 
7683.000000	72.413420 
7682.000000	73.263025 
7681.000000	73.748540 
7680.000000	73.777890 
7679.000000	73.298120 
7678.000000	72.317194 
7677.000000	70.899558 
7676.000000	69.167256 
7675.000000	67.273783 
7674.000000	65.384602 
7673.000000	63.648819 
7672.000000	62.184262 
7671.000000	61.064648 
7670.000000	60.310959 
7669.000000	59.911084 
7668.000000	59.825468 
7667.000000	60.013294 
7666.000000	60.423660 
7665.000000	61.026024 
7664.000000	61.792826 
7663.000000	62.708759 
7662.000000	63.743662 
7661.000000	64.866018 
7660.000000	66.029858 
7659.000000	67.184352 
7658.000000	68.273353 
7657.000000	69.249701 
7656.000000	70.077395 
7655.000000	70.737123 
7654.000000	71.221137 
7653.000000	71.531653 
7652.000000	71.671056 
7651.000000	71.645879 
7650.000000	71.458911 
7649.000000	71.119236 
7648.000000	70.637798 
7647.000000	70.046091 
7646.000000	69.382882 
7645.000000	68.696141 
7644.000000	68.031954 
7643.000000	67.438936 
7642.000000	66.949748 
7641.000000	66.573691 
7640.000000	66.300320 
7639.000000	66.105508 
7638.000000	65.957403 
7637.000000	65.825247 
7636.000000	65.684580 
7635.000000	65.518140 
7634.000000	65.321731 
7633.000000	65.101671 
7632.000000	64.870214 
7631.000000	64.639711 
7630.000000	64.434051 
7629.000000	64.284825 
7628.000000	64.229416 
7627.000000	64.302635 
7626.000000	64.526104 
7625.000000	64.900660 
7624.000000	65.398812 
7623.000000	65.970516 
7622.000000	66.549134 
7621.000000	67.068791 
7620.000000	67.478847 
7619.000000	67.754364 
7618.000000	67.901134 
7617.000000	67.947793 
7616.000000	67.938041 
7615.000000	67.910695 
7614.000000	67.894768 
7613.000000	67.890715 
7612.000000	67.879343 
7611.000000	67.817664 
7610.000000	67.658257 
7609.000000	67.360162 
7608.000000	66.908693 
7607.000000	66.318011 
7606.000000	65.631771 
7605.000000	64.923644 
7604.000000	64.284658 
7603.000000	63.813543 
7602.000000	63.599467 
7601.000000	63.711166 
7600.000000	64.182639 
7599.000000	65.009212 
7598.000000	66.142225 
7597.000000	67.490029 
7596.000000	68.927049 
7595.000000	70.319390 
7594.000000	71.532440 
7593.000000	72.450852 
7592.000000	72.984838 
7591.000000	73.088407 
7590.000000	72.752642 
7589.000000	72.010517 
7588.000000	70.926713 
7587.000000	69.595050 
7586.000000	68.128585 
7585.000000	66.654920 
7584.000000	65.303754 
7583.000000	64.197182 
7582.000000	63.438415 
7581.000000	63.100576 
7580.000000	63.215565 
7579.000000	63.765764 
7578.000000	64.686465 
7577.000000	65.870594 
7576.000000	67.177915 
7575.000000	68.449807 
7574.000000	69.533705 
7573.000000	70.298528 
7572.000000	70.646715 
7571.000000	70.522642 
7570.000000	69.919943 
7569.000000	68.878650 
7568.000000	67.481398 
7567.000000	65.844392 
7566.000000	64.104771 
7565.000000	62.409186 
7564.000000	60.910129 
7563.000000	59.738898 
7562.000000	58.993101 
7561.000000	58.718538 
7560.000000	58.899331 
7559.000000	59.465050 
7558.000000	60.291528 
7557.000000	61.240601 
7556.000000	62.169623 
7555.000000	62.979674 
7554.000000	63.617825 
7553.000000	64.097595 
7552.000000	64.477705 
7551.000000	64.848637 
7550.000000	65.297222 
7549.000000	65.884423 
7548.000000	66.622376 
7547.000000	67.472910 
7546.000000	68.351340 
7545.000000	69.157814 
7544.000000	69.791269 
7543.000000	70.176959 
7542.000000	70.272350 
7541.000000	70.070981 
7540.000000	69.602203 
7539.000000	68.913531 
7538.000000	68.078374 
7537.000000	67.185354 
7536.000000	66.337084 
7535.000000	65.650820 
7534.000000	65.229368 
7533.000000	65.148043 
7532.000000	65.430068 
7531.000000	66.046595 
7530.000000	66.904664 
7529.000000	67.862176 
7528.000000	68.751931 
7527.000000	69.414067 
7526.000000	69.726204 
7525.000000	69.626593 
7524.000000	69.122385 
7523.000000	68.283462 
7522.000000	67.226457 
7521.000000	66.087913 
7520.000000	64.998078 
7519.000000	64.056181 
7518.000000	63.325190 
7517.000000	62.822389 
7516.000000	62.530994 
7515.000000	62.404537 
7514.000000	62.381315 
7513.000000	62.399578 
7512.000000	62.391924 
7511.000000	62.316560 
7510.000000	62.152504 
7509.000000	61.918592 
7508.000000	61.656975 
7507.000000	61.433768 
7506.000000	61.312198 
7505.000000	61.346006 
7504.000000	61.561012 
7503.000000	61.953115 
7502.000000	62.486648 
7501.000000	63.106274 
7500.000000	63.749313 
7499.000000	64.359307 
7498.000000	64.895415 
7497.000000	65.339565 
7496.000000	65.693950 
7495.000000	65.978956 
7494.000000	66.220235 
7493.000000	66.442608 
7492.000000	66.656184 
7491.000000	66.848421 
7490.000000	66.983366 
7489.000000	67.017674 
7488.000000	66.909956 
7487.000000	66.633605 
7486.000000	66.190028 
7485.000000	65.614843 
7484.000000	64.975380 
7483.000000	64.360642 
7482.000000	63.861346 
7481.000000	63.551259 
7480.000000	63.468456 
7479.000000	63.606739 
7478.000000	63.917446 
7477.000000	64.319920 
7476.000000	64.725279 
7475.000000	65.055561 
7474.000000	65.265059 
7473.000000	65.345191 
7472.000000	65.326833 
7471.000000	65.265011 
7470.000000	65.225195 
7469.000000	65.261650 
7468.000000	65.413951 
7467.000000	65.695905 
7466.000000	66.097903 
7465.000000	66.585206 
7464.000000	67.109298 
7463.000000	67.609286 
7462.000000	68.020033 
7461.000000	68.278908 
7460.000000	68.332576 
7459.000000	68.149590 
7458.000000	67.725014 
7457.000000	67.090177 
7456.000000	66.311621 
7455.000000	65.483355 
7454.000000	64.716148 
7453.000000	64.112496 
7452.000000	63.749289 
7451.000000	63.659811 
7450.000000	63.828086 
7449.000000	64.195370 
7448.000000	64.673638 
7447.000000	65.170431 
7446.000000	65.607833 
7445.000000	65.939188 
7444.000000	66.152143 
7443.000000	66.264128 
7442.000000	66.307544 
7441.000000	66.313982 
7440.000000	66.300439 
7439.000000	66.265320 
7438.000000	66.189980 
7437.000000	66.051578 
7436.000000	65.833377 
7435.000000	65.538239 
7434.000000	65.190029 
7433.000000	64.834380 
7432.000000	64.524316 
7431.000000	64.303541 
7430.000000	64.195513 
7429.000000	64.197134 
7428.000000	64.278888 
7427.000000	64.392185 
7426.000000	64.483833 
7425.000000	64.508199 
7424.000000	64.443254 
7423.000000	64.291548 
7422.000000	64.086413 
7421.000000	63.876533 
7420.000000	63.723087 
7419.000000	63.680076 
7418.000000	63.788580 
7417.000000	64.065694 
7416.000000	64.502120 
7415.000000	65.062546 
7414.000000	65.692853 
7413.000000	66.328239 
7412.000000	66.899442 
7411.000000	67.342185 
7410.000000	67.604041 
7409.000000	67.651724 
7408.000000	67.476129 
7407.000000	67.093396 
7406.000000	66.545772 
7405.000000	65.891861 
7404.000000	65.204882 
7403.000000	64.552617 
7402.000000	63.990163 
7401.000000	63.547658 
7400.000000	63.232922 
7399.000000	63.030362 
7398.000000	62.907743 
7397.000000	62.829589 
7396.000000	62.766432 
7395.000000	62.702989 
7394.000000	62.636566 
7393.000000	62.577223 
7392.000000	62.537288 
7391.000000	62.525987 
7390.000000	62.540650 
7389.000000	62.568664 
7388.000000	62.588453 
7387.000000	62.579703 
7386.000000	62.529015 
7385.000000	62.434983 
7384.000000	62.307906 
7383.000000	62.164139 
7382.000000	62.021994 
7381.000000	61.889791 
7380.000000	61.769723 
7379.000000	61.660099 
7378.000000	61.561894 
7377.000000	61.480450 
7376.000000	61.430048 
7375.000000	61.431360 
7374.000000	61.508774 
7373.000000	61.677241 
7372.000000	61.944317 
7371.000000	62.301588 
7370.000000	62.731075 
7369.000000	63.205456 
7368.000000	63.696002 
7367.000000	64.176464 
7366.000000	64.626216 
7365.000000	65.033125 
7364.000000	65.386009 
7363.000000	65.672779 
7362.000000	65.879511 
7361.000000	65.992379 
7360.000000	66.001009 
7359.000000	65.902066 
7358.000000	65.709495 
7357.000000	65.451407 
7356.000000	65.164589 
7355.000000	64.883399 
7354.000000	64.636206 
7353.000000	64.432692 
7352.000000	64.264774 
7351.000000	64.103388 
7350.000000	63.912296 
7349.000000	63.651657 
7348.000000	63.289928 
7347.000000	62.812423 
7346.000000	62.224173 
7345.000000	61.554789 
7344.000000	60.848212 
7343.000000	60.163664 
7342.000000	59.558725 
7341.000000	59.088921 
7340.000000	58.794927 
7339.000000	58.700871 
7338.000000	58.806872 
7337.000000	59.095764 
7336.000000	59.535002 
7335.000000	60.081505 
7334.000000	60.685443 
7333.000000	61.306285 
7332.000000	61.915683 
7331.000000	62.498497 
7330.000000	63.048267 
7329.000000	63.562870 
7328.000000	64.036560 
7327.000000	64.456391 
7326.000000	64.800977 
7325.000000	65.045285 
7324.000000	65.167260 
7323.000000	65.163874 
7322.000000	65.050554 
7321.000000	64.860916 
7320.000000	64.642858 
7319.000000	64.455866 
7318.000000	64.353299 
7317.000000	64.372062 
7316.000000	64.522767 
7315.000000	64.793705 
7314.000000	65.144848 
7313.000000	65.519475 
7312.000000	65.852427 
7311.000000	66.086268 
7310.000000	66.177821 
7309.000000	66.106557 
7308.000000	65.875816 
7307.000000	65.510225 
7306.000000	65.050005 
7305.000000	64.543223 
7304.000000	64.036035 
7303.000000	63.567018 
7302.000000	63.165879 
7301.000000	62.854480 
7300.000000	62.641668 
7299.000000	62.533736 
7298.000000	62.536811 
7297.000000	62.663602 
7296.000000	62.921404 
7295.000000	63.318657 
7294.000000	63.856101 
7293.000000	64.524722 
7292.000000	65.297102 
7291.000000	66.128993 
7290.000000	66.962981 
7289.000000	67.731738 
7288.000000	68.371009 
7287.000000	68.824028 
7286.000000	69.053173 
7285.000000	69.044780 
7284.000000	68.816018 
7283.000000	68.407225 
7282.000000	67.876839 
7281.000000	67.293667 
7280.000000	66.727375 
7279.000000	66.238355 
7278.000000	65.869641 
7277.000000	65.641140 
7276.000000	65.547442 
7275.000000	65.559244 
7274.000000	65.631031 
7273.000000	65.706944 
7272.000000	65.736794 
7271.000000	65.685153 
7270.000000	65.541434 
7269.000000	65.316820 
7268.000000	65.043258 
7267.000000	64.761638 
7266.000000	64.512562 
7265.000000	64.321398 
7264.000000	64.199161 
7263.000000	64.138603 
7262.000000	64.125895 
7261.000000	64.143991 
7260.000000	64.188098 
7259.000000	64.268207 
7258.000000	64.408326 
7257.000000	64.636683 
7256.000000	64.974308 
7255.000000	65.422439 
7254.000000	65.953731 
7253.000000	66.511821 
7252.000000	67.020869 
7251.000000	67.399334 
7250.000000	67.579865 
7249.000000	67.522120 
7248.000000	67.219924 
7247.000000	66.700315 
7246.000000	66.017508 
7245.000000	65.240621 
7244.000000	64.440035 
7243.000000	63.677906 
7242.000000	63.002133 
7241.000000	62.445449 
7240.000000	62.027096 
7239.000000	61.758399 
7238.000000	61.643671 
7237.000000	61.685872 
7236.000000	61.878442 
7235.000000	62.212324 
7234.000000	62.664294 
7233.000000	63.206362 
7232.000000	63.799381 
7231.000000	64.402985 
7230.000000	64.976406 
7229.000000	65.482616 
7228.000000	65.890550 
7227.000000	66.175460 
7226.000000	66.320323 
7225.000000	66.316771 
7224.000000	66.165733 
7223.000000	65.877270 
7222.000000	65.470004 
7221.000000	64.971542 
7220.000000	64.416575 
7219.000000	63.845348 
7218.000000	63.300776 
7217.000000	62.823605 
7216.000000	62.449955 
7215.000000	62.207007 
7214.000000	62.111759 
7213.000000	62.164163 
7212.000000	62.352418 
7211.000000	62.650442 
7210.000000	63.026142 
7209.000000	63.438725 
7208.000000	63.852405 
7207.000000	64.234828 
7206.000000	64.567065 
7205.000000	64.842534 
7204.000000	65.064454 
7203.000000	65.242266 
7202.000000	65.381288 
7201.000000	65.480279 
7200.000000	65.524935 
7199.000000	65.492749 
7198.000000	65.361571 
7197.000000	65.120530 
7196.000000	64.779281 
7195.000000	64.372086 
7194.000000	63.954329 
7193.000000	63.592267 
7192.000000	63.350152 
7191.000000	63.273549 
7190.000000	63.377475 
7189.000000	63.640570 
7188.000000	64.009356 
7187.000000	64.409565 
7186.000000	64.761590 
7185.000000	65.000557 
7184.000000	65.086507 
7183.000000	65.016508 
7182.000000	64.820694 
7181.000000	64.555072 
7180.000000	64.283156 
7179.000000	64.061999 
7178.000000	63.929843 
7177.000000	63.896822 
7176.000000	63.946819 
7175.000000	64.045047 
7174.000000	64.151883 
7173.000000	64.234948 
7172.000000	64.279389 
7171.000000	64.293527 
7170.000000	64.305186 
7169.000000	64.352583 
7168.000000	64.469909 
7167.000000	64.676213 
7166.000000	64.964103 
7165.000000	65.300726 
7164.000000	65.629601 
7163.000000	65.886664 
7162.000000	66.010236 
7161.000000	65.960645 
7160.000000	65.724158 
7159.000000	65.316462 
7158.000000	64.777874 
7157.000000	64.165282 
7156.000000	63.540267 
7155.000000	62.957739 
7154.000000	62.459135 
7153.000000	62.068629 
7152.000000	61.794948 
7151.000000	61.635971 
7150.000000	61.582946 
7149.000000	61.623954 
7148.000000	61.746692 
7147.000000	61.936688 
7146.000000	62.177491 
7145.000000	62.447071 
7144.000000	62.720990 
7143.000000	62.972044 
7142.000000	63.172054 
7141.000000	63.294410 
7140.000000	63.320779 
7139.000000	63.243293 
7138.000000	63.064074 
7137.000000	62.797737 
7136.000000	62.469100 
7135.000000	62.113189 
7134.000000	61.771321 
7133.000000	61.487221 
7132.000000	61.299729 
7131.000000	61.237573 
7130.000000	61.317300 
7129.000000	61.535739 
7128.000000	61.867713 
7127.000000	62.271094 
7126.000000	62.693214 
7125.000000	63.080692 
7124.000000	63.386344 
7123.000000	63.580775 
7122.000000	63.657069 
7121.000000	63.626217 
7120.000000	63.510847 
7119.000000	63.336944 
7118.000000	63.126397 
7117.000000	62.887549 
7116.000000	62.615299 
7115.000000	62.295031 
7114.000000	61.911916 
7113.000000	61.458444 
7112.000000	60.945820 
7111.000000	60.402750 
7110.000000	59.880781 
7109.000000	59.442877 
7108.000000	59.158992 
7107.000000	59.083604 
7106.000000	59.251904 
7105.000000	59.667587 
7104.000000	60.303544 
7103.000000	61.103081 
7102.000000	61.989116 
7101.000000	62.874770 
7100.000000	63.677096 
7099.000000	64.326429 
7098.000000	64.778113 
7097.000000	65.014529 
7096.000000	65.048170 
7095.000000	64.915537 
7094.000000	64.671301 
7093.000000	64.378499 
7092.000000	64.098644 
7091.000000	63.883566 
7090.000000	63.768529 
7089.000000	63.768506 
7088.000000	63.877463 
7087.000000	64.070320 
7086.000000	64.305591 
7085.000000	64.534163 
7084.000000	64.706945 
7083.000000	64.786434 
7082.000000	64.752149 
7081.000000	64.605307 
7080.000000	64.369988 
7079.000000	64.083886 
7078.000000	63.785910 
7077.000000	63.508725 
7076.000000	63.274192 
7075.000000	63.089609 
7074.000000	62.949752 
7073.000000	62.843561 
7072.000000	62.759661 
7071.000000	62.694454 
7070.000000	62.656760 
7069.000000	62.660431 
7068.000000	62.715506 
7067.000000	62.826085 
7066.000000	62.984609 
7065.000000	63.169741 
7064.000000	63.348460 
7063.000000	63.484072 
7062.000000	63.544273 
7061.000000	63.510417 
7060.000000	63.382053 
7059.000000	63.173222 
7058.000000	62.912464 
7057.000000	62.632417 
7056.000000	62.371039 
7055.000000	62.164211 
7054.000000	62.047839 
7053.000000	62.054252 
7052.000000	62.208843 
7051.000000	62.528395 
7050.000000	63.009834 
7049.000000	63.631677 
7048.000000	64.342689 
7047.000000	65.066957 
7046.000000	65.710926 
7045.000000	66.178870 
7044.000000	66.393208 
7043.000000	66.311025 
7042.000000	65.938830 
7041.000000	65.332913 
7040.000000	64.593815 
7039.000000	63.847494 
7038.000000	63.218283 
7037.000000	62.803888 
7036.000000	62.654852 
7035.000000	62.767028 
7034.000000	63.084292 
7033.000000	63.516283 
7032.000000	63.961005 
7031.000000	64.331674 
7030.000000	64.570355 
7029.000000	64.662885 
7028.000000	64.630508 
7027.000000	64.526009 
7026.000000	64.410662 
7025.000000	64.342069 
7024.000000	64.360189 
7023.000000	64.476513 
7022.000000	64.684915 
7021.000000	64.950037 
7020.000000	65.224456 
7019.000000	65.448689 
7018.000000	65.570044 
7017.000000	65.545511 
7016.000000	65.352129 
7015.000000	64.989924 
7014.000000	64.481306 
7013.000000	63.870215 
7012.000000	63.214778 
7011.000000	62.578153 
7010.000000	62.018465 
7009.000000	61.578941 
7008.000000	61.282682 
7007.000000	61.129760 
7006.000000	61.101412 
7005.000000	61.165118 
7004.000000	61.285448 
7003.000000	61.427164 
7002.000000	61.567044 
7001.000000	61.691117 
7000.000000	61.803221 
6999.000000	61.910080 
6998.000000	62.030291 
6997.000000	62.184953 
6996.000000	62.397193 
6995.000000	62.686395 
6994.000000	63.061571 
6993.000000	63.518381 
6992.000000	64.035105 
6991.000000	64.576745 
6990.000000	65.097832 
6989.000000	65.552020 
6988.000000	65.899467 
6987.000000	66.116404 
6986.000000	66.196393 
6985.000000	66.151571 
6984.000000	66.007256 
6983.000000	65.796923 
6982.000000	65.545988 
6981.000000	65.267443 
6980.000000	64.963221 
6979.000000	64.629006 
6978.000000	64.258956 
6977.000000	63.855028 
6976.000000	63.435101 
6975.000000	63.033437 
6974.000000	62.693762 
6973.000000	62.461900 
6972.000000	62.368106 
6971.000000	62.424612 
6970.000000	62.620902 
6969.000000	62.926101 
6968.000000	63.292074 
6967.000000	63.665151 
6966.000000	63.996887 
6965.000000	64.251375 
6964.000000	64.405012 
6963.000000	64.454889 
6962.000000	64.414191 
6961.000000	64.311099 
6960.000000	64.177966 
6959.000000	64.053964 
