PE IR       SPECTRUM    SPECTRUM    ASCII       PEDS        1.60        
  -1
C-1BE4~1.ASC
17/05/02
13:30:41.00
17/05/02
13:30:41.00
tln
$C-4040-8_t0031$<tbV0>[12.5,12.0,8.0,0.0,22,1,0]
370.000000
64









2002,4.07    
MIRTGS : RIGHTBACK : INTERNAL 2
MIR : ON : INTERNAL 2
OPTKBR

0.200000
8
8.000000
FILLER
RATIO
SPECTRUM
UNLOCKED 256

DOUBLE
64
COMBINED
1
0
0


1.000000
RATIO


1
0
TRUE
51149
0
LEFT NOT FITTED RIGHT NOT FITTED 0
NONE
NONE
15600
12.000000
4.427000
51148
TRUE
1 0 8 72 0 0 0 0 

15798.010000






#HDR
-1
-1
#GR
CM-1
%T
0.00002384185791015625
0.0
7800.000000
-1.000000
7431
8
107.606101
55.623459
#DATA
7800.000000	71.562647  
7799.000000	72.973799  
7798.000000	73.958444  
7797.000000	74.350214  
7796.000000	74.076938  
7795.000000	73.178911  
7794.000000	71.806645  
7793.000000	70.191025  
7792.000000	68.591260  
7791.000000	67.242646  
7790.000000	66.315054  
7789.000000	65.884876  
7788.000000	65.948295  
7787.000000	66.422700  
7786.000000	67.187070  
7785.000000	68.091058  
7784.000000	68.974161  
7783.000000	69.689798  
7782.000000	70.087409  
7781.000000	70.075511  
7780.000000	69.617152  
7779.000000	68.772983  
7778.000000	67.692828  
7777.000000	66.590189  
7776.000000	65.703964  
7775.000000	65.229988  
7774.000000	65.287065  
7773.000000	65.863680  
7772.000000	66.826796  
7771.000000	67.941117  
7770.000000	68.932580  
7769.000000	69.548034  
7768.000000	69.617938  
7767.000000	69.100570  
7766.000000	68.089628  
7765.000000	66.790413  
7764.000000	65.467333  
7763.000000	64.380598  
7762.000000	63.726878  
7761.000000	63.609504  
7760.000000	64.018106  
7759.000000	64.858984  
7758.000000	65.969419  
7757.000000	67.163801  
7756.000000	68.263006  
7755.000000	69.116425  
7754.000000	69.629168  
7753.000000	69.763374  
7752.000000	69.541621  
7751.000000	69.015073  
7750.000000	68.270826  
7749.000000	67.405390  
7748.000000	66.531372  
7747.000000	65.759420  
7746.000000	65.206599  
7745.000000	64.984464  
7744.000000	65.190100  
7743.000000	65.892314  
7742.000000	67.102193  
7741.000000	68.760919  
7740.000000	70.729279  
7739.000000	72.801113  
7738.000000	74.730706  
7737.000000	76.274299  
7736.000000	77.236557  
7735.000000	77.505922  
7734.000000	77.078652  
7733.000000	76.048660  
7732.000000	74.600338  
7731.000000	72.948002  
7730.000000	71.294617  
7729.000000	69.779729  
7728.000000	68.473434  
7727.000000	67.367267  
7726.000000	66.409707  
7725.000000	65.533518  
7724.000000	64.695048  
7723.000000	63.894796  
7722.000000	63.175964  
7721.000000	62.618136  
7720.000000	62.290978  
7719.000000	62.247443  
7718.000000	62.485980  
7717.000000	62.959551  
7716.000000	63.573694  
7715.000000	64.216947  
7714.000000	64.782547  
7713.000000	65.199947  
7712.000000	65.447330  
7711.000000	65.559816  
7710.000000	65.613317  
7709.000000	65.697646  
7708.000000	65.884542  
7707.000000	66.206836  
7706.000000	66.645193  
7705.000000	67.127275  
7704.000000	67.553663  
7703.000000	67.834711  
7702.000000	67.919158  
7701.000000	67.815303  
7700.000000	67.591214  
7699.000000	67.351841  
7698.000000	67.214536  
7697.000000	67.279934  
7696.000000	67.598295  
7695.000000	68.150854  
7694.000000	68.857645  
7693.000000	69.604086  
7692.000000	70.266079  
7691.000000	70.745205  
7690.000000	70.990371  
7689.000000	71.009278  
7688.000000	70.858716  
7687.000000	70.623350  
7686.000000	70.393681  
7685.000000	70.239615  
7684.000000	70.199251  
7683.000000	70.269608  
7682.000000	70.418429  
7681.000000	70.590615  
7680.000000	70.720791  
7679.000000	70.746707  
7678.000000	70.617389  
7677.000000	70.307922  
7676.000000	69.820094  
7675.000000	69.192028  
7674.000000	68.483686  
7673.000000	67.777967  
7672.000000	67.170929  
7671.000000	66.749668  
7670.000000	66.575765  
7669.000000	66.668915  
7668.000000	67.005515  
7667.000000	67.516541  
7666.000000	68.098831  
7665.000000	68.640923  
7664.000000	69.042444  
7663.000000	69.243335  
7662.000000	69.230079  
7661.000000	69.046187  
7660.000000	68.775868  
7659.000000	68.527984  
7658.000000	68.406319  
7657.000000	68.494725  
7656.000000	68.835783  
7655.000000	69.429540  
7654.000000	70.228505  
7653.000000	71.149277  
7652.000000	72.081089  
7651.000000	72.908401  
7650.000000	73.522806  
7649.000000	73.841595  
7648.000000	73.815107  
7647.000000	73.432588  
7646.000000	72.722434  
7645.000000	71.747660  
7644.000000	70.598053  
7643.000000	69.383263  
7642.000000	68.215250  
7641.000000	67.197203  
7640.000000	66.410207  
7639.000000	65.906262  
7638.000000	65.704798  
7637.000000	65.795207  
7636.000000	66.137671  
7635.000000	66.666102  
7634.000000	67.304635  
7633.000000	67.975401  
7632.000000	68.608665  
7631.000000	69.146871  
7630.000000	69.556808  
7629.000000	69.826197  
7628.000000	69.966149  
7627.000000	69.998574  
7626.000000	69.943523  
7625.000000	69.809746  
7624.000000	69.596791  
7623.000000	69.296216  
7622.000000	68.900942  
7621.000000	68.415045  
7620.000000	67.864346  
7619.000000	67.295765  
7618.000000	66.780114  
7617.000000	66.386866  
7616.000000	66.173672  
7615.000000	66.158103  
7614.000000	66.311168  
7613.000000	66.554999  
7612.000000	66.778469  
7611.000000	66.865134  
7610.000000	66.720056  
7609.000000	66.301870  
7608.000000	65.633988  
7607.000000	64.802885  
7606.000000	63.934564  
7605.000000	63.173890  
7604.000000	62.649869  
7603.000000	62.456512  
7602.000000	62.634682  
7601.000000	63.173413  
7600.000000	64.014434  
7599.000000	65.070509  
7598.000000	66.239500  
7597.000000	67.412495  
7596.000000	68.489861  
7595.000000	69.391560  
7594.000000	70.062398  
7593.000000	70.470476  
7592.000000	70.606946  
7591.000000	70.489335  
7590.000000	70.148134  
7589.000000	69.637608  
7588.000000	69.009447  
7587.000000	68.315696  
7586.000000	67.595648  
7585.000000	66.884493  
7584.000000	66.208720  
7583.000000	65.587949  
7582.000000	65.051364  
7581.000000	64.636611  
7580.000000	64.399266  
7579.000000	64.400029  
7578.000000	64.694976  
7577.000000	65.313386  
7576.000000	66.236042  
7575.000000	67.382907  
7574.000000	68.615841  
7573.000000	69.755125  
7572.000000	70.612430  
7571.000000	71.025156  
7570.000000	70.892620  
7569.000000	70.195603  
7568.000000	69.000339  
7567.000000	67.448592  
7566.000000	65.722346  
7565.000000	64.021348  
7564.000000	62.533998  
7563.000000	61.409139  
7562.000000	60.742378  
7561.000000	60.564708  
7560.000000	60.847878  
7559.000000	61.514687  
7558.000000	62.448811  
7557.000000	63.527846  
7556.000000	64.632892  
7555.000000	65.674948  
7554.000000	66.590476  
7553.000000	67.354583  
7552.000000	67.965960  
7551.000000	68.442511  
7550.000000	68.804860  
7549.000000	69.065594  
7548.000000	69.221687  
7547.000000	69.257330  
7546.000000	69.149112  
7545.000000	68.880867  
7544.000000	68.451690  
7543.000000	67.887401  
7542.000000	67.238283  
7541.000000	66.571760  
7540.000000	65.962576  
7539.000000	65.477466  
7538.000000	65.165781  
7537.000000	65.052866  
7536.000000	65.132904  
7535.000000	65.383100  
7534.000000	65.750384  
7533.000000	66.157197  
7532.000000	66.514492  
7531.000000	66.733860  
7530.000000	66.748714  
7529.000000	66.524362  
7528.000000	66.070914  
7527.000000	65.440058  
7526.000000	64.715099  
7525.000000	63.993597  
7524.000000	63.360571  
7523.000000	62.870812  
7522.000000	62.544250  
7521.000000	62.368631  
7520.000000	62.305235  
7519.000000	62.308192  
7518.000000	62.339210  
7517.000000	62.384581  
7516.000000	62.451314  
7515.000000	62.571454  
7514.000000	62.785148  
7513.000000	63.132071  
7512.000000	63.631677  
7511.000000	64.276075  
7510.000000	65.025615  
7509.000000	65.812993  
7508.000000	66.563344  
7507.000000	67.198681  
7506.000000	67.655277  
7505.000000	67.892646  
7504.000000	67.902231  
7503.000000	67.706632  
7502.000000	67.356133  
7501.000000	66.916203  
7500.000000	66.457962  
7499.000000	66.040897  
7498.000000	65.706014  
7497.000000	65.470314  
7496.000000	65.330529  
7495.000000	65.267038  
7494.000000	65.252923  
7493.000000	65.262818  
7492.000000	65.278744  
7491.000000	65.285420  
7490.000000	65.274119  
7489.000000	65.236282  
7488.000000	65.169358  
7487.000000	65.074610  
7486.000000	64.962887  
7485.000000	64.851760  
7484.000000	64.765596  
7483.000000	64.736652  
7482.000000	64.789891  
7481.000000	64.936208  
7480.000000	65.163660  
7479.000000	65.438246  
7478.000000	65.708661  
7477.000000	65.912175  
7476.000000	65.999674  
7475.000000	65.949583  
7474.000000	65.775394  
7473.000000	65.524077  
7472.000000	65.261292  
7471.000000	65.053272  
7470.000000	64.948225  
7469.000000	64.964056  
7468.000000	65.083241  
7467.000000	65.259981  
7466.000000	65.440654  
7465.000000	65.579628  
7464.000000	65.654158  
7463.000000	65.666317  
7462.000000	65.641570  
7461.000000	65.612173  
7460.000000	65.598726  
7459.000000	65.599489  
7458.000000	65.587997  
7457.000000	65.519309  
7456.000000	65.346860  
7455.000000	65.036368  
7454.000000	64.586353  
7453.000000	64.025545  
7452.000000	63.409805  
7451.000000	62.809348  
7450.000000	62.286782  
7449.000000	61.892962  
7448.000000	61.652398  
7447.000000	61.571002  
7446.000000	61.636614  
7445.000000	61.831474  
7444.000000	62.137961  
7443.000000	62.537693  
7442.000000	63.009762  
7441.000000	63.525152  
7440.000000	64.046168  
7439.000000	64.524054  
7438.000000	64.909791  
7437.000000	65.168070  
7436.000000	65.288639  
7435.000000	65.297126  
7434.000000	65.246748  
7433.000000	65.209126  
7432.000000	65.249490  
7431.000000	65.411543  
7430.000000	65.699410  
7429.000000	66.077399  
7428.000000	66.477322  
7427.000000	66.821479  
7426.000000	67.040872  
7425.000000	67.096853  
7424.000000	66.990470  
7423.000000	66.763496  
7422.000000	66.483783  
7421.000000	66.226291  
7420.000000	66.050148  
7419.000000	65.984654  
7418.000000	66.018128  
7417.000000	66.104626  
7416.000000	66.176152  
7415.000000	66.165208  
7414.000000	66.022086  
7413.000000	65.731668  
7412.000000	65.314030  
7411.000000	64.822602  
7410.000000	64.332246  
7409.000000	63.923144  
7408.000000	63.660216  
7407.000000	63.580083  
7406.000000	63.687372  
7405.000000	63.952326  
7404.000000	64.321088  
7403.000000	64.725661  
7402.000000	65.097212  
7401.000000	65.381336  
7400.000000	65.544867  
7399.000000	65.581703  
7398.000000	65.506792  
7397.000000	65.351676  
7396.000000	65.154051  
7395.000000	64.947080  
7394.000000	64.755105  
7393.000000	64.584970  
7392.000000	64.430665  
7391.000000	64.274883  
7390.000000	64.098858  
7389.000000	63.891100  
7388.000000	63.654708  
7387.000000	63.405156  
7386.000000	63.167381  
7385.000000	62.969899  
7384.000000	62.837362  
7383.000000	62.780022  
7382.000000	62.794589  
7381.000000	62.860107  
7380.000000	62.952136  
7379.000000	63.049793  
7378.000000	63.148808  
7377.000000	63.262701  
7376.000000	63.421154  
7375.000000	63.660621  
7374.000000	64.008188  
7373.000000	64.470171  
7372.000000	65.020370  
7371.000000	65.604138  
7370.000000	66.142916  
7369.000000	66.551423  
7368.000000	66.758894  
7367.000000	66.727757  
7366.000000	66.467189  
7365.000000	66.032862  
7364.000000	65.519833  
7363.000000	65.040993  
7362.000000	64.705610  
7361.000000	64.594459  
7360.000000	64.743161  
7359.000000	65.133547  
7358.000000	65.700793  
7357.000000	66.346573  
7356.000000	66.955184  
7355.000000	67.418766  
7354.000000	67.657423  
7353.000000	67.635703  
7352.000000	67.364239  
7351.000000	66.896152  
7350.000000	66.314291  
7349.000000	65.708875  
7348.000000	65.159726  
7347.000000	64.717745  
7346.000000	64.401888  
7345.000000	64.198541  
7344.000000	64.077949  
7343.000000	64.001822  
7342.000000	63.939332  
7341.000000	63.872766  
7340.000000	63.800191  
7339.000000	63.730001  
7338.000000	63.668632  
7337.000000	63.622069  
7336.000000	63.589239  
7335.000000	63.565063  
7334.000000	63.541793  
7333.000000	63.520741  
7332.000000	63.514757  
7331.000000	63.550090  
7330.000000	63.660287  
7329.000000	63.874983  
7328.000000	64.209961  
7327.000000	64.657640  
7326.000000	65.185928  
7325.000000	65.744400  
7324.000000	66.272544  
7323.000000	66.715121  
7322.000000	67.029929  
7321.000000	67.197585  
7320.000000	67.220449  
7319.000000	67.123961  
7318.000000	66.943597  
7317.000000	66.715097  
7316.000000	66.467285  
7315.000000	66.225767  
7314.000000	66.000819  
7313.000000	65.792703  
7312.000000	65.593051  
7311.000000	65.395212  
7310.000000	65.192031  
7309.000000	64.981126  
7308.000000	64.763212  
7307.000000	64.542055  
7306.000000	64.326572  
7305.000000	64.129304  
7304.000000	63.963150  
7303.000000	63.839626  
7302.000000	63.767719  
7301.000000	63.753032  
7300.000000	63.792157  
7299.000000	63.877630  
7298.000000	63.997721  
7297.000000	64.143919  
7296.000000	64.307308  
7295.000000	64.487862  
7294.000000	64.689064  
7293.000000	64.923572  
7292.000000	65.202546  
7291.000000	65.539884  
7290.000000	65.945744  
7289.000000	66.423106  
7288.000000	66.965961  
7287.000000	67.553830  
7286.000000	68.155336  
7285.000000	68.726396  
7284.000000	69.221282  
7283.000000	69.590282  
7282.000000	69.790387  
7281.000000	69.791674  
7280.000000	69.586110  
7279.000000	69.186925  
7278.000000	68.628954  
7277.000000	67.964959  
7276.000000	67.258143  
7275.000000	66.573309  
7274.000000	65.968346  
7273.000000	65.486645  
7272.000000	65.154552  
7271.000000	64.981055  
7270.000000	64.961957  
7269.000000	65.078520  
7268.000000	65.306878  
7267.000000	65.620923  
7266.000000	65.995049  
7265.000000	66.396498  
7264.000000	66.793632  
7263.000000	67.152070  
7262.000000	67.443060  
7261.000000	67.639756  
7260.000000	67.731809  
7259.000000	67.727637  
7258.000000	67.654156  
7257.000000	67.552709  
7256.000000	67.467331  
7255.000000	67.435574  
7254.000000	67.474937  
7253.000000	67.579412  
7252.000000	67.717719  
7251.000000	67.842340  
7250.000000	67.903804  
7249.000000	67.863821  
7248.000000	67.706346  
7247.000000	67.439341  
7246.000000	67.095994  
7245.000000	66.719746  
7244.000000	66.347980  
7243.000000	66.001725  
7242.000000	65.681958  
7241.000000	65.372133  
7240.000000	65.048456  
7239.000000	64.690470  
7238.000000	64.294314  
7237.000000	63.874244  
7236.000000	63.461303  
7235.000000	63.095045  
7234.000000	62.804317  
7233.000000	62.609863  
7232.000000	62.514328  
7231.000000	62.509608  
7230.000000	62.575554  
7229.000000	62.696290  
7228.000000	62.863516  
7227.000000	63.079094  
7226.000000	63.350820  
7225.000000	63.684511  
7224.000000	64.076662  
7223.000000	64.508891  
7222.000000	64.948797  
7221.000000	65.356898  
7220.000000	65.694236  
7219.000000	65.938425  
7218.000000	66.083073  
7217.000000	66.138458  
7216.000000	66.123056  
7215.000000	66.060996  
7214.000000	65.969419  
7213.000000	65.857124  
7212.000000	65.719151  
7211.000000	65.548276  
7210.000000	65.331411  
7209.000000	65.060019  
7208.000000	64.732265  
7207.000000	64.359283  
7206.000000	63.963246  
7205.000000	63.573169  
7204.000000	63.222122  
7203.000000	62.939810  
7202.000000	62.747716  
7201.000000	62.654137  
7200.000000	62.653350  
7199.000000	62.727379  
7198.000000	62.850379  
7197.000000	62.996625  
7196.000000	63.144183  
7195.000000	63.282728  
7194.000000	63.421297  
7193.000000	63.583946  
7192.000000	63.802742  
7191.000000	64.102292  
7190.000000	64.489483  
7189.000000	64.942431  
7188.000000	65.409803  
7187.000000	65.820765  
7186.000000	66.102600  
7185.000000	66.199731  
7184.000000	66.093063  
7183.000000	65.803551  
7182.000000	65.389752  
7181.000000	64.933633  
7180.000000	64.523196  
7179.000000	64.229130  
7178.000000	64.089035  
7177.000000	64.102697  
7176.000000	64.238810  
7175.000000	64.443659  
7174.000000	64.659142  
7173.000000	64.836263  
7172.000000	64.947080  
7171.000000	64.982390  
7170.000000	64.949488  
7169.000000	64.861011  
7168.000000	64.729714  
7167.000000	64.566969  
7166.000000	64.382410  
7165.000000	64.186835  
7164.000000	63.993501  
7163.000000	63.822817  
7162.000000	63.697600  
7161.000000	63.637280  
7160.000000	63.654828  
7159.000000	63.750672  
7158.000000	63.915419  
7157.000000	64.125752  
7156.000000	64.356970  
7155.000000	64.586138  
7154.000000	64.800858  
7153.000000	64.998722  
7152.000000	65.188431  
7151.000000	65.384721  
7150.000000	65.599989  
7149.000000	65.838813  
7148.000000	66.090559  
7147.000000	66.329789  
7146.000000	66.521406  
7145.000000	66.630291  
7144.000000	66.626954  
7143.000000	66.495752  
7142.000000	66.239261  
7141.000000	65.878677  
7140.000000	65.448975  
7139.000000	64.992570  
7138.000000	64.551377  
7137.000000	64.160537  
7136.000000	63.844156  
7135.000000	63.613820  
7134.000000	63.470935  
7133.000000	63.408517  
7132.000000	63.414335  
7131.000000	63.474035  
7130.000000	63.570499  
7129.000000	63.687372  
7128.000000	63.806343  
7127.000000	63.911461  
7126.000000	63.985896  
7125.000000	64.018583  
7124.000000	64.003396  
7123.000000	63.943529  
7122.000000	63.849735  
7121.000000	63.741612  
7120.000000	63.643455  
7119.000000	63.580965  
7118.000000	63.575720  
7117.000000	63.639998  
7116.000000	63.773584  
7115.000000	63.963413  
7114.000000	64.185905  
7113.000000	64.411973  
7112.000000	64.612436  
7111.000000	64.763641  
7110.000000	64.851427  
7109.000000	64.871263  
7108.000000	64.828920  
7107.000000	64.738178  
7106.000000	64.617609  
7105.000000	64.487266  
7104.000000	64.364910  
7103.000000	64.265584  
7102.000000	64.198350  
7101.000000	64.167094  
7100.000000	64.171171  
7099.000000	64.205861  
7098.000000	64.267301  
7097.000000	64.353299  
7096.000000	64.465451  
7095.000000	64.605855  
7094.000000	64.779043  
7093.000000	64.988470  
7092.000000	65.232133  
7091.000000	65.499663  
7090.000000	65.772867  
7089.000000	66.027760  
7088.000000	66.238355  
7087.000000	66.381287  
7086.000000	66.442728  
7085.000000	66.419243  
7084.000000	66.321086  
7083.000000	66.165518  
7082.000000	65.973281  
7081.000000	65.760612  
7080.000000	65.538358  
7079.000000	65.308976  
7078.000000	65.068888  
7077.000000	64.813399  
7076.000000	64.544653  
7075.000000	64.272117  
7074.000000	64.014196  
7073.000000	63.792371  
7072.000000	63.627696  
7071.000000	63.530230  
7070.000000	63.494586  
7069.000000	63.498401  
7068.000000	63.505196  
7067.000000	63.475298  
7066.000000	63.375544  
7065.000000	63.189768  
7064.000000	62.923812  
7063.000000	62.601208  
7062.000000	62.257599  
7061.000000	61.932754  
7060.000000	61.662817  
7059.000000	61.471319  
7058.000000	61.369395  
7057.000000	61.355853  
7056.000000	61.424326  
7055.000000	61.567497  
7054.000000	61.782336  
7053.000000	62.066197  
7052.000000	62.418484  
7051.000000	62.833809  
7050.000000	63.300156  
7049.000000	63.795948  
7048.000000	64.289045  
7047.000000	64.740705  
7046.000000	65.109181  
7045.000000	65.359950  
7044.000000	65.469408  
7043.000000	65.431118  
7042.000000	65.259552  
7041.000000	64.987039  
7040.000000	64.668035  
7039.000000	64.370703  
7038.000000	64.171314  
7037.000000	64.139986  
7036.000000	64.333891  
7035.000000	64.782810  
7034.000000	65.480470  
7033.000000	66.378712  
7032.000000	67.388367  
7031.000000	68.391680  
7030.000000	69.261717  
7029.000000	69.887423  
7028.000000	70.192289  
7027.000000	70.152807  
7026.000000	69.807767  
7025.000000	69.244647  
7024.000000	68.582940  
7023.000000	67.941355  
7022.000000	67.420840  
7021.000000	67.074537  
7020.000000	66.912221  
7019.000000	66.890764  
7018.000000	66.940546  
7017.000000	66.975951  
7016.000000	66.926598  
7015.000000	66.743564  
7014.000000	66.408348  
7013.000000	65.934228  
7012.000000	65.357875  
7011.000000	64.727973  
7010.000000	64.091467  
7009.000000	63.492441  
7008.000000	62.967848  
7007.000000	62.548327  
7006.000000	62.260103  
7005.000000	62.125706  
7004.000000	62.164759  
7003.000000	62.385320  
7002.000000	62.784886  
7001.000000	63.344693  
7000.000000	64.031600  
6999.000000	64.794635  
6998.000000	65.572738  
6997.000000	66.302013  
6996.000000	66.922187  
6995.000000	67.387914  
6994.000000	67.668366  
