PE IR       SPECTRUM    SPECTRUM    ASCII       PEDS        1.60        
  -1
C-9AE0~1.ASC
17/05/02
13:20:42.00
17/05/02
13:20:42.00
tln
$C-4040-8_t0029$<tbV0>[-7.5,7.0,8.0,0.0,22,1,0]
370.000000
64









2002,4.07    
MIRTGS : RIGHTBACK : INTERNAL 2
MIR : ON : INTERNAL 2
OPTKBR

0.200000
8
8.000000
FILLER
RATIO
SPECTRUM
UNLOCKED 256

DOUBLE
64
COMBINED
1
0
0


1.000000
RATIO


1
0
TRUE
51149
0
LEFT NOT FITTED RIGHT NOT FITTED 0
NONE
NONE
15600
12.000000
4.427000
51148
TRUE
1 0 8 72 0 0 0 0 

15798.010000






#HDR
-1
-1
#GR
CM-1
%T
0.00002384185791015625
0.0
7800.000000
-1.000000
7431
8
88.974952
51.864624
#DATA
7800.000000	74.499011 
7799.000000	76.668119 
7798.000000	78.305315 
7797.000000	79.146075 
7796.000000	79.030036 
7795.000000	77.938485 
7794.000000	76.010632 
7793.000000	73.520827 
7792.000000	70.818090 
7791.000000	68.258690 
7790.000000	66.132378 
7789.000000	64.617443 
7788.000000	63.777709 
7787.000000	63.570713 
7786.000000	63.879275 
7785.000000	64.554429 
7784.000000	65.450024 
7783.000000	66.458010 
7782.000000	67.481160 
7781.000000	68.471407 
7780.000000	69.395256 
7779.000000	70.247960 
7778.000000	71.033191 
7777.000000	71.751976 
7776.000000	72.390723 
7775.000000	72.919321 
7774.000000	73.305249 
7773.000000	73.512792 
7772.000000	73.527002 
7771.000000	73.346662 
7770.000000	72.999882 
7769.000000	72.521567 
7768.000000	71.952700 
7767.000000	71.327185 
7766.000000	70.670652 
7765.000000	70.007038 
7764.000000	69.361376 
7763.000000	68.768668 
7762.000000	68.270039 
7761.000000	67.894792 
7760.000000	67.656540 
7759.000000	67.549657 
7758.000000	67.551064 
7757.000000	67.617535 
7756.000000	67.703056 
7755.000000	67.761349 
7754.000000	67.765426 
7753.000000	67.718553 
7752.000000	67.646479 
7751.000000	67.575550 
7750.000000	67.534327 
7749.000000	67.539072 
7748.000000	67.596840 
7747.000000	67.689609 
7746.000000	67.809271 
7745.000000	67.966580 
7744.000000	68.192005 
7743.000000	68.530511 
7742.000000	69.021821 
7741.000000	69.683694 
7740.000000	70.496869 
7739.000000	71.401286 
7738.000000	72.320461 
7737.000000	73.175048 
7736.000000	73.919820 
7735.000000	74.540567 
7734.000000	75.046467 
7733.000000	75.442171 
7732.000000	75.723338 
7731.000000	75.847315 
7730.000000	75.734448 
7729.000000	75.278997 
7728.000000	74.395132 
7727.000000	73.037052 
7726.000000	71.239757 
7725.000000	69.111990 
7724.000000	66.840100 
7723.000000	64.635396 
7722.000000	62.694716 
7721.000000	61.155176 
7720.000000	60.063028 
7719.000000	59.381818 
7718.000000	59.008693 
7717.000000	58.817243 
7716.000000	58.692789 
7715.000000	58.564186 
7714.000000	58.412337 
7713.000000	58.266377 
7712.000000	58.179283 
7711.000000	58.220863 
7710.000000	58.451604 
7709.000000	58.912324 
7708.000000	59.611272 
7707.000000	60.530900 
7706.000000	61.624550 
7705.000000	62.822937 
7704.000000	64.038991 
7703.000000	65.182113 
7702.000000	66.165900 
7701.000000	66.914391 
7700.000000	67.377901 
7699.000000	67.540073 
7698.000000	67.424654 
7697.000000	67.099452 
7696.000000	66.658473 
7695.000000	66.209888 
7694.000000	65.850329 
7693.000000	65.659141 
7692.000000	65.670561 
7691.000000	65.872001 
7690.000000	66.213655 
7689.000000	66.629457 
7688.000000	67.049860 
7687.000000	67.419528 
7686.000000	67.710876 
7685.000000	67.925357 
7684.000000	68.086862 
7683.000000	68.226265 
7682.000000	68.367671 
7681.000000	68.512773 
7680.000000	68.638634 
7679.000000	68.696999 
7678.000000	68.632340 
7677.000000	68.391776 
7676.000000	67.945599 
7675.000000	67.294502 
7674.000000	66.472911 
7673.000000	65.545487 
7672.000000	64.598727 
7671.000000	63.722562 
7670.000000	62.990093 
7669.000000	62.447786 
7668.000000	62.112450 
7667.000000	61.966323 
7666.000000	61.965584 
7665.000000	62.048840 
7664.000000	62.147712 
7663.000000	62.205147 
7662.000000	62.181043 
7661.000000	62.065577 
7660.000000	61.873602 
7659.000000	61.646056 
7658.000000	61.435699 
7657.000000	61.295318 
7656.000000	61.263871 
7655.000000	61.359286 
7654.000000	61.576032 
7653.000000	61.891269 
7652.000000	62.271046 
7651.000000	62.682151 
7650.000000	63.095235 
7649.000000	63.487458 
7648.000000	63.840699 
7647.000000	64.138054 
7646.000000	64.364242 
7645.000000	64.500761 
7644.000000	64.535212 
7643.000000	64.467096 
7642.000000	64.311385 
7641.000000	64.097261 
7640.000000	63.869166 
7639.000000	63.684320 
7638.000000	63.596534 
7637.000000	63.643574 
7636.000000	63.840889 
7635.000000	64.176917 
7634.000000	64.619350 
7633.000000	65.122818 
7632.000000	65.641045 
7631.000000	66.135597 
7630.000000	66.588139 
7629.000000	66.999173 
7628.000000	67.382240 
7627.000000	67.751789 
7626.000000	68.110203 
7625.000000	68.441700 
7624.000000	68.713879 
7623.000000	68.886470 
7622.000000	68.927431 
7621.000000	68.824911 
7620.000000	68.599367 
7619.000000	68.300747 
7618.000000	68.002319 
7617.000000	67.782568 
7616.000000	67.701888 
7615.000000	67.794322 
7614.000000	68.065643 
7613.000000	68.484973 
7612.000000	68.998813 
7611.000000	69.531798 
7610.000000	70.005702 
7609.000000	70.346498 
7608.000000	70.499849 
7607.000000	70.434117 
7606.000000	70.142936 
7605.000000	69.653248 
7604.000000	69.021320 
7603.000000	68.321800 
7602.000000	67.636322 
7601.000000	67.044448 
7600.000000	66.611385 
7599.000000	66.384315 
7598.000000	66.383099 
7597.000000	66.596436 
7596.000000	66.981983 
7595.000000	67.480111 
7594.000000	68.015122 
7593.000000	68.503642 
7592.000000	68.864154 
7591.000000	69.030165 
7590.000000	68.956947 
7589.000000	68.619871 
7588.000000	68.030166 
7587.000000	67.230200 
7586.000000	66.300940 
7585.000000	65.342974 
7584.000000	64.480566 
7583.000000	63.838005 
7582.000000	63.532090 
7581.000000	63.647150 
7580.000000	64.230489 
7579.000000	65.279102 
7578.000000	66.736698 
7577.000000	68.495535 
7576.000000	70.402145 
7575.000000	72.273707 
7574.000000	73.922538 
7573.000000	75.180315 
7572.000000	75.921416 
7571.000000	76.077842 
7570.000000	75.659418 
7569.000000	74.737906 
7568.000000	73.440718 
7567.000000	71.913862 
7566.000000	70.310544 
7565.000000	68.752884 
7564.000000	67.338323 
7563.000000	66.114997 
7562.000000	65.100717 
7561.000000	64.280772 
7560.000000	63.623166 
7559.000000	63.096570 
7558.000000	62.670826 
7557.000000	62.339782 
7556.000000	62.107014 
7555.000000	61.997175 
7554.000000	62.032628 
7553.000000	62.234973 
7552.000000	62.605595 
7551.000000	63.130283 
7550.000000	63.773441 
7549.000000	64.494466 
7548.000000	65.250134 
7547.000000	66.003155 
7546.000000	66.717314 
7545.000000	67.362475 
7544.000000	67.900562 
7543.000000	68.280601 
7542.000000	68.437719 
7541.000000	68.305468 
7540.000000	67.833423 
7539.000000	67.005825 
7538.000000	65.863108 
7537.000000	64.504313 
7536.000000	63.084959 
7535.000000	61.801123 
7534.000000	60.845875 
7533.000000	60.365772 
7532.000000	60.431098 
7531.000000	61.021876 
7530.000000	62.027215 
7529.000000	63.265633 
7528.000000	64.530825 
7527.000000	65.633606 
7526.000000	66.439604 
7525.000000	66.887211 
7524.000000	66.991519 
7523.000000	66.824674 
7522.000000	66.487908 
7521.000000	66.078543 
7520.000000	65.667581 
7519.000000	65.286469 
7518.000000	64.938592 
7517.000000	64.608287 
7516.000000	64.282727 
7515.000000	63.962745 
7514.000000	63.673782 
7513.000000	63.460993 
7512.000000	63.364267 
7511.000000	63.417720 
7510.000000	63.633537 
7509.000000	64.002370 
7508.000000	64.487028 
7507.000000	65.036201 
7506.000000	65.590333 
7505.000000	66.099429 
7504.000000	66.529321 
7503.000000	66.871142 
7502.000000	67.136907 
7501.000000	67.355656 
7500.000000	67.563414 
7499.000000	67.785811 
7498.000000	68.029570 
7497.000000	68.278527 
7496.000000	68.498158 
7495.000000	68.650460 
7494.000000	68.704462 
7493.000000	68.647623 
7492.000000	68.484735 
7491.000000	68.232083 
7490.000000	67.905521 
7489.000000	67.516446 
7488.000000	67.062377 
7487.000000	66.527676 
7486.000000	65.890336 
7485.000000	65.137887 
7484.000000	64.275670 
7483.000000	63.336372 
7482.000000	62.376713 
7481.000000	61.468315 
7480.000000	60.684680 
7479.000000	60.079121 
7478.000000	59.681487 
7477.000000	59.482479 
7476.000000	59.452986 
7475.000000	59.548211 
7474.000000	59.728002 
7473.000000	59.961175 
7472.000000	60.235762 
7471.000000	60.552835 
7470.000000	60.920166 
7469.000000	61.339402 
7468.000000	61.805152 
7467.000000	62.299704 
7466.000000	62.799263 
7465.000000	63.275814 
7464.000000	63.706707 
7463.000000	64.074087 
7462.000000	64.370441 
7461.000000	64.592313 
7460.000000	64.736700 
7459.000000	64.799356 
7458.000000	64.776611 
7457.000000	64.668846 
7456.000000	64.485335 
7455.000000	64.247512 
7454.000000	63.995528 
7453.000000	63.776373 
7452.000000	63.635349 
7451.000000	63.606619 
7450.000000	63.704657 
7449.000000	63.923096 
7448.000000	64.234352 
7447.000000	64.601302 
7446.000000	64.986944 
7445.000000	65.359497 
7444.000000	65.696954 
7443.000000	65.986609 
7442.000000	66.222357 
7441.000000	66.402006 
7440.000000	66.523909 
7439.000000	66.584515 
7438.000000	66.578745 
7437.000000	66.507267 
7436.000000	66.376256 
7435.000000	66.200160 
7434.000000	65.997529 
7433.000000	65.792036 
7432.000000	65.603613 
7431.000000	65.443754 
7430.000000	65.312981 
7429.000000	65.204048 
7428.000000	65.103387 
7427.000000	64.996862 
7426.000000	64.873957 
7425.000000	64.729833 
7424.000000	64.569187 
7423.000000	64.402914 
7422.000000	64.248895 
7421.000000	64.124274 
7420.000000	64.046859 
7419.000000	64.029216 
7418.000000	64.078402 
7417.000000	64.193558 
7416.000000	64.364075 
7415.000000	64.569878 
7414.000000	64.781928 
7413.000000	64.966249 
7412.000000	65.088176 
7411.000000	65.119051 
7410.000000	65.042495 
7409.000000	64.858484 
7408.000000	64.584898 
7407.000000	64.253401 
7406.000000	63.904595 
7405.000000	63.578510 
7404.000000	63.306903 
7403.000000	63.109302 
7402.000000	62.986993 
7401.000000	62.932753 
7400.000000	62.934708 
7399.000000	62.985849 
7398.000000	63.085985 
7397.000000	63.242316 
7396.000000	63.464546 
7395.000000	63.755822 
7394.000000	64.104056 
7393.000000	64.479970 
7392.000000	64.836263 
7391.000000	65.124106 
7390.000000	65.303635 
7389.000000	65.361237 
7388.000000	65.314364 
7387.000000	65.209698 
7386.000000	65.109682 
7385.000000	65.074706 
7384.000000	65.143251 
7383.000000	65.316510 
7382.000000	65.557861 
7381.000000	65.799975 
7380.000000	65.969014 
7379.000000	66.009950 
7378.000000	65.906882 
7377.000000	65.691065 
7376.000000	65.433883 
7375.000000	65.229082 
7374.000000	65.162420 
7373.000000	65.284752 
7372.000000	65.595340 
7371.000000	66.041827 
7370.000000	66.530084 
7369.000000	66.953444 
7368.000000	67.215847 
7367.000000	67.258715 
7366.000000	67.073607 
7365.000000	66.702222 
7364.000000	66.224932 
7363.000000	65.737724 
7362.000000	65.329837 
7361.000000	65.062069 
7360.000000	64.960646 
7359.000000	65.014815 
7358.000000	65.186238 
7357.000000	65.420126 
7356.000000	65.661740 
7355.000000	65.864753 
7354.000000	65.996146 
7353.000000	66.036200 
7352.000000	65.974521 
7351.000000	65.806579 
7350.000000	65.529441 
7349.000000	65.143251 
7348.000000	64.653182 
7347.000000	64.074850 
7346.000000	63.436794 
7345.000000	62.783837 
7344.000000	62.171769 
7343.000000	61.663699 
7342.000000	61.318016 
7341.000000	61.179018 
7340.000000	61.265110 
7339.000000	61.564087 
7338.000000	62.032055 
7337.000000	62.599277 
7336.000000	63.181376 
7335.000000	63.692665 
7334.000000	64.060187 
7333.000000	64.237070 
7332.000000	64.208793 
7331.000000	63.994717 
7330.000000	63.640666 
7329.000000	63.207578 
7328.000000	62.757205 
7327.000000	62.341594 
7326.000000	61.993908 
7325.000000	61.729121 
7324.000000	61.545109 
7323.000000	61.430978 
7322.000000	61.374068 
7321.000000	61.363720 
7320.000000	61.398005 
7319.000000	61.480045 
7318.000000	61.617779 
7317.000000	61.810255 
7316.000000	62.052297 
7315.000000	62.328624 
7314.000000	62.618660 
7313.000000	62.896823 
7312.000000	63.141608 
7311.000000	63.340640 
7310.000000	63.489890 
7309.000000	63.593029 
7308.000000	63.656949 
7307.000000	63.687896 
7306.000000	63.685822 
7305.000000	63.643097 
7304.000000	63.544106 
7303.000000	63.370275 
7302.000000	63.108825 
7301.000000	62.759995 
7300.000000	62.338256 
7299.000000	61.877393 
7298.000000	61.423802 
7297.000000	61.035370 
7296.000000	60.767316 
7295.000000	60.667848 
7294.000000	60.765194 
7293.000000	61.065363 
7292.000000	61.550140 
7291.000000	62.177634 
7290.000000	62.886691 
7289.000000	63.606262 
7288.000000	64.262580 
7287.000000	64.794874 
7286.000000	65.162372 
7285.000000	65.351581 
7284.000000	65.375232 
7283.000000	65.267825 
7282.000000	65.076327 
7281.000000	64.849543 
7280.000000	64.628672 
7279.000000	64.437174 
7278.000000	64.278340 
7277.000000	64.137864 
7276.000000	63.990664 
7275.000000	63.808631 
7274.000000	63.571834 
7273.000000	63.272666 
7272.000000	62.923789 
7271.000000	62.554407 
7270.000000	62.209415 
7269.000000	61.935186 
7268.000000	61.773657 
7267.000000	61.752986 
7266.000000	61.879253 
7265.000000	62.135815 
7264.000000	62.482094 
7263.000000	62.858986 
7262.000000	63.202428 
7261.000000	63.453388 
7260.000000	63.574886 
7259.000000	63.555145 
7258.000000	63.416838 
7257.000000	63.208246 
7256.000000	62.996792 
7255.000000	62.851810 
7254.000000	62.828445 
7253.000000	62.953877 
7252.000000	63.219332 
7251.000000	63.581585 
7250.000000	63.973093 
7249.000000	64.316987 
7248.000000	64.545154 
7247.000000	64.611148 
7246.000000	64.499258 
7245.000000	64.223456 
7244.000000	63.818311 
7243.000000	63.331556 
7242.000000	62.808012 
7241.000000	62.290000 
7240.000000	61.810588 
7239.000000	61.401748 
7238.000000	61.093616 
7237.000000	60.920715 
7236.000000	60.917353 
7235.000000	61.114168 
7234.000000	61.524486 
7233.000000	62.141275 
7232.000000	62.928652 
7231.000000	63.825678 
7230.000000	64.749050 
7229.000000	65.611767 
7228.000000	66.336369 
7227.000000	66.868519 
7226.000000	67.184090 
7225.000000	67.286539 
7224.000000	67.200493 
7223.000000	66.964149 
7222.000000	66.618013 
7221.000000	66.197395 
7220.000000	65.727066 
7219.000000	65.230655 
7218.000000	64.727473 
7217.000000	64.239072 
7216.000000	63.786673 
7215.000000	63.392925 
7214.000000	63.076996 
7213.000000	62.850236 
7212.000000	62.714648 
7211.000000	62.657570 
7210.000000	62.658309 
7209.000000	62.687611 
7208.000000	62.718915 
7207.000000	62.729310 
7206.000000	62.709188 
7205.000000	62.661218 
7204.000000	62.598943 
7203.000000	62.538218 
7202.000000	62.496352 
7201.000000	62.485885 
7200.000000	62.512183 
7199.000000	62.572312 
7198.000000	62.662720 
7197.000000	62.782907 
7196.000000	62.937021 
7195.000000	63.134574 
7194.000000	63.390326 
7193.000000	63.717103 
7192.000000	64.120936 
7191.000000	64.592051 
7190.000000	65.100669 
7189.000000	65.597987 
7188.000000	66.027832 
7187.000000	66.333699 
7186.000000	66.474986 
7185.000000	66.431164 
7184.000000	66.214346 
7183.000000	65.856742 
7182.000000	65.406274 
7181.000000	64.912056 
7180.000000	64.417338 
7179.000000	63.951826 
7178.000000	63.532233 
7177.000000	63.165545 
7176.000000	62.856698 
7175.000000	62.610650 
7174.000000	62.435746 
7173.000000	62.341976 
7172.000000	62.337517 
7171.000000	62.426471 
7170.000000	62.605309 
7169.000000	62.859797 
7168.000000	63.166093 
7167.000000	63.496875 
7166.000000	63.824176 
7165.000000	64.122867 
7164.000000	64.371824 
7163.000000	64.557671 
7162.000000	64.671587 
7161.000000	64.707446 
7160.000000	64.661264 
7159.000000	64.535832 
7158.000000	64.337658 
7157.000000	64.079451 
7156.000000	63.779497 
7155.000000	63.462924 
7154.000000	63.159060 
7153.000000	62.897396 
7152.000000	62.706923 
7151.000000	62.611246 
7150.000000	62.626814 
7149.000000	62.761545 
7148.000000	63.005900 
7147.000000	63.331270 
7146.000000	63.693952 
7145.000000	64.041972 
7144.000000	64.320158 
7143.000000	64.480161 
7142.000000	64.492392 
7141.000000	64.350891 
7140.000000	64.073848 
7139.000000	63.697862 
7138.000000	63.271999 
7137.000000	62.843823 
7136.000000	62.453150 
7135.000000	62.120747 
7134.000000	61.849021 
7133.000000	61.622381 
7132.000000	61.417126 
7131.000000	61.209726 
7130.000000	60.982346 
7129.000000	60.733842 
7128.000000	60.476016 
7127.000000	60.238194 
7126.000000	60.051536 
7125.000000	59.951853 
7124.000000	59.964227 
7123.000000	60.105419 
7122.000000	60.375547 
7121.000000	60.763335 
7120.000000	61.245608 
7119.000000	61.793041 
7118.000000	62.372589 
7117.000000	62.951922 
7116.000000	63.501334 
7115.000000	63.994336 
7114.000000	64.408183 
7113.000000	64.726352 
7112.000000	64.937329 
7111.000000	65.039849 
7110.000000	65.038800 
7109.000000	64.947342 
7108.000000	64.780902 
7107.000000	64.563655 
7106.000000	64.317297 
7105.000000	64.062023 
7104.000000	63.810634 
7103.000000	63.574624 
7102.000000	63.358855 
7101.000000	63.163709 
7100.000000	62.988138 
7099.000000	62.832283 
7098.000000	62.699246 
7097.000000	62.594819 
7096.000000	62.525200 
7095.000000	62.493467 
7094.000000	62.497258 
7093.000000	62.527084 
7092.000000	62.565755 
7091.000000	62.591147 
7090.000000	62.583065 
7089.000000	62.529802 
7088.000000	62.432026 
7087.000000	62.305188 
7086.000000	62.179803 
7085.000000	62.094235 
7084.000000	62.083530 
7083.000000	62.170290 
7082.000000	62.358140 
7081.000000	62.630248 
7080.000000	62.949991 
7079.000000	63.272833 
7078.000000	63.557791 
7077.000000	63.777446 
7076.000000	63.924384 
7075.000000	64.009356 
7074.000000	64.058256 
7073.000000	64.097356 
7072.000000	64.146256 
7071.000000	64.205360 
7070.000000	64.255428 
7069.000000	64.263963 
7068.000000	64.197802 
7067.000000	64.036560 
7066.000000	63.783407 
7065.000000	63.470053 
7064.000000	63.152694 
7063.000000	62.894701 
7062.000000	62.750554 
7061.000000	62.750411 
7060.000000	62.892222 
7059.000000	63.144278 
7058.000000	63.452887 
7057.000000	63.759088 
7056.000000	64.009952 
7055.000000	64.172434 
7054.000000	64.233899 
7053.000000	64.199399 
7052.000000	64.083933 
7051.000000	63.902211 
7050.000000	63.665080 
7049.000000	63.377237 
7048.000000	63.041377 
7047.000000	62.664270 
7046.000000	62.261748 
7045.000000	61.863780 
7044.000000	61.509323 
7043.000000	61.239337 
7042.000000	61.089515 
7041.000000	61.077570 
7040.000000	61.207699 
7039.000000	61.467123 
7038.000000	61.832261 
7037.000000	62.271261 
7036.000000	62.749719 
7035.000000	63.232612 
7034.000000	63.684606 
7033.000000	64.070844 
7032.000000	64.356255 
7031.000000	64.509868 
7030.000000	64.511847 
7029.000000	64.358353 
7028.000000	64.062619 
7027.000000	63.659024 
7026.000000	63.200259 
7025.000000	62.752938 
7024.000000	62.390112 
7023.000000	62.177038 
7022.000000	62.159776 
7021.000000	62.354850 
7020.000000	62.748026 
7019.000000	63.292050 
7018.000000	63.917422 
7017.000000	64.540433 
7016.000000	65.079522 
7015.000000	65.465760 
7014.000000	65.653634 
7013.000000	65.625214 
7012.000000	65.389943 
7011.000000	64.982843 
7010.000000	64.457368 
7009.000000	63.880014 
7008.000000	63.321614 
7007.000000	62.851262 
7006.000000	62.527680 
7005.000000	62.397050 
7004.000000	62.483382 
7003.000000	62.784790 
7002.000000	63.268566 
7001.000000	63.874435 
7000.000000	64.520621 
6999.000000	65.113091 
6998.000000	65.563988 
6997.000000	65.805077 
6996.000000	65.802335 
6995.000000	65.563082 
6994.000000	65.130281 
6993.000000	64.571785 
6992.000000	63.965010 
6991.000000	63.385081 
6990.000000	62.886881 
6989.000000	62.500953 
6988.000000	62.231349 
6987.000000	62.064766 
6986.000000	61.976242 
6985.000000	61.941289 
6984.000000	61.938428 
6983.000000	61.952948 
6982.000000	61.977982 
6981.000000	62.011909 
6980.000000	62.052464 
6979.000000	62.095069 
6978.000000	62.132143 
6977.000000	62.155675 
6976.000000	62.160634 
6975.000000	62.147784 
6974.000000	62.123775 
6973.000000	62.101602 
6972.000000	62.096834 
6971.000000	62.126064 
6970.000000	62.200951 
6969.000000	62.328505 
6968.000000	62.506628 
6967.000000	62.728548 
6966.000000	62.984609 
6965.000000	63.264560 
6964.000000	63.558173 
6963.000000	63.856744 
6962.000000	64.153265 
6961.000000	64.439487 
6960.000000	64.706325 
6959.000000	64.938950 
