PE IR       SPECTRUM    SPECTRUM    ASCII       PEDS        1.60        
  -1
C-996E~1.ASC
17/05/02
11:18:12.00
17/05/02
11:18:12.00
tln
$C-4040-8_t0006$<tbV0>[-12.5,-13.0,8.0,0.0,22,1,0]
370.000000
64









2002,4.07    
MIRTGS : RIGHTBACK : INTERNAL 2
MIR : ON : INTERNAL 2
OPTKBR

0.200000
8
8.000000
FILLER
RATIO
SPECTRUM
UNLOCKED 256

DOUBLE
64
COMBINED
1
0
0


1.000000
RATIO


1
0
TRUE
51149
0
LEFT NOT FITTED RIGHT NOT FITTED 0
NONE
NONE
15600
12.000000
4.427000
51148
TRUE
1 0 8 72 0 0 0 0 

15798.010000






#HDR
-1
-1
#GR
CM-1
%T
0.00002384185791015625
0.0
7800.000000
-1.000000
7431
8
74.138903
24.307107
#DATA
7800.000000	70.313882 
7799.000000	68.104267 
7798.000000	66.053366 
7797.000000	64.161968 
7796.000000	62.471580 
7795.000000	61.070585 
7794.000000	60.062408 
7793.000000	59.526109 
7792.000000	59.513330 
7791.000000	60.018396 
7790.000000	60.974383 
7789.000000	62.248182 
7788.000000	63.659095 
7787.000000	64.995598 
7786.000000	66.041302 
7785.000000	66.608333 
7784.000000	66.557478 
7783.000000	65.833663 
7782.000000	64.474916 
7781.000000	62.619137 
7780.000000	60.471892 
7779.000000	58.294105 
7778.000000	56.343460 
7777.000000	54.863357 
7776.000000	54.054188 
7775.000000	54.038238 
7774.000000	54.844117 
7773.000000	56.395936 
7772.000000	58.518600 
7771.000000	60.972452 
7770.000000	63.484549 
7769.000000	65.801715 
7768.000000	67.718458 
7767.000000	69.124174 
7766.000000	70.006179 
7765.000000	70.418167 
7764.000000	70.450258 
7763.000000	70.208644 
7762.000000	69.789838 
7761.000000	69.273996 
7760.000000	68.718266 
7759.000000	68.189382 
7758.000000	67.746877 
7757.000000	67.455744 
7756.000000	67.358899 
7755.000000	67.474579 
7754.000000	67.773175 
7753.000000	68.190145 
7752.000000	68.614578 
7751.000000	68.918013 
7750.000000	68.963766 
7749.000000	68.632054 
7748.000000	67.853236 
7747.000000	66.625070 
7746.000000	65.026879 
7745.000000	63.199210 
7744.000000	61.343717 
7743.000000	59.682130 
7742.000000	58.430838 
7741.000000	57.760190 
7740.000000	57.763671 
7739.000000	58.438467 
7738.000000	59.698629 
7737.000000	61.393618 
7736.000000	63.321971 
7735.000000	65.270447 
7734.000000	67.058134 
7733.000000	68.557929 
7732.000000	69.700503 
7731.000000	70.468640 
7730.000000	70.881724 
7729.000000	70.975565 
7728.000000	70.786905 
7727.000000	70.348930 
7726.000000	69.701147 
7725.000000	68.894481 
7724.000000	68.013143 
7723.000000	67.163610 
7722.000000	66.474270 
7721.000000	66.066980 
7720.000000	66.038775 
7719.000000	66.430878 
7718.000000	67.214822 
7717.000000	68.292498 
7716.000000	69.514012 
7715.000000	70.700764 
7714.000000	71.678042 
7713.000000	72.312903 
7712.000000	72.537398 
7711.000000	72.345948 
7710.000000	71.786236 
7709.000000	70.947551 
7708.000000	69.932436 
7707.000000	68.835949 
7706.000000	67.724418 
7705.000000	66.638612 
7704.000000	65.589332 
7703.000000	64.578104 
7702.000000	63.603234 
7701.000000	62.668085 
7700.000000	61.793112 
7699.000000	61.006736 
7698.000000	60.354828 
7697.000000	59.871792 
7696.000000	59.595870 
7695.000000	59.543848 
7694.000000	59.724044 
7693.000000	60.119771 
7692.000000	60.702991 
7691.000000	61.427068 
7690.000000	62.241029 
7689.000000	63.085556 
7688.000000	63.914322 
7687.000000	64.694333 
7686.000000	65.411639 
7685.000000	66.066098 
7684.000000	66.667151 
7683.000000	67.226147 
7682.000000	67.747426 
7681.000000	68.227696 
7680.000000	68.663382 
7679.000000	69.053649 
7678.000000	69.411492 
7677.000000	69.759178 
7676.000000	70.123910 
7675.000000	70.529079 
7674.000000	70.994281 
7673.000000	71.521162 
7672.000000	72.094011 
7671.000000	72.674441 
7670.000000	73.220491 
7669.000000	73.677730 
7668.000000	73.998618 
7667.000000	74.138903 
7666.000000	74.074006 
7665.000000	73.794603 
7664.000000	73.312759 
7663.000000	72.660088 
7662.000000	71.886515 
7661.000000	71.058440 
7660.000000	70.252990 
7659.000000	69.547200 
7658.000000	69.007563 
7657.000000	68.676424 
7656.000000	68.565964 
7655.000000	68.649888 
7654.000000	68.871617 
7653.000000	69.160079 
7652.000000	69.446325 
7651.000000	69.670295 
7650.000000	69.795298 
7649.000000	69.815874 
7648.000000	69.750881 
7647.000000	69.625854 
7646.000000	69.465613 
7645.000000	69.288635 
7644.000000	69.097709 
7643.000000	68.885850 
7642.000000	68.635725 
7641.000000	68.331503 
7640.000000	67.964887 
7639.000000	67.543578 
7638.000000	67.092585 
7637.000000	66.647934 
7636.000000	66.257047 
7635.000000	65.963697 
7634.000000	65.812563 
7633.000000	65.837812 
7632.000000	66.061949 
7631.000000	66.487503 
7630.000000	67.093372 
7629.000000	67.829513 
7628.000000	68.619203 
7627.000000	69.362044 
7626.000000	69.942951 
7625.000000	70.248270 
7624.000000	70.185661 
7623.000000	69.705414 
7622.000000	68.810653 
7621.000000	67.570090 
7620.000000	66.106605 
7619.000000	64.589262 
7618.000000	63.205409 
7617.000000	62.132835 
7616.000000	61.508417 
7615.000000	61.406159 
7614.000000	61.828422 
7613.000000	62.701225 
7612.000000	63.892054 
7611.000000	65.227532 
7610.000000	66.520118 
7609.000000	67.602181 
7608.000000	68.348169 
7607.000000	68.691468 
7606.000000	68.622446 
7605.000000	68.192672 
7604.000000	67.496752 
7603.000000	66.647171 
7602.000000	65.750861 
7601.000000	64.896845 
7600.000000	64.145278 
7599.000000	63.531041 
7598.000000	63.064932 
7597.000000	62.747550 
7596.000000	62.570309 
7595.000000	62.519669 
7594.000000	62.576651 
7593.000000	62.707471 
7592.000000	62.872385 
7591.000000	63.023066 
7590.000000	63.116168 
7589.000000	63.111710 
7588.000000	62.992811 
7587.000000	62.754964 
7586.000000	62.432432 
7585.000000	62.082791 
7584.000000	61.797428 
7583.000000	61.678671 
7582.000000	61.827087 
7581.000000	62.314724 
7580.000000	63.167572 
7579.000000	64.355945 
7578.000000	65.781188 
7577.000000	67.289805 
7576.000000	68.706107 
7575.000000	69.867706 
7574.000000	70.658707 
7573.000000	71.032357 
7572.000000	71.021103 
7571.000000	70.718216 
7570.000000	70.262098 
7569.000000	69.786381 
7568.000000	69.387030 
7567.000000	69.095134 
7566.000000	68.884611 
7565.000000	68.684601 
7564.000000	68.417072 
7563.000000	68.028020 
7562.000000	67.519330 
7561.000000	66.948604 
7560.000000	66.421866 
7559.000000	66.052651 
7558.000000	65.925645 
7557.000000	66.060042 
7556.000000	66.396832 
7555.000000	66.804265 
7554.000000	67.109489 
7553.000000	67.146396 
7552.000000	66.803574 
7551.000000	66.055846 
7550.000000	64.974856 
7549.000000	63.709974 
7548.000000	62.452626 
7547.000000	61.384320 
7546.000000	60.636496 
7545.000000	60.273718 
7544.000000	60.284066 
7543.000000	60.593724 
7542.000000	61.089396 
7541.000000	61.651539 
7540.000000	62.179517 
7539.000000	62.600851 
7538.000000	62.885785 
7537.000000	63.031339 
7536.000000	63.061118 
7535.000000	63.007998 
7534.000000	62.901663 
7533.000000	62.757015 
7532.000000	62.573456 
7531.000000	62.346458 
7530.000000	62.066626 
7529.000000	61.731886 
7528.000000	61.352562 
7527.000000	60.957336 
7526.000000	60.585498 
7525.000000	60.278844 
7524.000000	60.074543 
7523.000000	59.995818 
7522.000000	60.044646 
7521.000000	60.199904 
7520.000000	60.423207 
7519.000000	60.667181 
7518.000000	60.880517 
7517.000000	61.021828 
7516.000000	61.070442 
7515.000000	61.031484 
7514.000000	60.925459 
7513.000000	60.789632 
7512.000000	60.663533 
7511.000000	60.587501 
7510.000000	60.595321 
7509.000000	60.710191 
7508.000000	60.939455 
7507.000000	61.276698 
7506.000000	61.706089 
7505.000000	62.202095 
7504.000000	62.734198 
7503.000000	63.267922 
7502.000000	63.767266 
7501.000000	64.199566 
7500.000000	64.539241 
7499.000000	64.770388 
7498.000000	64.887785 
7497.000000	64.905595 
7496.000000	64.856314 
7495.000000	64.790749 
7494.000000	64.768838 
7493.000000	64.855098 
7492.000000	65.100646 
7491.000000	65.531945 
7490.000000	66.134977 
7489.000000	66.856813 
7488.000000	67.605972 
7487.000000	68.270754 
7486.000000	68.738794 
7485.000000	68.918395 
7484.000000	68.763422 
7483.000000	68.286657 
7482.000000	67.559647 
7481.000000	66.697025 
7480.000000	65.835571 
7479.000000	65.106844 
7478.000000	64.611029 
7477.000000	64.398646 
7476.000000	64.468669 
7475.000000	64.778351 
7474.000000	65.257191 
7473.000000	65.826439 
7472.000000	66.418051 
7471.000000	66.985988 
7470.000000	67.505264 
7469.000000	67.965221 
7468.000000	68.368005 
7467.000000	68.717408 
7466.000000	69.014549 
7465.000000	69.251370 
7464.000000	69.415330 
7463.000000	69.487595 
7462.000000	69.457650 
7461.000000	69.318532 
7460.000000	69.074130 
7459.000000	68.732333 
7458.000000	68.308520 
7457.000000	67.819023 
7456.000000	67.283082 
7455.000000	66.720509 
7454.000000	66.150069 
7453.000000	65.594506 
7452.000000	65.081858 
7451.000000	64.643359 
7450.000000	64.309525 
7449.000000	64.102983 
7448.000000	64.031100 
7447.000000	64.082527 
7446.000000	64.225888 
7445.000000	64.413666 
7444.000000	64.589381 
7443.000000	64.701271 
7442.000000	64.712595 
7441.000000	64.616298 
7440.000000	64.437723 
7439.000000	64.228725 
7438.000000	64.055967 
7437.000000	63.989782 
7436.000000	64.083623 
7435.000000	64.362168 
7434.000000	64.809107 
7433.000000	65.371608 
7432.000000	65.966296 
7431.000000	66.499137 
7430.000000	66.883111 
7429.000000	67.058253 
7428.000000	67.001938 
7427.000000	66.732478 
7426.000000	66.301679 
7425.000000	65.779161 
7424.000000	65.239048 
7423.000000	64.746642 
7422.000000	64.346790 
7421.000000	64.061236 
7420.000000	63.890457 
7419.000000	63.824033 
7418.000000	63.842272 
7417.000000	63.924241 
7416.000000	64.048457 
7415.000000	64.194965 
7414.000000	64.343643 
7413.000000	64.475083 
7412.000000	64.570927 
7411.000000	64.616894 
7410.000000	64.610481 
7409.000000	64.559078 
7408.000000	64.482879 
7407.000000	64.403676 
7406.000000	64.338254 
7405.000000	64.290022 
7404.000000	64.245653 
7403.000000	64.180612 
7402.000000	64.068818 
7401.000000	63.892364 
7400.000000	63.652014 
7399.000000	63.367319 
7398.000000	63.073587 
7397.000000	62.812590 
7396.000000	62.620663 
7395.000000	62.519764 
7394.000000	62.509322 
7393.000000	62.570500 
7392.000000	62.672090 
7391.000000	62.778711 
7390.000000	62.859630 
7389.000000	62.897109 
7388.000000	62.889146 
7387.000000	62.847375 
7386.000000	62.792086 
7385.000000	62.743520 
7384.000000	62.715673 
7383.000000	62.717890 
7382.000000	62.750887 
7381.000000	62.807917 
7380.000000	62.875270 
7379.000000	62.935209 
7378.000000	62.971615 
7377.000000	62.968850 
7376.000000	62.923574 
7375.000000	62.841820 
7374.000000	62.747168 
7373.000000	62.676882 
7372.000000	62.674760 
7371.000000	62.779927 
7370.000000	63.015127 
7369.000000	63.381910 
7368.000000	63.851594 
7367.000000	64.369368 
7366.000000	64.864683 
7365.000000	65.267419 
7364.000000	65.522336 
7363.000000	65.601468 
7362.000000	65.508008 
7361.000000	65.273451 
7360.000000	64.939785 
7359.000000	64.546537 
7358.000000	64.117527 
7357.000000	63.658285 
7356.000000	63.161134 
7355.000000	62.616491 
7354.000000	62.028908 
7353.000000	61.425161 
7352.000000	60.850214 
7351.000000	60.366868 
7350.000000	60.034322 
7349.000000	59.905171 
7348.000000	60.006046 
7347.000000	60.338044 
7346.000000	60.869383 
7345.000000	61.545968 
7344.000000	62.296915 
7343.000000	63.049221 
7342.000000	63.734102 
7341.000000	64.301896 
7340.000000	64.725899 
7339.000000	65.001487 
7338.000000	65.139222 
7337.000000	65.162754 
7336.000000	65.102672 
7335.000000	64.988303 
7334.000000	64.844465 
7333.000000	64.692234 
7332.000000	64.550781 
7331.000000	64.438271 
7330.000000	64.374065 
7329.000000	64.380002 
7328.000000	64.476370 
7327.000000	64.680504 
7326.000000	64.997935 
7325.000000	65.410780 
7324.000000	65.881705 
7323.000000	66.358852 
7322.000000	66.787242 
7321.000000	67.120504 
7320.000000	67.328596 
7319.000000	67.413210 
7318.000000	67.389631 
7317.000000	67.284703 
7316.000000	67.115974 
7315.000000	66.889715 
7314.000000	66.591811 
7313.000000	66.199016 
7312.000000	65.685224 
7311.000000	65.038585 
7310.000000	64.271521 
7309.000000	63.428783 
7308.000000	62.576580 
7307.000000	61.792135 
7306.000000	61.144399 
7305.000000	60.681843 
7304.000000	60.419583 
7303.000000	60.344171 
7302.000000	60.423302 
7301.000000	60.622143 
7300.000000	60.913467 
7299.000000	61.286759 
7298.000000	61.742210 
7297.000000	62.287735 
7296.000000	62.916254 
7295.000000	63.607811 
7294.000000	64.324474 
7293.000000	65.015816 
7292.000000	65.626645 
7291.000000	66.107702 
7290.000000	66.432309 
7289.000000	66.594123 
7288.000000	66.613268 
7287.000000	66.522669 
7286.000000	66.361641 
7285.000000	66.165757 
7284.000000	65.964674 
7283.000000	65.775418 
7282.000000	65.604829 
7281.000000	65.456557 
7280.000000	65.338325 
7279.000000	65.255975 
7278.000000	65.215253 
7277.000000	65.220499 
7276.000000	65.272712 
7275.000000	65.370059 
7274.000000	65.504026 
7273.000000	65.662455 
7272.000000	65.823483 
7271.000000	65.960073 
7270.000000	66.036581 
7269.000000	66.011190 
7268.000000	65.845751 
7267.000000	65.515136 
7266.000000	65.019035 
7265.000000	64.382743 
7264.000000	63.663554 
7263.000000	62.941288 
7262.000000	62.308907 
7261.000000	61.851620 
7260.000000	61.635136 
7259.000000	61.689782 
7258.000000	62.008643 
7257.000000	62.546348 
7256.000000	63.235473 
7255.000000	63.998031 
7254.000000	64.761781 
7253.000000	65.468811 
7252.000000	66.074633 
7251.000000	66.545510 
7250.000000	66.853785 
7249.000000	66.973471 
7248.000000	66.882133 
7247.000000	66.563701 
7246.000000	66.019105 
7245.000000	65.270972 
7244.000000	64.371442 
7243.000000	63.398003 
7242.000000	62.445569 
7241.000000	61.614060 
7240.000000	60.990762 
7239.000000	60.639500 
7238.000000	60.585665 
7237.000000	60.819602 
7236.000000	61.295914 
7235.000000	61.948275 
7234.000000	62.696862 
7233.000000	63.466095 
7232.000000	64.187002 
7231.000000	64.812922 
7230.000000	65.315508 
7229.000000	65.690350 
7228.000000	65.947890 
7227.000000	66.111898 
7226.000000	66.209530 
7225.000000	66.263532 
7224.000000	66.285276 
7223.000000	66.269659 
7222.000000	66.196036 
7221.000000	66.038179 
7220.000000	65.772056 
7219.000000	65.384817 
7218.000000	64.883422 
7217.000000	64.298343 
7216.000000	63.681435 
7215.000000	63.098120 
7214.000000	62.614536 
7213.000000	62.279248 
7212.000000	62.118005 
7211.000000	62.128257 
7210.000000	62.283420 
7209.000000	62.535142 
7208.000000	62.832188 
7207.000000	63.129806 
7206.000000	63.400363 
7205.000000	63.632893 
7204.000000	63.832116 
7203.000000	64.006996 
7202.000000	64.167809 
7201.000000	64.318418 
7200.000000	64.450144 
7199.000000	64.542031 
7198.000000	64.565038 
7197.000000	64.490389 
7196.000000	64.296364 
7195.000000	63.976955 
7194.000000	63.544464 
7193.000000	63.032054 
7192.000000	62.487912 
7191.000000	61.971020 
7190.000000	61.539125 
7189.000000	61.243319 
7188.000000	61.117792 
7187.000000	61.178183 
7186.000000	61.417770 
7185.000000	61.811470 
7184.000000	62.319326 
7183.000000	62.892961 
7182.000000	63.478755 
7181.000000	64.026689 
7180.000000	64.493680 
7179.000000	64.847922 
7178.000000	65.068602 
7177.000000	65.149354 
7176.000000	65.096545 
7175.000000	64.931654 
7174.000000	64.689302 
7173.000000	64.412212 
7172.000000	64.145922 
7171.000000	63.929510 
7170.000000	63.789844 
7169.000000	63.737416 
7168.000000	63.765931 
7167.000000	63.855290 
7166.000000	63.976883 
7165.000000	64.100861 
7164.000000	64.202070 
7163.000000	64.262127 
7162.000000	64.273262 
7161.000000	64.234876 
7160.000000	64.155411 
7159.000000	64.045667 
7158.000000	63.920998 
7157.000000	63.798069 
7156.000000	63.693690 
7155.000000	63.624882 
7154.000000	63.603091 
7153.000000	63.635063 
7152.000000	63.716292 
7151.000000	63.832187 
7150.000000	63.958787 
7149.000000	64.064908 
7148.000000	64.126396 
7147.000000	64.132189 
7146.000000	64.088940 
7145.000000	64.018964 
7144.000000	63.953948 
7143.000000	63.925576 
7142.000000	63.954639 
7141.000000	64.044690 
7140.000000	64.182019 
7139.000000	64.337992 
7138.000000	64.480638 
7137.000000	64.580011 
7136.000000	64.614462 
7135.000000	64.575290 
7134.000000	64.466428 
7133.000000	64.304757 
7132.000000	64.112043 
7131.000000	63.915061 
7130.000000	63.739562 
7129.000000	63.608217 
7128.000000	63.538479 
7127.000000	63.539123 
7126.000000	63.613009 
7125.000000	63.750505 
7124.000000	63.931751 
7123.000000	64.127111 
7122.000000	64.301252 
7121.000000	64.421319 
7120.000000	64.463114 
7119.000000	64.416503 
7118.000000	64.287328 
7117.000000	64.094066 
7116.000000	63.863730 
7115.000000	63.624119 
7114.000000	63.400220 
7113.000000	63.212323 
7112.000000	63.076519 
7111.000000	63.005542 
7110.000000	63.010215 
7109.000000	63.098406 
7108.000000	63.275241 
7107.000000	63.537096 
7106.000000	63.873982 
7105.000000	64.268684 
7104.000000	64.697861 
7103.000000	65.130686 
7102.000000	65.535140 
7101.000000	65.883517 
7100.000000	66.153645 
7099.000000	66.333031 
7098.000000	66.417527 
7097.000000	66.412067 
7096.000000	66.328382 
7095.000000	66.185283 
7094.000000	66.003799 
7093.000000	65.805864 
7092.000000	65.612053 
7091.000000	65.440917 
7090.000000	65.304660 
7089.000000	65.209293 
7088.000000	65.153169 
7087.000000	65.129137 
7086.000000	65.127897 
7085.000000	65.139484 
7084.000000	65.157985 
7083.000000	65.177583 
7082.000000	65.192198 
7081.000000	65.189361 
7080.000000	65.153789 
7079.000000	65.062832 
7078.000000	64.889836 
7077.000000	64.610815 
7076.000000	64.211010 
7075.000000	63.694667 
7074.000000	63.087368 
7073.000000	62.439060 
7072.000000	61.812257 
7071.000000	61.279439 
7070.000000	60.909318 
7069.000000	60.752129 
7068.000000	60.825896 
7067.000000	61.115002 
7066.000000	61.571764 
7065.000000	62.124323 
7064.000000	62.690234 
7063.000000	63.191771 
7062.000000	63.570022 
7061.000000	63.794469 
7060.000000	63.867020 
7059.000000	63.814425 
7058.000000	63.682556 
7057.000000	63.524961 
7056.000000	63.393568 
7055.000000	63.332509 
7054.000000	63.369512 
7053.000000	63.520860 
7052.000000	63.781642 
7051.000000	64.133834 
7050.000000	64.540123 
7049.000000	64.956426 
7048.000000	65.328431 
7047.000000	65.600824 
7046.000000	65.724134 
7045.000000	65.664029 
7044.000000	65.408444 
7043.000000	64.971089 
7042.000000	64.392662 
7041.000000	63.735103 
7040.000000	63.073635 
7039.000000	62.484359 
7038.000000	62.034511 
7037.000000	61.772036 
7036.000000	61.720108 
7035.000000	61.874461 
7034.000000	62.206172 
7033.000000	62.667012 
7032.000000	63.193535 
7031.000000	63.718795 
7030.000000	64.175772 
7029.000000	64.513564 
7028.000000	64.701509 
7027.000000	64.738893 
7026.000000	64.651155 
7025.000000	64.485764 
7024.000000	64.303946 
7023.000000	64.161753 
7022.000000	64.105319 
7021.000000	64.149665 
7020.000000	64.284539 
7019.000000	64.465785 
7018.000000	64.631843 
7017.000000	64.714145 
7016.000000	64.657378 
7015.000000	64.432382 
7014.000000	64.044022 
7013.000000	63.533878 
7012.000000	62.969255 
7011.000000	62.436795 
7010.000000	62.023138 
7009.000000	61.803317 
7008.000000	61.824464 
7007.000000	62.103915 
7006.000000	62.623214 
7005.000000	63.325810 
7004.000000	64.127039 
7003.000000	64.925599 
7002.000000	65.623974 
7001.000000	66.145944 
7000.000000	66.448903 
6999.000000	66.529035 
6998.000000	66.414761 
6997.000000	66.159534 
6996.000000	65.821123 
6995.000000	65.449833 
6994.000000	65.077114 
6993.000000	64.718461 
6992.000000	64.374494 
6991.000000	64.044547 
6990.000000	63.732862 
6989.000000	63.456654 
6988.000000	63.245129 
6987.000000	63.132405 
6986.000000	63.150835 
6985.000000	63.318729 
6984.000000	63.634896 
6983.000000	64.073634 
6982.000000	64.595532 
6981.000000	65.154123 
6980.000000	65.707635 
6979.000000	66.224336 
6978.000000	66.685700 
6977.000000	67.082905 
6976.000000	67.412185 
6975.000000	67.667651 
6974.000000	67.841577 
6973.000000	67.919754 
6972.000000	67.890954 
6971.000000	67.744803 
6970.000000	67.484617 
6969.000000	67.122602 
6968.000000	66.687321 
6967.000000	66.213870 
6966.000000	65.741157 
6965.000000	65.304183 
6964.000000	64.930963 
6963.000000	64.637446 
6962.000000	64.426589 
6961.000000	64.291000 
6960.000000	64.217543 
6959.000000	64.188122 
