PE IR       SPECTRUM    SPECTRUM    ASCII       PEDS        1.60        
  -1
C-1AE0~1.ASC
17/05/02
12:27:19.00
17/05/02
12:27:19.00
tln
$C-4040-8_t0019$<tbV0>[12.5,2.0,8.0,0.0,22,1,0]
370.000000
64









2002,4.07    
MIRTGS : RIGHTBACK : INTERNAL 2
MIR : ON : INTERNAL 2
OPTKBR

0.200000
8
8.000000
FILLER
RATIO
SPECTRUM
UNLOCKED 256

DOUBLE
64
COMBINED
1
0
0


1.000000
RATIO


1
0
TRUE
51149
0
LEFT NOT FITTED RIGHT NOT FITTED 0
NONE
NONE
15600
12.000000
4.427000
51148
TRUE
1 0 8 72 0 0 0 0 

15798.010000






#HDR
-1
-1
#GR
CM-1
%T
0.00002384185791015625
0.0
7800.000000
-1.000000
7431
8
75.198554
43.054318
#DATA
7800.000000	69.079494 
7799.000000	67.824745 
7798.000000	66.988086 
7797.000000	66.589474 
7796.000000	66.598796 
7795.000000	66.959261 
7794.000000	67.586183 
7793.000000	68.379759 
7792.000000	69.246459 
7791.000000	70.108008 
7790.000000	70.894527 
7789.000000	71.548986 
7788.000000	72.042798 
7787.000000	72.362446 
7786.000000	72.522211 
7785.000000	72.530603 
7784.000000	72.379231 
7783.000000	72.030568 
7782.000000	71.433067 
7781.000000	70.536756 
7780.000000	69.318604 
7779.000000	67.810463 
7778.000000	66.110014 
7777.000000	64.380121 
7776.000000	62.822294 
7775.000000	61.642098 
7774.000000	60.995554 
7773.000000	60.966563 
7772.000000	61.540174 
7771.000000	62.613320 
7770.000000	64.019966 
7769.000000	65.545201 
7768.000000	66.960644 
7767.000000	68.070387 
7766.000000	68.742179 
7765.000000	68.921422 
7764.000000	68.633794 
7763.000000	67.977976 
7762.000000	67.099285 
7761.000000	66.167140 
7760.000000	65.334391 
7759.000000	64.723825 
7758.000000	64.392256 
7757.000000	64.341378 
7756.000000	64.503002 
7755.000000	64.768433 
7754.000000	65.003299 
7753.000000	65.073418 
7752.000000	64.884090 
7751.000000	64.386200 
7750.000000	63.612055 
7749.000000	62.646198 
7748.000000	61.645054 
7747.000000	60.782098 
7746.000000	60.249233 
7745.000000	60.211849 
7744.000000	60.781788 
7743.000000	61.992144 
7742.000000	63.775706 
7741.000000	65.971779 
7740.000000	68.345260 
7739.000000	70.626807 
7738.000000	72.575068 
7737.000000	74.018287 
7736.000000	74.884152 
7735.000000	75.198554 
7734.000000	75.058245 
7733.000000	74.597215 
7732.000000	73.948669 
7731.000000	73.220872 
7730.000000	72.497367 
7729.000000	71.827793 
7728.000000	71.273612 
7727.000000	70.875787 
7726.000000	70.674705 
7725.000000	70.676660 
7724.000000	70.857715 
7723.000000	71.147680 
7722.000000	71.441149 
7721.000000	71.610927 
7720.000000	71.531271 
7719.000000	71.111369 
7718.000000	70.317625 
7717.000000	69.187474 
7716.000000	67.822551 
7715.000000	66.373252 
7714.000000	65.006136 
7713.000000	63.874602 
7712.000000	63.088679 
7711.000000	62.703275 
7710.000000	62.714600 
7709.000000	63.069510 
7708.000000	63.683700 
7707.000000	64.461970 
7706.000000	65.318250 
7705.000000	66.173982 
7704.000000	66.973137 
7703.000000	67.676162 
7702.000000	68.261599 
7701.000000	68.719506 
7700.000000	69.043254 
7699.000000	69.229936 
7698.000000	69.270277 
7697.000000	69.163608 
7696.000000	68.904662 
7695.000000	68.499255 
7694.000000	67.956829 
7693.000000	67.302370 
7692.000000	66.570520 
7691.000000	65.805602 
7690.000000	65.062403 
7689.000000	64.399099 
7688.000000	63.879537 
7687.000000	63.563108 
7686.000000	63.502764 
7685.000000	63.734555 
7684.000000	64.272117 
7683.000000	65.101265 
7682.000000	66.181421 
7681.000000	67.448186 
7680.000000	68.821978 
7679.000000	70.213270 
7678.000000	71.535229 
7677.000000	72.703862 
7676.000000	73.647499 
7675.000000	74.303936 
7674.000000	74.631738 
7673.000000	74.606943 
7672.000000	74.236679 
7671.000000	73.552846 
7670.000000	72.625851 
7669.000000	71.545362 
7668.000000	70.421123 
7667.000000	69.359326 
7666.000000	68.458819 
7665.000000	67.787098 
7664.000000	67.375421 
7663.000000	67.216849 
7662.000000	67.272901 
7661.000000	67.485284 
7660.000000	67.788028 
7659.000000	68.119025 
7658.000000	68.427348 
7657.000000	68.669676 
7656.000000	68.812346 
7655.000000	68.826746 
7654.000000	68.696045 
7653.000000	68.424916 
7652.000000	68.044996 
7651.000000	67.611885 
7650.000000	67.200040 
7649.000000	66.896629 
7648.000000	66.780853 
7647.000000	66.896224 
7646.000000	67.249464 
7645.000000	67.811298 
7644.000000	68.523144 
7643.000000	69.307279 
7642.000000	70.085859 
7641.000000	70.793724 
7640.000000	71.389222 
7639.000000	71.858787 
7638.000000	72.207760 
7637.000000	72.446179 
7636.000000	72.589635 
7635.000000	72.655344 
7634.000000	72.655892 
7633.000000	72.600293 
7632.000000	72.499179 
7631.000000	72.368073 
7630.000000	72.225213 
7629.000000	72.088003 
7628.000000	71.962952 
7627.000000	71.839833 
7626.000000	71.692156 
7625.000000	71.479678 
7624.000000	71.156907 
7623.000000	70.685839 
7622.000000	70.050096 
7621.000000	69.263648 
7620.000000	68.369317 
7619.000000	67.439293 
7618.000000	66.551518 
7617.000000	65.792965 
7616.000000	65.230393 
7615.000000	64.922928 
7614.000000	64.907526 
7613.000000	65.205168 
7612.000000	65.811419 
7611.000000	66.698837 
7610.000000	67.818713 
7609.000000	69.086933 
7608.000000	70.386910 
7607.000000	71.576309 
7606.000000	72.505903 
7605.000000	73.041820 
7604.000000	73.091125 
7603.000000	72.629380 
7602.000000	71.707940 
7601.000000	70.452904 
7600.000000	69.038343 
7599.000000	67.646908 
7598.000000	66.434860 
7597.000000	65.503025 
7596.000000	64.889478 
7595.000000	64.579081 
7594.000000	64.521098 
7593.000000	64.659905 
7592.000000	64.945435 
7591.000000	65.338587 
7590.000000	65.810394 
7589.000000	66.325354 
7588.000000	66.840624 
7587.000000	67.290377 
7586.000000	67.603158 
7585.000000	67.710828 
7584.000000	67.567253 
7583.000000	67.163324 
7582.000000	66.531682 
7581.000000	65.746974 
7580.000000	64.907121 
7579.000000	64.116096 
7578.000000	63.458538 
7577.000000	62.984204 
7576.000000	62.707424 
7575.000000	62.609767 
7574.000000	62.650871 
7573.000000	62.781143 
7572.000000	62.949895 
7571.000000	63.116908 
7570.000000	63.251018 
7569.000000	63.339400 
7568.000000	63.372159 
7567.000000	63.354849 
7566.000000	63.307309 
7565.000000	63.260841 
7564.000000	63.248968 
7563.000000	63.300442 
7562.000000	63.438057 
7561.000000	63.663840 
7560.000000	63.960647 
7559.000000	64.288306 
7558.000000	64.591026 
7557.000000	64.811110 
7556.000000	64.903402 
7555.000000	64.847564 
7554.000000	64.654111 
7553.000000	64.362311 
7552.000000	64.030814 
7551.000000	63.723468 
7550.000000	63.495159 
7549.000000	63.379645 
7548.000000	63.386034 
7547.000000	63.504171 
7546.000000	63.714480 
7545.000000	63.995194 
7544.000000	64.333963 
7543.000000	64.729738 
7542.000000	65.193247 
7541.000000	65.739941 
7540.000000	66.378188 
7539.000000	67.096900 
7538.000000	67.859315 
7537.000000	68.608546 
7536.000000	69.270920 
7535.000000	69.773912 
7534.000000	70.057868 
7533.000000	70.095443 
7532.000000	69.894719 
7531.000000	69.503927 
7530.000000	68.996620 
7529.000000	68.459105 
7528.000000	67.970585 
7527.000000	67.592072 
7526.000000	67.352938 
7525.000000	67.252111 
7524.000000	67.262911 
7523.000000	67.345929 
7522.000000	67.460823 
7521.000000	67.577338 
7520.000000	67.679691 
7519.000000	67.765665 
7518.000000	67.839622 
7517.000000	67.904567 
7516.000000	67.954730 
7515.000000	67.971801 
7514.000000	67.929816 
7513.000000	67.798948 
7512.000000	67.555618 
7511.000000	67.190217 
7510.000000	66.714668 
7509.000000	66.163730 
7508.000000	65.583992 
7507.000000	65.035486 
7506.000000	64.580321 
7505.000000	64.274263 
7504.000000	64.151334 
7503.000000	64.225244 
7502.000000	64.486241 
7501.000000	64.903688 
7500.000000	65.430140 
7499.000000	66.009116 
7498.000000	66.581702 
7497.000000	67.095518 
7496.000000	67.509698 
7495.000000	67.799210 
7494.000000	67.955112 
7493.000000	67.984366 
7492.000000	67.905807 
7491.000000	67.747044 
7490.000000	67.538380 
7489.000000	67.312836 
7488.000000	67.097735 
7487.000000	66.918182 
7486.000000	66.786050 
7485.000000	66.708183 
7484.000000	66.674184 
7483.000000	66.660428 
7482.000000	66.631269 
7481.000000	66.544532 
7480.000000	66.366696 
7479.000000	66.077709 
7478.000000	65.686893 
7477.000000	65.232253 
7476.000000	64.776277 
7475.000000	64.390468 
7474.000000	64.139699 
7473.000000	64.066791 
7472.000000	64.175271 
7471.000000	64.427995 
7470.000000	64.750385 
7469.000000	65.048098 
7468.000000	65.232610 
7467.000000	65.244889 
7466.000000	65.066146 
7465.000000	64.724469 
7464.000000	64.289808 
7463.000000	63.856124 
7462.000000	63.515663 
7461.000000	63.336277 
7460.000000	63.347887 
7459.000000	63.534331 
7458.000000	63.844037 
7457.000000	64.201450 
7456.000000	64.525127 
7455.000000	64.751696 
7454.000000	64.846181 
7453.000000	64.815855 
7452.000000	64.699268 
7451.000000	64.562439 
7450.000000	64.478445 
7449.000000	64.506506 
7448.000000	64.675784 
7447.000000	64.974617 
7446.000000	65.357327 
7445.000000	65.746998 
7444.000000	66.057491 
7443.000000	66.209363 
7442.000000	66.151070 
7441.000000	65.863513 
7440.000000	65.365266 
7439.000000	64.707899 
7438.000000	63.966393 
7437.000000	63.225388 
7436.000000	62.564468 
7435.000000	62.046527 
7434.000000	61.708736 
7433.000000	61.560845 
7432.000000	61.588096 
7431.000000	61.754274 
7430.000000	62.017083 
7429.000000	62.330460 
7428.000000	62.663102 
7427.000000	62.992477 
7426.000000	63.316249 
7425.000000	63.643264 
7424.000000	63.987851 
7423.000000	64.358806 
7422.000000	64.750123 
7421.000000	65.137648 
7420.000000	65.481376 
7419.000000	65.734672 
7418.000000	65.859436 
7417.000000	65.839123 
7416.000000	65.689206 
7415.000000	65.457129 
7414.000000	65.212535 
7413.000000	65.029644 
7412.000000	64.967298 
7411.000000	65.051770 
7410.000000	65.269827 
7409.000000	65.570163 
7408.000000	65.878772 
7407.000000	66.117000 
7406.000000	66.221332 
7405.000000	66.160392 
7404.000000	65.942382 
7403.000000	65.612697 
7402.000000	65.236401 
7401.000000	64.885878 
7400.000000	64.619827 
7399.000000	64.474248 
7398.000000	64.457297 
7397.000000	64.550709 
7396.000000	64.722609 
7395.000000	64.932155 
7394.000000	65.142083 
7393.000000	65.323615 
7392.000000	65.459990 
7391.000000	65.545678 
7390.000000	65.581941 
7389.000000	65.574669 
7388.000000	65.529608 
7387.000000	65.453934 
7386.000000	65.354514 
7385.000000	65.238094 
7384.000000	65.110468 
7383.000000	64.976859 
7382.000000	64.841341 
7381.000000	64.706587 
7380.000000	64.574575 
7379.000000	64.446163 
7378.000000	64.324021 
7377.000000	64.209699 
7376.000000	64.109778 
7375.000000	64.032268 
7374.000000	63.992428 
7373.000000	64.002084 
7372.000000	64.079403 
7371.000000	64.238357 
7370.000000	64.495635 
7369.000000	64.862155 
7368.000000	65.343999 
7367.000000	65.938210 
7366.000000	66.626262 
7365.000000	67.373967 
7364.000000	68.127202 
7363.000000	68.819022 
7362.000000	69.376301 
7361.000000	69.733619 
7360.000000	69.848847 
7359.000000	69.713497 
7358.000000	69.361615 
7357.000000	68.862056 
7356.000000	68.303799 
7355.000000	67.773795 
7354.000000	67.342448 
7353.000000	67.046070 
7352.000000	66.883802 
7351.000000	66.822218 
7350.000000	66.810989 
7349.000000	66.800451 
7348.000000	66.758513 
7347.000000	66.678833 
7346.000000	66.578197 
7345.000000	66.488862 
7344.000000	66.443824 
7343.000000	66.461849 
7342.000000	66.532731 
7341.000000	66.623449 
7340.000000	66.687035 
7339.000000	66.675829 
7338.000000	66.555738 
7337.000000	66.321921 
7336.000000	66.003370 
7335.000000	65.656566 
7334.000000	65.351462 
7333.000000	65.159153 
7332.000000	65.133643 
7331.000000	65.300703 
7330.000000	65.650486 
7329.000000	66.140747 
7328.000000	66.704273 
7327.000000	67.264342 
7326.000000	67.748308 
7325.000000	68.101072 
7324.000000	68.291759 
7323.000000	68.318319 
7322.000000	68.198537 
7321.000000	67.963862 
7320.000000	67.644238 
7319.000000	67.268419 
7318.000000	66.849160 
7317.000000	66.393494 
7316.000000	65.895557 
7315.000000	65.350866 
7314.000000	64.757061 
7313.000000	64.122867 
7312.000000	63.470840 
7311.000000	62.834072 
7310.000000	62.259817 
7309.000000	61.799359 
7308.000000	61.504006 
7307.000000	61.412262 
7306.000000	61.545038 
7305.000000	61.897540 
7304.000000	62.439298 
7303.000000	63.115668 
7302.000000	63.849878 
7301.000000	64.555215 
7300.000000	65.150594 
7299.000000	65.572690 
7298.000000	65.783548 
7297.000000	65.775084 
7296.000000	65.570259 
7295.000000	65.212106 
7294.000000	64.759588 
7293.000000	64.267349 
7292.000000	63.783025 
7291.000000	63.332867 
7290.000000	62.928318 
7289.000000	62.563085 
7288.000000	62.226986 
7287.000000	61.908268 
7286.000000	61.600470 
7285.000000	61.307549 
7284.000000	61.042833 
7283.000000	60.825800 
7282.000000	60.672569 
7281.000000	60.601091 
7280.000000	60.625743 
7279.000000	60.762143 
7278.000000	61.024570 
7277.000000	61.429834 
7276.000000	61.990857 
7275.000000	62.711310 
7274.000000	63.576197 
7273.000000	64.545464 
7272.000000	65.552163 
7271.000000	66.513967 
7270.000000	67.339777 
7269.000000	67.947483 
7268.000000	68.275427 
7267.000000	68.300795 
7266.000000	68.037724 
7265.000000	67.540955 
7264.000000	66.889047 
7263.000000	66.171669 
7262.000000	65.474987 
7261.000000	64.872860 
7260.000000	64.418292 
7259.000000	64.142394 
7258.000000	64.057731 
7257.000000	64.164781 
7256.000000	64.451694 
7255.000000	64.896392 
7254.000000	65.466094 
7253.000000	66.116595 
7252.000000	66.796231 
7251.000000	67.447376 
7250.000000	68.013525 
7249.000000	68.443131 
7248.000000	68.695282 
7247.000000	68.743729 
7246.000000	68.581891 
7245.000000	68.223524 
7244.000000	67.704796 
7243.000000	67.079210 
7242.000000	66.412043 
7241.000000	65.771722 
7240.000000	65.227723 
7239.000000	64.834904 
7238.000000	64.626145 
7237.000000	64.607930 
7236.000000	64.762711 
7235.000000	65.051054 
7234.000000	65.416073 
7233.000000	65.799283 
7232.000000	66.147994 
7231.000000	66.426157 
7230.000000	66.615438 
7229.000000	66.715621 
7228.000000	66.737771 
7227.000000	66.700458 
7226.000000	66.622686 
7225.000000	66.524744 
7224.000000	66.426157 
7223.000000	66.348409 
7222.000000	66.312909 
7221.000000	66.342473 
7220.000000	66.453886 
7219.000000	66.654300 
7218.000000	66.933107 
7217.000000	67.261052 
7216.000000	67.590928 
7215.000000	67.864799 
7214.000000	68.026089 
7213.000000	68.033790 
7212.000000	67.870593 
7211.000000	67.552709 
7210.000000	67.119598 
7209.000000	66.625881 
7208.000000	66.126132 
7207.000000	65.666842 
7206.000000	65.272665 
7205.000000	64.945745 
7204.000000	64.669871 
7203.000000	64.421892 
7202.000000	64.180302 
7201.000000	63.935422 
7200.000000	63.691568 
7199.000000	63.465547 
7198.000000	63.286900 
7197.000000	63.189697 
7196.000000	63.200974 
7195.000000	63.333058 
7194.000000	63.583350 
7193.000000	63.931274 
7192.000000	64.341402 
7191.000000	64.767026 
7190.000000	65.157699 
7189.000000	65.466833 
7188.000000	65.656781 
7187.000000	65.708017 
7186.000000	65.619015 
7185.000000	65.411305 
7184.000000	65.123224 
7183.000000	64.808058 
7182.000000	64.526247 
7181.000000	64.333558 
7180.000000	64.272761 
7179.000000	64.364123 
7178.000000	64.605355 
7177.000000	64.967298 
7176.000000	65.403318 
7175.000000	65.850114 
7174.000000	66.239833 
7173.000000	66.509461 
7172.000000	66.612267 
7171.000000	66.519451 
7170.000000	66.224551 
7169.000000	65.745234 
7168.000000	65.121388 
7167.000000	64.408349 
7166.000000	63.671088 
7165.000000	62.978219 
7164.000000	62.392783 
7163.000000	61.968159 
7162.000000	61.736941 
7161.000000	61.709380 
7160.000000	61.866259 
7159.000000	62.162876 
7158.000000	62.532091 
7157.000000	62.893271 
7156.000000	63.166856 
7155.000000	63.284277 
7154.000000	63.204765 
7153.000000	62.918782 
7152.000000	62.453603 
7151.000000	61.862635 
7150.000000	61.221432 
7149.000000	60.610747 
7148.000000	60.107898 
7147.000000	59.773516 
7146.000000	59.645175 
7145.000000	59.732985 
7144.000000	60.020351 
7143.000000	60.468316 
7142.000000	61.018729 
7141.000000	61.604475 
7140.000000	62.156796 
7139.000000	62.617111 
7138.000000	62.942409 
7137.000000	63.113975 
7136.000000	63.131880 
7135.000000	63.019847 
7134.000000	62.822055 
7133.000000	62.595462 
7132.000000	62.399744 
7131.000000	62.286233 
7130.000000	62.296557 
7129.000000	62.447023 
7128.000000	62.730145 
7127.000000	63.111734 
7126.000000	63.540530 
7125.000000	63.957023 
7124.000000	64.308023 
7123.000000	64.553284 
7122.000000	64.671969 
7121.000000	64.663696 
7120.000000	64.545440 
7119.000000	64.344596 
7118.000000	64.092135 
7117.000000	63.816928 
7116.000000	63.543367 
7115.000000	63.292670 
7114.000000	63.084697 
7113.000000	62.941050 
7112.000000	62.884688 
7111.000000	62.935209 
7110.000000	63.105440 
7109.000000	63.396620 
7108.000000	63.795828 
7107.000000	64.269876 
7106.000000	64.773988 
7105.000000	65.259456 
7104.000000	65.681505 
7103.000000	66.009235 
7102.000000	66.225147 
7101.000000	66.328644 
7100.000000	66.327428 
7099.000000	66.237521 
7098.000000	66.071391 
7097.000000	65.838027 
7096.000000	65.540623 
7095.000000	65.184116 
7094.000000	64.774918 
7093.000000	64.327621 
7092.000000	63.864469 
7091.000000	63.415670 
7090.000000	63.012099 
7089.000000	62.680459 
7088.000000	62.436270 
7087.000000	62.282013 
7086.000000	62.206363 
7085.000000	62.189579 
7084.000000	62.206268 
7083.000000	62.234711 
7082.000000	62.261819 
7081.000000	62.286257 
7080.000000	62.310385 
7079.000000	62.342190 
7078.000000	62.388134 
7077.000000	62.452983 
7076.000000	62.532806 
7075.000000	62.621784 
7074.000000	62.712693 
7073.000000	62.802910 
7072.000000	62.895059 
7071.000000	62.998962 
7070.000000	63.128089 
7069.000000	63.296985 
7068.000000	63.514113 
7067.000000	63.782787 
7066.000000	64.098477 
7065.000000	64.449453 
7064.000000	64.817476 
7063.000000	65.181779 
7062.000000	65.519571 
7061.000000	65.808343 
7060.000000	66.023993 
7059.000000	66.138839 
7058.000000	66.122174 
7057.000000	65.947747 
7056.000000	65.598297 
7055.000000	65.071034 
7054.000000	64.385557 
7053.000000	63.587284 
7052.000000	62.745833 
7051.000000	61.944293 
7050.000000	61.270260 
7049.000000	60.797214 
7048.000000	60.576128 
7047.000000	60.627484 
7046.000000	60.933804 
7045.000000	61.444425 
7044.000000	62.076640 
7043.000000	62.730145 
7042.000000	63.297820 
7041.000000	63.681721 
7040.000000	63.809108 
7039.000000	63.642740 
7038.000000	63.188481 
7037.000000	62.492871 
7036.000000	61.636018 
7035.000000	60.717606 
7034.000000	59.842514 
7033.000000	59.104466 
7032.000000	58.575367 
7031.000000	58.295965 
7030.000000	58.274936 
7029.000000	58.489608 
7028.000000	58.890986 
7027.000000	59.413909 
7026.000000	59.983372 
7025.000000	60.529565 
7024.000000	60.989451 
7023.000000	61.321234 
7022.000000	61.500477 
7021.000000	61.528134 
7020.000000	61.422777 
7019.000000	61.220455 
7018.000000	60.968995 
7017.000000	60.717105 
7016.000000	60.508036 
7015.000000	60.371923 
7014.000000	60.325002 
7013.000000	60.367536 
7012.000000	60.488772 
7011.000000	60.667967 
7010.000000	60.880732 
7009.000000	61.103749 
7008.000000	61.319828 
7007.000000	61.519432 
7006.000000	61.702084 
7005.000000	61.874246 
7004.000000	62.045860 
7003.000000	62.231302 
7002.000000	62.439632 
7001.000000	62.670207 
7000.000000	62.906908 
6999.000000	63.126206 
6998.000000	63.294506 
6997.000000	63.376402 
6996.000000	63.342070 
6995.000000	63.177704 
6994.000000	62.888956 
6993.000000	62.505245 
6992.000000	62.071514 
6991.000000	61.641597 
6990.000000	61.264324 
6989.000000	60.975193 
6988.000000	60.787558 
6987.000000	60.692048 
6986.000000	60.663485 
6985.000000	60.670328 
6984.000000	60.685992 
6983.000000	60.696482 
6982.000000	60.702824 
6981.000000	60.718703 
6980.000000	60.761952 
6979.000000	60.847544 
6978.000000	60.978698 
6977.000000	61.147332 
6976.000000	61.333370 
6975.000000	61.515045 
6974.000000	61.677861 
6973.000000	61.821246 
6972.000000	61.960339 
6971.000000	62.120604 
6970.000000	62.329912 
6969.000000	62.606191 
6968.000000	62.949562 
6967.000000	63.337874 
6966.000000	63.732981 
6965.000000	64.084434 
6964.000000	64.345812 
6963.000000	64.479851 
6962.000000	64.470052 
6961.000000	64.321351 
6960.000000	64.059925 
6959.000000	63.727235 
