PE IR       SPECTRUM    SPECTRUM    ASCII       PEDS        1.60        
  -1
C-9AE1~1.ASC
17/05/02
12:46:03.00
17/05/02
12:46:03.00
tln
$C-4040-8_t0023$<tbV0>[-7.5,2.0,8.0,0.0,22,1,0]
370.000000
64









2002,4.07    
MIRTGS : RIGHTBACK : INTERNAL 2
MIR : ON : INTERNAL 2
OPTKBR

0.200000
8
8.000000
FILLER
RATIO
SPECTRUM
UNLOCKED 256

DOUBLE
64
COMBINED
1
0
0


1.000000
RATIO


1
0
TRUE
51149
0
LEFT NOT FITTED RIGHT NOT FITTED 0
NONE
NONE
15600
12.000000
4.427000
51148
TRUE
1 0 8 72 0 0 0 0 

15798.010000






#HDR
-1
-1
#GR
CM-1
%T
0.00002384185791015625
0.0
7800.000000
-1.000000
7431
8
93.398571
44.291019
#DATA
7800.000000	68.416833 
7799.000000	66.742539 
7798.000000	65.294480 
7797.000000	64.138126 
7796.000000	63.336658 
7795.000000	62.935662 
7794.000000	62.958431 
7793.000000	63.388514 
7792.000000	64.191389 
7791.000000	65.310001 
7790.000000	66.670250 
7789.000000	68.178582 
7788.000000	69.724464 
7787.000000	71.180701 
7786.000000	72.413229 
7785.000000	73.291969 
7784.000000	73.708271 
7783.000000	73.597359 
7782.000000	72.948551 
7781.000000	71.825385 
7780.000000	70.373916 
7779.000000	68.799686 
7778.000000	67.329835 
7777.000000	66.185164 
7776.000000	65.547060 
7775.000000	65.522170 
7774.000000	66.128611 
7773.000000	67.290854 
7772.000000	68.859076 
7771.000000	70.631861 
7770.000000	72.398972 
7769.000000	73.951816 
7768.000000	75.109577 
7767.000000	75.748443 
7766.000000	75.814557 
7765.000000	75.338959 
7764.000000	74.426102 
7763.000000	73.252749 
7762.000000	72.023010 
7761.000000	70.934200 
7760.000000	70.122718 
7759.000000	69.645047 
7758.000000	69.455289 
7757.000000	69.437479 
7756.000000	69.423627 
7755.000000	69.243049 
7754.000000	68.762135 
7753.000000	67.915725 
7752.000000	66.725444 
7751.000000	65.280270 
7750.000000	63.727712 
7749.000000	62.221050 
7748.000000	60.907196 
7747.000000	59.889531 
7746.000000	59.226012 
7745.000000	58.920240 
7744.000000	58.941960 
7743.000000	59.243226 
7742.000000	59.763169 
7741.000000	60.435628 
7740.000000	61.194062 
7739.000000	61.970114 
7738.000000	62.713313 
7737.000000	63.387346 
7736.000000	63.970398 
7735.000000	64.446091 
7734.000000	64.796829 
7733.000000	65.000176 
7732.000000	65.026545 
7731.000000	64.852809 
7730.000000	64.475131 
7729.000000	63.922142 
7728.000000	63.269853 
7727.000000	62.625432 
7726.000000	62.105917 
7725.000000	61.816954 
7724.000000	61.821699 
7723.000000	62.139868 
7722.000000	62.738227 
7721.000000	63.552641 
7720.000000	64.498424 
7719.000000	65.500497 
7718.000000	66.503715 
7717.000000	67.482256 
7716.000000	68.433070 
7715.000000	69.359326 
7714.000000	70.252609 
7713.000000	71.083998 
7712.000000	71.801161 
7711.000000	72.333931 
7710.000000	72.609376 
7709.000000	72.577857 
7708.000000	72.226548 
7707.000000	71.589350 
7706.000000	70.739603 
7705.000000	69.781780 
7704.000000	68.825578 
7703.000000	67.965149 
7702.000000	67.260575 
7701.000000	66.737914 
7700.000000	66.384100 
7699.000000	66.167140 
7698.000000	66.035938 
7697.000000	65.942025 
7696.000000	65.835857 
7695.000000	65.671706 
7694.000000	65.412044 
7693.000000	65.017485 
7692.000000	64.472699 
7691.000000	63.783454 
7690.000000	62.993121 
7689.000000	62.171816 
7688.000000	61.420726 
7687.000000	60.852885 
7686.000000	60.567355 
7685.000000	60.625529 
7684.000000	61.040258 
7683.000000	61.773443 
7682.000000	62.741589 
7681.000000	63.838005 
7680.000000	64.959120 
7679.000000	66.025900 
7678.000000	66.995167 
7677.000000	67.857456 
7676.000000	68.626785 
7675.000000	69.318509 
7674.000000	69.936561 
7673.000000	70.456528 
7672.000000	70.834803 
7671.000000	71.009325 
7670.000000	70.939493 
7669.000000	70.599603 
7668.000000	70.004796 
7667.000000	69.200086 
7666.000000	68.266797 
7665.000000	67.295742 
7664.000000	66.371774 
7663.000000	65.562915 
7662.000000	64.913201 
7661.000000	64.442586 
7660.000000	64.149785 
7659.000000	64.029026 
7658.000000	64.076423 
7657.000000	64.288163 
7656.000000	64.656853 
7655.000000	65.164518 
7654.000000	65.774846 
7653.000000	66.432142 
7652.000000	67.062067 
7651.000000	67.575001 
7650.000000	67.882180 
7649.000000	67.921233 
7648.000000	67.665553 
7647.000000	67.128586 
7646.000000	66.365885 
7645.000000	65.468406 
7644.000000	64.546585 
7643.000000	63.708853 
7642.000000	63.048911 
7641.000000	62.630605 
7640.000000	62.485480 
7639.000000	62.610316 
7638.000000	62.978625 
7637.000000	63.542222 
7636.000000	64.255023 
7635.000000	65.072941 
7634.000000	65.970969 
7633.000000	66.934323 
7632.000000	67.956256 
7631.000000	69.021749 
7630.000000	70.092439 
7629.000000	71.096467 
7628.000000	71.930027 
7627.000000	72.470259 
7626.000000	72.600865 
7625.000000	72.240829 
7624.000000	71.374440 
7623.000000	70.063638 
7622.000000	68.450689 
7621.000000	66.732859 
7620.000000	65.129280 
7619.000000	63.837552 
7618.000000	62.997484 
7617.000000	62.668943 
7616.000000	62.822008 
7615.000000	63.361096 
7614.000000	64.150357 
7613.000000	65.052866 
7612.000000	65.957260 
7611.000000	66.792035 
7610.000000	67.519664 
7609.000000	68.127679 
7608.000000	68.607020 
7607.000000	68.937683 
7606.000000	69.079804 
7605.000000	68.984413 
7604.000000	68.608927 
7603.000000	67.941975 
7602.000000	67.018938 
7601.000000	65.925669 
7600.000000	64.786911 
7599.000000	63.744044 
7598.000000	62.924623 
7597.000000	62.408924 
7596.000000	62.216663 
7595.000000	62.309217 
7594.000000	62.600755 
7593.000000	62.983512 
7592.000000	63.352465 
7591.000000	63.617730 
7590.000000	63.732218 
7589.000000	63.684535 
7588.000000	63.510751 
7587.000000	63.264346 
7586.000000	63.020968 
7585.000000	62.854456 
7584.000000	62.826848 
7583.000000	62.977266 
7582.000000	63.311910 
7581.000000	63.803720 
7580.000000	64.402198 
7579.000000	65.047287 
7578.000000	65.674495 
7577.000000	66.226148 
7576.000000	66.656947 
7575.000000	66.937112 
7574.000000	67.055106 
7573.000000	67.014670 
7572.000000	66.826391 
7571.000000	66.506862 
7570.000000	66.082501 
7569.000000	65.589475 
7568.000000	65.069127 
7567.000000	64.572215 
7566.000000	64.157748 
7565.000000	63.886380 
7564.000000	63.814258 
7563.000000	63.975310 
7562.000000	64.377593 
7561.000000	64.984846 
7560.000000	65.720772 
7559.000000	66.471886 
7558.000000	67.106437 
7557.000000	67.500114 
7556.000000	67.561507 
7555.000000	67.254519 
7554.000000	66.607284 
7553.000000	65.707159 
7552.000000	64.681196 
7551.000000	63.677263 
7550.000000	62.835192 
7549.000000	62.275099 
7548.000000	62.078142 
7547.000000	62.280225 
7546.000000	62.865257 
7545.000000	63.771009 
7544.000000	64.895009 
7543.000000	66.100573 
7542.000000	67.240834 
7541.000000	68.175840 
7540.000000	68.801665 
7539.000000	69.057774 
7538.000000	68.946099 
7537.000000	68.527173 
7536.000000	67.908406 
7535.000000	67.223811 
7534.000000	66.603779 
7533.000000	66.155672 
7532.000000	65.939521 
7531.000000	65.967607 
7530.000000	66.205239 
7529.000000	66.590905 
7528.000000	67.051672 
7527.000000	67.525649 
7526.000000	67.966198 
7525.000000	68.345928 
7524.000000	68.651461 
7523.000000	68.875312 
7522.000000	69.012141 
7521.000000	69.052886 
7520.000000	68.990826 
7519.000000	68.820834 
7518.000000	68.545460 
7517.000000	68.172430 
7516.000000	67.724037 
7515.000000	67.225289 
7514.000000	66.703176 
7513.000000	66.175293 
7512.000000	65.648221 
7511.000000	65.116477 
7510.000000	64.570474 
7509.000000	64.002919 
7508.000000	63.406610 
7507.000000	62.794876 
7506.000000	62.197446 
7505.000000	61.669492 
7504.000000	61.268377 
7503.000000	61.061263 
7502.000000	61.103510 
7501.000000	61.429929 
7500.000000	62.039709 
7499.000000	62.889075 
7498.000000	63.892650 
7497.000000	64.929461 
7496.000000	65.862345 
7495.000000	66.564226 
7494.000000	66.944169 
7493.000000	66.967511 
7492.000000	66.664743 
7491.000000	66.124892 
7490.000000	65.475344 
7489.000000	64.862585 
7488.000000	64.412355 
7487.000000	64.209675 
7486.000000	64.269900 
7485.000000	64.555835 
7484.000000	64.969754 
7483.000000	65.383267 
7482.000000	65.660548 
7481.000000	65.695333 
7480.000000	65.428566 
7479.000000	64.856529 
7478.000000	64.032936 
7477.000000	63.051462 
7476.000000	62.025046 
7475.000000	61.058163 
7474.000000	60.230135 
7473.000000	59.583473 
7472.000000	59.124445 
7471.000000	58.832883 
7470.000000	58.676600 
7469.000000	58.626246 
7468.000000	58.670783 
7467.000000	58.821463 
7466.000000	59.098434 
7465.000000	59.522128 
7464.000000	60.100364 
7463.000000	60.821485 
7462.000000	61.643409 
7461.000000	62.504434 
7460.000000	63.335943 
7459.000000	64.075875 
7458.000000	64.687871 
7457.000000	65.158486 
7456.000000	65.497303 
7455.000000	65.724563 
7454.000000	65.867638 
7453.000000	65.944814 
7452.000000	65.963506 
7451.000000	65.918564 
7450.000000	65.807700 
7449.000000	65.628385 
7448.000000	65.391445 
7447.000000	65.116190 
7446.000000	64.836144 
7445.000000	64.578986 
7444.000000	64.361000 
7443.000000	64.181137 
7442.000000	64.022874 
7441.000000	63.858389 
7440.000000	63.659667 
7439.000000	63.411331 
7438.000000	63.118290 
7437.000000	62.806916 
7436.000000	62.520098 
7435.000000	62.300777 
7434.000000	62.183880 
7433.000000	62.185192 
7432.000000	62.300229 
7431.000000	62.499499 
7430.000000	62.743854 
7429.000000	62.993001 
7428.000000	63.220906 
7427.000000	63.415789 
7426.000000	63.589286 
7425.000000	63.768577 
7424.000000	63.988494 
7423.000000	64.276981 
7422.000000	64.644336 
7421.000000	65.077304 
7420.000000	65.538048 
7419.000000	65.973567 
7418.000000	66.326737 
7417.000000	66.552567 
7416.000000	66.626572 
7415.000000	66.551685 
7414.000000	66.355705 
7413.000000	66.083955 
7412.000000	65.787863 
7411.000000	65.512895 
7410.000000	65.289425 
7409.000000	65.128231 
7408.000000	65.025091 
7407.000000	64.966082 
7406.000000	64.932751 
7405.000000	64.913344 
7404.000000	64.906835 
7403.000000	64.926815 
7402.000000	64.992523 
7401.000000	65.127277 
7400.000000	65.344929 
7399.000000	65.647172 
7398.000000	66.023135 
7397.000000	66.442251 
7396.000000	66.860914 
7395.000000	67.223906 
7394.000000	67.478704 
7393.000000	67.578577 
7392.000000	67.494821 
7391.000000	67.218232 
7390.000000	66.762995 
7389.000000	66.164493 
7388.000000	65.475630 
7387.000000	64.756131 
7386.000000	64.066267 
7385.000000	63.458561 
7384.000000	62.976408 
7383.000000	62.651968 
7382.000000	62.508964 
7381.000000	62.561917 
7380.000000	62.815904 
7379.000000	63.265562 
7378.000000	63.887572 
7377.000000	64.636278 
7376.000000	65.440607 
7375.000000	66.209268 
7374.000000	66.840910 
7373.000000	67.235851 
7372.000000	67.321491 
7371.000000	67.067432 
7370.000000	66.500425 
7369.000000	65.701341 
7368.000000	64.795923 
7367.000000	63.931202 
7366.000000	63.248062 
7365.000000	62.855339 
7364.000000	62.808322 
7363.000000	63.101696 
7362.000000	63.676047 
7361.000000	64.435553 
7360.000000	65.270876 
7359.000000	66.081714 
7358.000000	66.792774 
7357.000000	67.360472 
7356.000000	67.766880 
7355.000000	68.011283 
7354.000000	68.101119 
7353.000000	68.041443 
7352.000000	67.833971 
7351.000000	67.475080 
7350.000000	66.974592 
7349.000000	66.349911 
7348.000000	65.639162 
7347.000000	64.890742 
7346.000000	64.158892 
7345.000000	63.497996 
7344.000000	62.953829 
7343.000000	62.561702 
7342.000000	62.334585 
7341.000000	62.277030 
7340.000000	62.382769 
7339.000000	62.643361 
7338.000000	63.046598 
7337.000000	63.572978 
7336.000000	64.189624 
7335.000000	64.851069 
7334.000000	65.499925 
7333.000000	66.067647 
7332.000000	66.485047 
7331.000000	66.699862 
7330.000000	66.689610 
7329.000000	66.472959 
7328.000000	66.106271 
7327.000000	65.678334 
7326.000000	65.284442 
7325.000000	65.009927 
7324.000000	64.901351 
7323.000000	64.960956 
7322.000000	65.140128 
7321.000000	65.358304 
7320.000000	65.521216 
7319.000000	65.547180 
7318.000000	65.390515 
7317.000000	65.049099 
7316.000000	64.573907 
7315.000000	64.044976 
7314.000000	63.568806 
7313.000000	63.247227 
7312.000000	63.163661 
7311.000000	63.362121 
7310.000000	63.842487 
7309.000000	64.561557 
7308.000000	65.443348 
7307.000000	66.395473 
7306.000000	67.328906 
7305.000000	68.173933 
7304.000000	68.888640 
7303.000000	69.460439 
7302.000000	69.901752 
7301.000000	70.237755 
7300.000000	70.497012 
7299.000000	70.696210 
7298.000000	70.844960 
7297.000000	70.933127 
7296.000000	70.948886 
7295.000000	70.868277 
7294.000000	70.677542 
7293.000000	70.362019 
7292.000000	69.923591 
7291.000000	69.368052 
7290.000000	68.709707 
7289.000000	67.967343 
7288.000000	67.163038 
7287.000000	66.327714 
7286.000000	65.500235 
7285.000000	64.729738 
7284.000000	64.069938 
7283.000000	63.573288 
7282.000000	63.279581 
7281.000000	63.211512 
7280.000000	63.367080 
7279.000000	63.723969 
7278.000000	64.240217 
7277.000000	64.860606 
7276.000000	65.520858 
7275.000000	66.155505 
7274.000000	66.701579 
7273.000000	67.099475 
7272.000000	67.300081 
7271.000000	67.272782 
7270.000000	67.009258 
7269.000000	66.529893 
7268.000000	65.878605 
7267.000000	65.120911 
7266.000000	64.330792 
7265.000000	63.585400 
7264.000000	62.949180 
7263.000000	62.466478 
7262.000000	62.157988 
7261.000000	62.019848 
7260.000000	62.033033 
7259.000000	62.167096 
7258.000000	62.394285 
7257.000000	62.691450 
7256.000000	63.043713 
7255.000000	63.438296 
7254.000000	63.864755 
7253.000000	64.308118 
7252.000000	64.749026 
7251.000000	65.162253 
7250.000000	65.523195 
7249.000000	65.810966 
7248.000000	66.012358 
7247.000000	66.124653 
7246.000000	66.158032 
7245.000000	66.133356 
7244.000000	66.081285 
7243.000000	66.033387 
7242.000000	66.020274 
7241.000000	66.059565 
7240.000000	66.156697 
7239.000000	66.297817 
7238.000000	66.457581 
7237.000000	66.600203 
7236.000000	66.688108 
7235.000000	66.692018 
7234.000000	66.600656 
7233.000000	66.421699 
7232.000000	66.179132 
7231.000000	65.909433 
7230.000000	65.654230 
7229.000000	65.446686 
7228.000000	65.304660 
7227.000000	65.225815 
7226.000000	65.190315 
7225.000000	65.172195 
7224.000000	65.150713 
7223.000000	65.115380 
7222.000000	65.072345 
7221.000000	65.046906 
7220.000000	65.075993 
7219.000000	65.192222 
7218.000000	65.413832 
7217.000000	65.737771 
7216.000000	66.136455 
7215.000000	66.561055 
7214.000000	66.952872 
7213.000000	67.257213 
7212.000000	67.436981 
7211.000000	67.481064 
7210.000000	67.407536 
7209.000000	67.257642 
7208.000000	67.086553 
7207.000000	66.949152 
7206.000000	66.887593 
7205.000000	66.924905 
7204.000000	67.057156 
7203.000000	67.260503 
7202.000000	67.490959 
7201.000000	67.698049 
7200.000000	67.830610 
7199.000000	67.848825 
7198.000000	67.725896 
7197.000000	67.452931 
7196.000000	67.038488 
7195.000000	66.507554 
7194.000000	65.898799 
7193.000000	65.259504 
7192.000000	64.640951 
7191.000000	64.091563 
7190.000000	63.650941 
7189.000000	63.345408 
7188.000000	63.184881 
7187.000000	63.163375 
7186.000000	63.259720 
7185.000000	63.442850 
7184.000000	63.673543 
7183.000000	63.912844 
7182.000000	64.123511 
7181.000000	64.277791 
7180.000000	64.353370 
7179.000000	64.343857 
7178.000000	64.255619 
7177.000000	64.109706 
7176.000000	63.937520 
7175.000000	63.771939 
7174.000000	63.639974 
7173.000000	63.557410 
7172.000000	63.526988 
7171.000000	63.534688 
7170.000000	63.555812 
7169.000000	63.560938 
7168.000000	63.526821 
7167.000000	63.442468 
7166.000000	63.316559 
7165.000000	63.174104 
7164.000000	63.054156 
7163.000000	63.000226 
7162.000000	63.049411 
7161.000000	63.223528 
7160.000000	63.519334 
7159.000000	63.908052 
7158.000000	64.338183 
7157.000000	64.747619 
7156.000000	65.075230 
7155.000000	65.272188 
7154.000000	65.316271 
7153.000000	65.213727 
7152.000000	65.002536 
7151.000000	64.741110 
7150.000000	64.499282 
7149.000000	64.341139 
7148.000000	64.315724 
7147.000000	64.447832 
7146.000000	64.733743 
7145.000000	65.144228 
7144.000000	65.625762 
7143.000000	66.111111 
7142.000000	66.532444 
7141.000000	66.832590 
7140.000000	66.971635 
7139.000000	66.931557 
7138.000000	66.718745 
7137.000000	66.358661 
7136.000000	65.887928 
7135.000000	65.348696 
7134.000000	64.781856 
7133.000000	64.226198 
7132.000000	63.719677 
7131.000000	63.297319 
7130.000000	62.992429 
7129.000000	62.830281 
7128.000000	62.826776 
7127.000000	62.978935 
7126.000000	63.259005 
7125.000000	63.620114 
7124.000000	63.999915 
7123.000000	64.335322 
7122.000000	64.569211 
7121.000000	64.673423 
7120.000000	64.652037 
7119.000000	64.545965 
7118.000000	64.421081 
7117.000000	64.353752 
7116.000000	64.409947 
7115.000000	64.629840 
7114.000000	65.015769 
7113.000000	65.534210 
7112.000000	66.120767 
7111.000000	66.697382 
7110.000000	67.186331 
7109.000000	67.529797 
7108.000000	67.696285 
7107.000000	67.683863 
7106.000000	67.515587 
7105.000000	67.230796 
7104.000000	66.873908 
7103.000000	66.489958 
7102.000000	66.111564 
7101.000000	65.759587 
7100.000000	65.439844 
7099.000000	65.155863 
7098.000000	64.903569 
7097.000000	64.676904 
7096.000000	64.471960 
7095.000000	64.287638 
7094.000000	64.130163 
7093.000000	64.009881 
7092.000000	63.941049 
7091.000000	63.935542 
7090.000000	63.999891 
7089.000000	64.130258 
7088.000000	64.309144 
7087.000000	64.505910 
7086.000000	64.682888 
7085.000000	64.801406 
7084.000000	64.829039 
7083.000000	64.746356 
7082.000000	64.551544 
7081.000000	64.262080 
7080.000000	63.906121 
7079.000000	63.523936 
7078.000000	63.161277 
7077.000000	62.864947 
7076.000000	62.672567 
7075.000000	62.611770 
7074.000000	62.695360 
7073.000000	62.921738 
7072.000000	63.275456 
7071.000000	63.728785 
7070.000000	64.242339 
7069.000000	64.773178 
7068.000000	65.277814 
7067.000000	65.720009 
7066.000000	66.072940 
7065.000000	66.324663 
7064.000000	66.477084 
7063.000000	66.542434 
7062.000000	66.537332 
7061.000000	66.482019 
7060.000000	66.392874 
7059.000000	66.277170 
7058.000000	66.129660 
7057.000000	65.941953 
7056.000000	65.701818 
7055.000000	65.397691 
7054.000000	65.024685 
7053.000000	64.587783 
7052.000000	64.107203 
7051.000000	63.616394 
7050.000000	63.160538 
7049.000000	62.783098 
7048.000000	62.524127 
7047.000000	62.412977 
7046.000000	62.459802 
7045.000000	62.650775 
7044.000000	62.949585 
7043.000000	63.302874 
7042.000000	63.648796 
7041.000000	63.924717 
7040.000000	64.087867 
7039.000000	64.122462 
7038.000000	64.045691 
7037.000000	63.901948 
7036.000000	63.757753 
7035.000000	63.686561 
7034.000000	63.754415 
7033.000000	64.005613 
7032.000000	64.461755 
7031.000000	65.111374 
7030.000000	65.919661 
7029.000000	66.821289 
7028.000000	67.731189 
7027.000000	68.546938 
7026.000000	69.167470 
7025.000000	69.502425 
7024.000000	69.491171 
7023.000000	69.109916 
7022.000000	68.386840 
7021.000000	67.388272 
7020.000000	66.213846 
7019.000000	64.974117 
7018.000000	63.779354 
7017.000000	62.718224 
7016.000000	61.851835 
7015.000000	61.208224 
7014.000000	60.787487 
7013.000000	60.569477 
7012.000000	60.523796 
7011.000000	60.616326 
7010.000000	60.813212 
7009.000000	61.084318 
7008.000000	61.402225 
7007.000000	61.739110 
7006.000000	62.066626 
7005.000000	62.356114 
7004.000000	62.582445 
7003.000000	62.729263 
7002.000000	62.790822 
7001.000000	62.774968 
7000.000000	62.698864 
6999.000000	62.586379 
6998.000000	62.460207 
6997.000000	62.342262 
6996.000000	62.243604 
6995.000000	62.166213 
6994.000000	62.100434 
6993.000000	62.032914 
6992.000000	61.947369 
6991.000000	61.832666 
6990.000000	61.683416 
6989.000000	61.499166 
6988.000000	61.290574 
6987.000000	61.076617 
6986.000000	60.883450 
6985.000000	60.736513 
6984.000000	60.664796 
6983.000000	60.694837 
6982.000000	60.846424 
6981.000000	61.127376 
6980.000000	61.532473 
6979.000000	62.040901 
6978.000000	62.617683 
6977.000000	63.215446 
6976.000000	63.781499 
6975.000000	64.262771 
6974.000000	64.613771 
6973.000000	64.802217 
6972.000000	64.814925 
6971.000000	64.659285 
6970.000000	64.364123 
6969.000000	63.973712 
6968.000000	63.543915 
6967.000000	63.130402 
6966.000000	62.783741 
6965.000000	62.538552 
6964.000000	62.413859 
6963.000000	62.407660 
6962.000000	62.501502 
6961.000000	62.664675 
6960.000000	62.861490 
6959.000000	63.058733 
