PE IR       SPECTRUM    SPECTRUM    ASCII       PEDS        1.60        
  -1
C-9A6F~1.ASC
17/05/02
12:50:44.00
17/05/02
12:50:44.00
tln
$C-4040-8_t0024$<tbV0>[-12.5,2.0,8.0,0.0,22,1,0]
370.000000
64









2002,4.07    
MIRTGS : RIGHTBACK : INTERNAL 2
MIR : ON : INTERNAL 2
OPTKBR

0.200000
8
8.000000
FILLER
RATIO
SPECTRUM
UNLOCKED 256

DOUBLE
64
COMBINED
1
0
0


1.000000
RATIO


1
0
TRUE
51149
0
LEFT NOT FITTED RIGHT NOT FITTED 0
NONE
NONE
15600
12.000000
4.427000
51148
TRUE
1 0 8 72 0 0 0 0 

15798.010000






#HDR
-1
-1
#GR
CM-1
%T
0.00002384185791015625
0.0
7800.000000
-1.000000
7431
8
85.814619
43.503069
#DATA
7800.000000	61.517667 
7799.000000	61.397457 
7798.000000	61.335635 
7797.000000	61.311793 
7796.000000	61.320734 
7795.000000	61.361408 
7794.000000	61.426901 
7793.000000	61.496424 
7792.000000	61.564111 
7791.000000	61.643552 
7790.000000	61.784720 
7789.000000	62.060809 
7788.000000	62.554740 
7787.000000	63.320636 
7786.000000	64.366960 
7785.000000	65.623092 
7784.000000	66.939854 
7783.000000	68.105459 
7782.000000	68.894314 
7781.000000	69.114899 
7780.000000	68.660664 
7779.000000	67.541241 
7778.000000	65.895628 
7777.000000	63.958430 
7776.000000	62.007570 
7775.000000	60.309839 
7774.000000	59.069442 
7773.000000	58.390045 
7772.000000	58.265995 
7771.000000	58.601140 
7770.000000	59.251832 
7769.000000	60.054135 
7768.000000	60.862588 
7767.000000	61.578440 
7766.000000	62.158441 
7765.000000	62.632989 
7764.000000	63.081741 
7763.000000	63.616561 
7762.000000	64.333462 
7761.000000	65.278482 
7760.000000	66.414713 
7759.000000	67.629647 
7758.000000	68.744254 
7757.000000	69.566249 
7756.000000	69.922924 
7755.000000	69.719219 
7754.000000	68.949580 
7753.000000	67.697906 
7752.000000	66.127848 
7751.000000	64.438629 
7750.000000	62.846159 
7749.000000	61.544871 
7748.000000	60.681605 
7747.000000	60.345745 
7746.000000	60.547757 
7745.000000	61.227130 
7744.000000	62.262368 
7743.000000	63.497233 
7742.000000	64.760255 
7741.000000	65.888023 
7740.000000	66.760015 
7739.000000	67.310810 
7738.000000	67.552542 
7737.000000	67.561721 
7736.000000	67.460179 
7735.000000	67.377972 
7734.000000	67.423582 
7733.000000	67.655062 
7732.000000	68.063092 
7731.000000	68.582558 
7730.000000	69.132614 
7729.000000	69.634819 
7728.000000	70.045518 
7727.000000	70.356512 
7726.000000	70.596289 
7725.000000	70.808887 
7724.000000	71.020627 
7723.000000	71.242809 
7722.000000	71.460747 
7721.000000	71.650099 
7720.000000	71.793627 
7719.000000	71.887922 
7718.000000	71.952700 
7717.000000	72.025275 
7716.000000	72.156143 
7715.000000	72.381234 
7714.000000	72.707653 
7713.000000	73.109412 
7712.000000	73.530364 
7711.000000	73.897910 
7710.000000	74.137759 
7709.000000	74.197769 
7708.000000	74.051809 
7707.000000	73.699402 
7706.000000	73.155331 
7705.000000	72.438859 
7704.000000	71.566963 
7703.000000	70.553135 
7702.000000	69.414019 
7701.000000	68.181109 
7700.000000	66.905283 
7699.000000	65.663957 
7698.000000	64.547085 
7697.000000	63.637304 
7696.000000	62.999320 
7695.000000	62.659788 
7694.000000	62.608122 
7693.000000	62.783527 
7692.000000	63.110637 
7691.000000	63.503026 
7690.000000	63.906764 
7689.000000	64.298462 
7688.000000	64.711284 
7687.000000	65.214061 
7686.000000	65.894150 
7685.000000	66.820669 
7684.000000	68.021488 
7683.000000	69.463300 
7682.000000	71.051287 
7681.000000	72.642874 
7680.000000	74.088644 
7679.000000	75.255680 
7678.000000	76.063513 
7677.000000	76.483798 
7676.000000	76.544237 
7675.000000	76.303505 
7674.000000	75.835990 
7673.000000	75.209259 
7672.000000	74.475002 
7671.000000	73.669815 
7670.000000	72.841429 
7669.000000	72.039484 
7668.000000	71.322131 
7667.000000	70.754241 
7666.000000	70.406079 
7665.000000	70.330500 
7664.000000	70.546221 
7663.000000	71.028637 
7662.000000	71.706199 
7661.000000	72.470712 
7660.000000	73.195123 
7659.000000	73.755455 
7658.000000	74.051952 
7657.000000	74.032425 
7656.000000	73.697376 
7655.000000	73.087906 
7654.000000	72.269678 
7653.000000	71.320843 
7652.000000	70.312976 
7651.000000	69.292163 
7650.000000	68.285751 
7649.000000	67.311143 
7648.000000	66.397857 
7647.000000	65.582752 
7646.000000	64.936709 
7645.000000	64.553213 
7644.000000	64.538717 
7643.000000	64.976620 
7642.000000	65.904235 
7641.000000	67.277908 
7640.000000	68.978428 
7639.000000	70.818042 
7638.000000	72.579169 
7637.000000	74.051189 
7636.000000	75.078988 
7635.000000	75.595569 
7634.000000	75.618195 
7633.000000	75.235986 
7632.000000	74.574947 
7631.000000	73.762965 
7630.000000	72.896122 
7629.000000	72.022390 
7628.000000	71.142792 
7627.000000	70.227479 
7626.000000	69.247841 
7625.000000	68.198251 
7624.000000	67.111563 
7623.000000	66.060352 
7622.000000	65.132999 
7621.000000	64.422893 
7620.000000	63.987040 
7619.000000	63.851094 
7618.000000	63.989019 
7617.000000	64.349317 
7616.000000	64.859914 
7615.000000	65.456581 
7614.000000	66.086101 
7613.000000	66.722798 
7612.000000	67.352986 
7611.000000	67.982196 
7610.000000	68.620371 
7609.000000	69.268035 
7608.000000	69.906926 
7607.000000	70.494246 
7606.000000	70.971298 
7605.000000	71.265053 
7604.000000	71.307826 
7603.000000	71.054816 
7602.000000	70.499062 
7601.000000	69.681859 
7600.000000	68.686628 
7599.000000	67.616844 
7598.000000	66.577434 
7597.000000	65.659356 
7596.000000	64.924120 
7595.000000	64.396309 
7594.000000	64.066982 
7593.000000	63.907194 
7592.000000	63.877105 
7591.000000	63.932371 
7590.000000	64.036989 
7589.000000	64.163303 
7588.000000	64.293622 
7587.000000	64.408540 
7586.000000	64.490318 
7585.000000	64.515471 
7584.000000	64.461565 
7583.000000	64.309382 
7582.000000	64.051294 
7581.000000	63.693022 
7580.000000	63.265442 
7579.000000	62.822818 
7578.000000	62.434864 
7577.000000	62.172126 
7576.000000	62.098479 
7575.000000	62.254595 
7574.000000	62.644267 
7573.000000	63.228917 
7572.000000	63.929915 
7571.000000	64.643239 
7570.000000	65.258169 
7569.000000	65.684366 
7568.000000	65.861582 
7567.000000	65.783572 
7566.000000	65.498399 
7565.000000	65.101575 
7564.000000	64.709210 
7563.000000	64.434432 
7562.000000	64.368605 
7561.000000	64.552593 
7560.000000	64.972496 
7559.000000	65.560102 
7558.000000	66.217947 
7557.000000	66.835165 
7556.000000	67.319583 
7555.000000	67.606544 
7554.000000	67.672777 
7553.000000	67.523765 
7552.000000	67.185759 
7551.000000	66.690206 
7550.000000	66.065597 
7549.000000	65.341758 
7548.000000	64.553737 
7547.000000	63.752388 
7546.000000	63.005995 
7545.000000	62.395644 
7544.000000	62.003803 
7543.000000	61.894559 
7542.000000	62.100672 
7541.000000	62.605977 
7540.000000	63.352584 
7539.000000	64.239454 
7538.000000	65.154647 
7537.000000	65.994548 
7536.000000	66.689133 
7535.000000	67.208266 
7534.000000	67.564249 
7533.000000	67.799425 
7532.000000	67.966437 
7531.000000	68.110036 
7530.000000	68.249464 
7529.000000	68.379616 
7528.000000	68.467020 
7527.000000	68.470954 
7526.000000	68.348908 
7525.000000	68.078899 
7524.000000	67.659473 
7523.000000	67.116570 
7522.000000	66.500568 
7521.000000	65.879344 
7520.000000	65.327692 
7519.000000	64.915275 
7518.000000	64.694333 
7517.000000	64.691400 
7516.000000	64.907240 
7515.000000	65.314722 
7514.000000	65.860915 
7513.000000	66.476130 
7512.000000	67.083191 
7511.000000	67.610406 
7510.000000	67.999076 
7509.000000	68.213200 
7508.000000	68.242740 
7507.000000	68.100166 
7506.000000	67.818927 
7505.000000	67.438530 
7504.000000	66.999840 
7503.000000	66.532921 
7502.000000	66.061043 
7501.000000	65.593004 
7500.000000	65.131616 
7499.000000	64.675569 
7498.000000	64.228129 
7497.000000	63.799214 
7496.000000	63.407230 
7495.000000	63.080906 
7494.000000	62.854385 
7493.000000	62.758183 
7492.000000	62.812113 
7491.000000	63.016438 
7490.000000	63.351464 
7489.000000	63.777565 
7488.000000	64.245796 
7487.000000	64.702153 
7486.000000	65.104722 
7485.000000	65.427827 
7484.000000	65.670490 
7483.000000	65.853166 
7482.000000	66.009593 
7481.000000	66.175055 
7480.000000	66.373395 
7479.000000	66.613698 
7478.000000	66.880106 
7477.000000	67.141532 
7476.000000	67.352128 
7475.000000	67.469048 
7474.000000	67.457628 
7473.000000	67.306494 
7472.000000	67.021775 
7471.000000	66.627287 
7470.000000	66.157317 
7469.000000	65.650725 
7468.000000	65.144562 
7467.000000	64.670848 
7466.000000	64.258980 
7465.000000	63.935136 
7464.000000	63.721013 
7463.000000	63.632130 
7462.000000	63.676309 
7461.000000	63.849258 
7460.000000	64.131164 
7459.000000	64.486360 
7458.000000	64.862656 
7457.000000	65.201783 
7456.000000	65.444827 
7455.000000	65.550065 
7454.000000	65.494346 
7453.000000	65.288901 
7452.000000	64.979100 
7451.000000	64.633440 
7450.000000	64.332985 
7449.000000	64.142251 
7448.000000	64.094924 
7447.000000	64.181518 
7446.000000	64.353704 
7445.000000	64.538621 
7444.000000	64.661216 
7443.000000	64.667725 
7442.000000	64.542603 
7441.000000	64.312219 
7440.000000	64.037990 
7439.000000	63.798403 
7438.000000	63.667750 
7437.000000	63.695359 
7436.000000	63.892889 
7435.000000	64.236307 
7434.000000	64.670419 
7433.000000	65.126776 
7432.000000	65.536856 
7431.000000	65.848731 
7430.000000	66.034913 
7429.000000	66.091203 
7428.000000	66.038465 
7427.000000	65.904831 
7426.000000	65.730452 
7425.000000	65.559029 
7424.000000	65.432596 
7423.000000	65.389299 
7422.000000	65.452456 
7421.000000	65.630626 
7420.000000	65.910506 
7419.000000	66.261887 
7418.000000	66.638898 
7417.000000	66.988801 
7416.000000	67.265248 
7415.000000	67.437601 
7414.000000	67.497730 
7413.000000	67.459630 
7412.000000	67.355728 
7411.000000	67.225980 
7410.000000	67.107462 
7409.000000	67.023015 
7408.000000	66.977906 
7407.000000	66.957449 
7406.000000	66.939091 
7405.000000	66.894125 
7404.000000	66.803193 
7403.000000	66.653966 
7402.000000	66.443324 
7401.000000	66.177582 
7400.000000	65.862011 
7399.000000	65.512061 
7398.000000	65.149641 
7397.000000	64.807152 
7396.000000	64.522767 
7395.000000	64.335823 
7394.000000	64.277386 
7393.000000	64.364743 
7392.000000	64.593720 
7391.000000	64.941954 
7390.000000	65.370988 
7389.000000	65.835118 
7388.000000	66.288256 
7387.000000	66.692423 
7386.000000	67.021083 
7385.000000	67.258358 
7384.000000	67.397260 
7383.000000	67.436146 
7382.000000	67.377376 
7381.000000	67.227864 
7380.000000	66.999650 
7379.000000	66.715240 
7378.000000	66.403174 
7377.000000	66.103363 
7376.000000	65.852165 
7375.000000	65.676808 
7374.000000	65.587186 
7373.000000	65.571737 
7372.000000	65.605354 
7371.000000	65.654206 
7370.000000	65.691161 
7369.000000	65.702867 
7368.000000	65.694880 
7367.000000	65.688347 
7366.000000	65.710854 
7365.000000	65.784692 
7364.000000	65.916562 
7363.000000	66.091346 
7362.000000	66.276621 
7361.000000	66.430568 
7360.000000	66.516971 
7359.000000	66.516041 
7358.000000	66.433572 
7357.000000	66.299319 
7356.000000	66.156291 
7355.000000	66.048216 
7354.000000	66.006207 
7353.000000	66.040706 
7352.000000	66.137337 
7351.000000	66.264176 
7350.000000	66.385912 
7349.000000	66.472625 
7348.000000	66.512346 
7347.000000	66.509103 
7346.000000	66.481065 
7345.000000	66.449999 
7344.000000	66.431593 
7343.000000	66.429376 
7342.000000	66.429042 
7341.000000	66.408824 
7340.000000	66.348338 
7339.000000	66.237497 
7338.000000	66.083693 
7337.000000	65.910220 
7336.000000	65.751886 
7335.000000	65.645527 
7334.000000	65.620875 
7333.000000	65.697407 
7332.000000	65.882205 
7331.000000	66.174721 
7330.000000	66.569590 
7329.000000	67.062973 
7328.000000	67.649698 
7327.000000	68.323063 
7326.000000	69.064307 
7325.000000	69.838666 
7324.000000	70.589423 
7323.000000	71.246886 
7322.000000	71.732521 
7321.000000	71.980929 
7320.000000	71.945381 
7319.000000	71.618366 
7318.000000	71.025156 
7317.000000	70.228528 
7316.000000	69.311022 
7315.000000	68.361806 
7314.000000	67.465662 
7313.000000	66.694879 
7312.000000	66.101622 
7311.000000	65.716505 
7310.000000	65.548920 
7309.000000	65.590858 
7308.000000	65.816116 
7307.000000	66.184186 
7306.000000	66.645002 
7305.000000	67.145133 
7304.000000	67.632818 
7303.000000	68.065810 
7302.000000	68.417096 
7301.000000	68.676996 
7300.000000	68.855953 
7299.000000	68.973588 
7298.000000	69.055056 
7297.000000	69.113826 
7296.000000	69.151711 
7295.000000	69.148612 
7294.000000	69.077587 
7293.000000	68.902301 
7292.000000	68.596005 
7291.000000	68.143415 
7290.000000	67.554640 
7289.000000	66.859674 
7288.000000	66.106438 
7287.000000	65.351438 
7286.000000	64.648532 
7285.000000	64.042282 
7284.000000	63.561987 
7283.000000	63.217759 
7282.000000	63.000178 
7281.000000	62.891936 
7280.000000	62.874674 
7279.000000	62.935447 
7278.000000	63.070130 
7277.000000	63.283610 
7276.000000	63.585114 
7275.000000	63.982558 
7274.000000	64.473676 
7273.000000	65.038967 
7272.000000	65.638041 
7271.000000	66.217255 
7270.000000	66.712856 
7269.000000	67.064142 
7268.000000	67.222666 
7267.000000	67.166757 
7266.000000	66.902470 
7265.000000	66.465973 
7264.000000	65.914487 
7263.000000	65.317678 
7262.000000	64.744710 
7261.000000	64.254665 
7260.000000	63.889288 
7259.000000	63.670349 
7258.000000	63.602280 
7257.000000	63.676786 
7256.000000	63.877153 
7255.000000	64.181303 
7254.000000	64.566826 
7253.000000	65.010738 
7252.000000	65.488219 
7251.000000	65.970826 
7250.000000	66.428279 
7249.000000	66.828560 
7248.000000	67.142963 
7247.000000	67.346596 
7246.000000	67.425036 
7245.000000	67.371654 
7244.000000	67.192506 
7243.000000	66.900038 
7242.000000	66.515874 
7241.000000	66.063332 
7240.000000	65.570616 
7239.000000	65.063476 
7238.000000	64.567160 
7237.000000	64.102435 
7236.000000	63.689017 
7235.000000	63.340616 
7234.000000	63.065242 
7233.000000	62.863540 
7232.000000	62.725639 
7231.000000	62.638878 
7230.000000	62.587523 
7229.000000	62.561130 
7228.000000	62.553739 
7227.000000	62.567591 
7226.000000	62.609314 
7225.000000	62.684106 
7224.000000	62.791228 
7223.000000	62.919282 
7222.000000	63.048291 
7221.000000	63.156414 
7220.000000	63.226509 
7219.000000	63.252925 
7218.000000	63.242435 
7217.000000	63.215517 
7216.000000	63.196182 
7215.000000	63.204765 
7214.000000	63.249015 
7213.000000	63.318705 
7212.000000	63.390517 
7211.000000	63.435125 
7210.000000	63.429093 
7209.000000	63.361454 
7208.000000	63.242816 
7207.000000	63.108325 
7206.000000	63.002920 
7205.000000	62.967705 
7204.000000	63.027906 
7203.000000	63.183617 
7202.000000	63.410162 
7201.000000	63.663983 
7200.000000	63.896942 
7199.000000	64.069795 
7198.000000	64.163541 
7197.000000	64.183926 
7196.000000	64.155936 
7195.000000	64.114665 
7194.000000	64.093947 
7193.000000	64.115071 
7192.000000	64.178895 
7191.000000	64.267182 
7190.000000	64.349865 
7189.000000	64.397025 
7188.000000	64.389157 
7187.000000	64.328002 
7186.000000	64.236211 
7185.000000	64.156460 
7184.000000	64.137840 
7183.000000	64.225554 
7182.000000	64.447236 
7181.000000	64.803504 
7180.000000	65.267539 
7179.000000	65.785408 
7178.000000	66.290068 
7177.000000	66.710638 
7176.000000	66.989374 
7175.000000	67.089915 
7174.000000	67.004251 
7173.000000	66.752576 
7172.000000	66.377592 
7171.000000	65.932488 
7170.000000	65.469264 
7169.000000	65.028500 
7168.000000	64.633560 
7167.000000	64.292836 
7166.000000	64.003753 
7165.000000	63.757491 
7164.000000	63.548421 
7163.000000	63.376832 
7162.000000	63.254070 
7161.000000	63.194751 
7160.000000	63.216662 
7159.000000	63.331961 
7158.000000	63.541626 
7157.000000	63.829135 
7156.000000	64.161634 
7155.000000	64.491701 
7154.000000	64.769291 
7153.000000	64.949131 
7152.000000	65.006470 
7151.000000	64.941382 
7150.000000	64.782857 
7149.000000	64.582300 
7148.000000	64.400005 
7147.000000	64.290380 
7146.000000	64.285159 
7145.000000	64.385628 
7144.000000	64.558529 
7143.000000	64.745593 
7142.000000	64.879631 
7141.000000	64.903712 
7140.000000	64.785718 
7139.000000	64.527988 
7138.000000	64.167952 
7137.000000	63.767123 
7136.000000	63.391733 
7135.000000	63.097357 
7134.000000	62.912464 
7133.000000	62.837457 
7132.000000	62.847805 
7131.000000	62.906956 
7130.000000	62.980842 
7129.000000	63.048458 
7128.000000	63.107228 
7127.000000	63.171505 
7126.000000	63.259792 
7125.000000	63.391113 
7124.000000	63.572192 
7123.000000	63.796710 
7122.000000	64.041137 
7121.000000	64.279365 
7120.000000	64.489865 
7119.000000	64.665412 
7118.000000	64.815521 
7117.000000	64.961838 
7116.000000	65.129041 
7115.000000	65.334725 
7114.000000	65.579366 
7113.000000	65.841722 
7112.000000	66.080474 
7111.000000	66.246318 
7110.000000	66.293287 
7109.000000	66.192579 
7108.000000	65.941810 
7107.000000	65.569758 
7106.000000	65.129756 
7105.000000	64.690256 
7104.000000	64.315962 
7103.000000	64.058017 
7102.000000	63.935446 
7101.000000	63.934350 
7100.000000	64.008545 
7099.000000	64.093708 
7098.000000	64.124703 
7097.000000	64.052486 
7096.000000	63.859462 
7095.000000	63.561868 
7094.000000	63.208079 
7093.000000	62.862730 
7092.000000	62.593221 
7091.000000	62.450885 
7090.000000	62.459683 
7089.000000	62.610769 
7088.000000	62.865734 
7087.000000	63.167953 
7086.000000	63.460969 
7085.000000	63.702273 
7084.000000	63.869714 
7083.000000	63.964772 
7082.000000	64.006900 
7081.000000	64.024734 
7080.000000	64.041733 
7079.000000	64.070177 
7078.000000	64.109873 
7077.000000	64.146971 
7076.000000	64.163517 
7075.000000	64.141225 
7074.000000	64.068198 
7073.000000	63.947319 
7072.000000	63.794946 
7071.000000	63.645339 
7070.000000	63.540387 
7069.000000	63.527417 
7068.000000	63.646721 
7067.000000	63.922572 
7066.000000	64.355349 
7065.000000	64.915943 
7064.000000	65.549063 
7063.000000	66.175651 
7062.000000	66.706705 
7061.000000	67.061448 
7060.000000	67.183446 
7059.000000	67.049193 
7058.000000	66.672897 
7057.000000	66.109728 
7056.000000	65.439558 
7055.000000	64.749503 
7054.000000	64.114618 
7053.000000	63.588070 
7052.000000	63.192129 
7051.000000	62.924075 
7050.000000	62.761259 
7049.000000	62.673878 
7048.000000	62.634873 
7047.000000	62.628245 
7046.000000	62.649750 
7045.000000	62.696146 
7044.000000	62.769174 
7043.000000	62.864804 
7042.000000	62.975311 
7041.000000	63.082432 
7040.000000	63.172268 
7039.000000	63.238286 
7038.000000	63.288187 
7037.000000	63.343429 
7036.000000	63.438153 
7035.000000	63.612604 
7034.000000	63.901853 
7033.000000	64.328622 
7032.000000	64.902257 
7031.000000	65.613675 
7030.000000	66.438651 
7029.000000	67.334580 
7028.000000	68.249464 
7027.000000	69.119095 
7026.000000	69.880437 
7025.000000	70.469141 
7024.000000	70.832753 
7023.000000	70.930671 
7022.000000	70.753073 
7021.000000	70.310044 
7020.000000	69.640278 
7019.000000	68.797516 
7018.000000	67.853426 
7017.000000	66.879034 
7016.000000	65.943050 
7015.000000	65.098953 
7014.000000	64.385056 
7013.000000	63.820457 
7012.000000	63.408637 
7011.000000	63.140845 
7010.000000	63.000798 
7009.000000	62.966942 
7008.000000	63.015961 
7007.000000	63.120365 
7006.000000	63.252735 
7005.000000	63.388657 
7004.000000	63.510775 
7003.000000	63.606953 
7002.000000	63.672804 
7001.000000	63.711333 
7000.000000	63.729715 
6999.000000	63.737130 
6998.000000	63.738107 
6997.000000	63.735342 
6996.000000	63.721323 
6995.000000	63.682723 
6994.000000	63.599944 
6993.000000	63.452911 
6992.000000	63.229298 
6991.000000	62.927007 
6990.000000	62.565636 
6989.000000	62.182068 
6988.000000	61.833357 
6987.000000	61.584520 
6986.000000	61.496448 
6985.000000	61.609911 
6984.000000	61.934804 
6983.000000	62.444972 
6982.000000	63.074827 
6981.000000	63.731884 
6980.000000	64.315176 
6979.000000	64.739274 
6978.000000	64.952135 
6977.000000	64.948844 
6976.000000	64.772653 
6975.000000	64.503645 
6974.000000	64.237499 
6973.000000	64.060997 
6972.000000	64.033198 
6971.000000	64.170622 
6970.000000	64.450931 
6969.000000	64.818239 
6968.000000	65.207481 
6967.000000	65.554809 
6966.000000	65.819048 
6965.000000	65.980839 
6964.000000	66.043877 
6963.000000	66.024088 
6962.000000	65.938878 
6961.000000	65.799570 
6960.000000	65.607070 
6959.000000	65.356373 
