PE IR       SPECTRUM    SPECTRUM    ASCII       PEDS        1.60        
  -1
C-1A6F~1.ASC
17/05/02
12:03:16.00
17/05/02
12:03:16.00
tln
$C-4040-8_t0014$<tbV0>[7.5,-3.0,8.0,0.0,22,1,0]
370.000000
64









2002,4.07    
MIRTGS : RIGHTBACK : INTERNAL 2
MIR : ON : INTERNAL 2
OPTKBR

0.200000
8
8.000000
FILLER
RATIO
SPECTRUM
UNLOCKED 256

DOUBLE
64
COMBINED
1
0
0


1.000000
RATIO


1
0
TRUE
51149
0
LEFT NOT FITTED RIGHT NOT FITTED 0
NONE
NONE
15600
12.000000
4.427000
51148
TRUE
1 0 8 72 0 0 0 0 

15798.010000






#HDR
-1
-1
#GR
CM-1
%T
0.00002384185791015625
0.0
7800.000000
-1.000000
7431
8
93.418836
37.747263
#DATA
7800.000000	56.919169 
7799.000000	58.676171 
7798.000000	60.567378 
7797.000000	62.427186 
7796.000000	64.106154 
7795.000000	65.479159 
7794.000000	66.464257 
7793.000000	67.026901 
7792.000000	67.201852 
7791.000000	67.081546 
7790.000000	66.797852 
7789.000000	66.491413 
7788.000000	66.287255 
7787.000000	66.265702 
7786.000000	66.460323 
7785.000000	66.852211 
7784.000000	67.375612 
7783.000000	67.949223 
7782.000000	68.503427 
7781.000000	69.008135 
7780.000000	69.468641 
7779.000000	69.935512 
7778.000000	70.493817 
7777.000000	71.221041 
7776.000000	72.155427 
7775.000000	73.266291 
7774.000000	74.469304 
7773.000000	75.606369 
7772.000000	76.483368 
7771.000000	76.911711 
7770.000000	76.759147 
7769.000000	75.997352 
7768.000000	74.721932 
7767.000000	73.139810 
7766.000000	71.526312 
7765.000000	70.173883 
7764.000000	69.322180 
7763.000000	69.099712 
7762.000000	69.488835 
7761.000000	70.342302 
7760.000000	71.409344 
7759.000000	72.397303 
7758.000000	73.033642 
7757.000000	73.116993 
7756.000000	72.566032 
7755.000000	71.410560 
7754.000000	69.802665 
7753.000000	67.957711 
7752.000000	66.134548 
7751.000000	64.571690 
7750.000000	63.462281 
7749.000000	62.932682 
7748.000000	63.017201 
7747.000000	63.677763 
7746.000000	64.789724 
7745.000000	66.170287 
7744.000000	67.602562 
7743.000000	68.863415 
7742.000000	69.778895 
7741.000000	70.246386 
7740.000000	70.253610 
7739.000000	69.867753 
7738.000000	69.209003 
7737.000000	68.414759 
7736.000000	67.607951 
7735.000000	66.873216 
7734.000000	66.253018 
7733.000000	65.751218 
7732.000000	65.362691 
7731.000000	65.080523 
7730.000000	64.905929 
7729.000000	64.853143 
7728.000000	64.924097 
7727.000000	65.127563 
7726.000000	65.457892 
7725.000000	65.915012 
7724.000000	66.489076 
7723.000000	67.176198 
7722.000000	67.969775 
7721.000000	68.860387 
7720.000000	69.842576 
7719.000000	70.880985 
7718.000000	71.906018 
7717.000000	72.816109 
7716.000000	73.493552 
7715.000000	73.835921 
7714.000000	73.785519 
7713.000000	73.352265 
7712.000000	72.618174 
7711.000000	71.731543 
7710.000000	70.871949 
7709.000000	70.202422 
7708.000000	69.823789 
7707.000000	69.752073 
7706.000000	69.908428 
7705.000000	70.143675 
7704.000000	70.277667 
7703.000000	70.141267 
7702.000000	69.636631 
7701.000000	68.752121 
7700.000000	67.593312 
7699.000000	66.344618 
7698.000000	65.249538 
7697.000000	64.534807 
7696.000000	64.377164 
7695.000000	64.863109 
7694.000000	65.962100 
7693.000000	67.539882 
7692.000000	69.372129 
7691.000000	71.199250 
7690.000000	72.761034 
7689.000000	73.846864 
7688.000000	74.325299 
7687.000000	74.159598 
7686.000000	73.405051 
7685.000000	72.187948 
7684.000000	70.674920 
7683.000000	69.038748 
7682.000000	67.437434 
7681.000000	65.993285 
7680.000000	64.790153 
7679.000000	63.870358 
7678.000000	63.252687 
7677.000000	62.931299 
7676.000000	62.879228 
7675.000000	63.051462 
7674.000000	63.377714 
7673.000000	63.776659 
7672.000000	64.153480 
7671.000000	64.423918 
7670.000000	64.509320 
7669.000000	64.370155 
7668.000000	64.002609 
7667.000000	63.455104 
7666.000000	62.814927 
7665.000000	62.196111 
7664.000000	61.709666 
7663.000000	61.449384 
7662.000000	61.470985 
7661.000000	61.787319 
7660.000000	62.369322 
7659.000000	63.150691 
7658.000000	64.041948 
7657.000000	64.950704 
7656.000000	65.797328 
7655.000000	66.521000 
7654.000000	67.085266 
7653.000000	67.479133 
7652.000000	67.707490 
7651.000000	67.795825 
7650.000000	67.767119 
7649.000000	67.632150 
7648.000000	67.381453 
7647.000000	67.002391 
7646.000000	66.480064 
7645.000000	65.809106 
7644.000000	65.010356 
7643.000000	64.136385 
7642.000000	63.275098 
7641.000000	62.535357 
7640.000000	62.030744 
7639.000000	61.850476 
7638.000000	62.042117 
7637.000000	62.596344 
7636.000000	63.443374 
7635.000000	64.463400 
7634.000000	65.506410 
7633.000000	66.420269 
7632.000000	67.077302 
7631.000000	67.396712 
7630.000000	67.351031 
7629.000000	66.967415 
7628.000000	66.315579 
7627.000000	65.494370 
7626.000000	64.619565 
7625.000000	63.806033 
7624.000000	63.154673 
7623.000000	62.738823 
7622.000000	62.607455 
7621.000000	62.772703 
7620.000000	63.211560 
7619.000000	63.866662 
7618.000000	64.653396 
7617.000000	65.473723 
7616.000000	66.225719 
7615.000000	66.824460 
7614.000000	67.206525 
7613.000000	67.347884 
7612.000000	67.263197 
7611.000000	67.000985 
7610.000000	66.628932 
7609.000000	66.222739 
7608.000000	65.853452 
7607.000000	65.574240 
7606.000000	65.415406 
7605.000000	65.385007 
7604.000000	65.474009 
7603.000000	65.657329 
7602.000000	65.899944 
7601.000000	66.160202 
7600.000000	66.394281 
7599.000000	66.557836 
7598.000000	66.611099 
7597.000000	66.523075 
7596.000000	66.278672 
7595.000000	65.876126 
7594.000000	65.337491 
7593.000000	64.708590 
7592.000000	64.057588 
7591.000000	63.463854 
7590.000000	63.006782 
7589.000000	62.752628 
7588.000000	62.738943 
7587.000000	62.968873 
7586.000000	63.405323 
7585.000000	63.969659 
7584.000000	64.569664 
7583.000000	65.117168 
7582.000000	65.549778 
7581.000000	65.835785 
7580.000000	65.990638 
7579.000000	66.065335 
7578.000000	66.136431 
7577.000000	66.281604 
7576.000000	66.564154 
7575.000000	67.014598 
7574.000000	67.626261 
7573.000000	68.355727 
7572.000000	69.132781 
7571.000000	69.877672 
7570.000000	70.520377 
7569.000000	71.016383 
7568.000000	71.356821 
7567.000000	71.563625 
7566.000000	71.687150 
7565.000000	71.777057 
7564.000000	71.874618 
7563.000000	71.983075 
7562.000000	72.079658 
7561.000000	72.102093 
7560.000000	71.974945 
7559.000000	71.624302 
7558.000000	71.010208 
7557.000000	70.137953 
7556.000000	69.066977 
7555.000000	67.900943 
7554.000000	66.768336 
7553.000000	65.793561 
7552.000000	65.070557 
7551.000000	64.640903 
7550.000000	64.487576 
7549.000000	64.549708 
7548.000000	64.744091 
7547.000000	64.986872 
7546.000000	65.217375 
7545.000000	65.409922 
7544.000000	65.576124 
7543.000000	65.745210 
7542.000000	65.951752 
7541.000000	66.215252 
7540.000000	66.531324 
7539.000000	66.864371 
7538.000000	67.159938 
7537.000000	67.366838 
7536.000000	67.447280 
7535.000000	67.393612 
7534.000000	67.226648 
7533.000000	66.991519 
7532.000000	66.745305 
7531.000000	66.540765 
7530.000000	66.416597 
7529.000000	66.388201 
7528.000000	66.450142 
7527.000000	66.584610 
7526.000000	66.761302 
7525.000000	66.946935 
7524.000000	67.111444 
7523.000000	67.234539 
7522.000000	67.303133 
7521.000000	67.312145 
7520.000000	67.267513 
7519.000000	67.182779 
7518.000000	67.077088 
7517.000000	66.968417 
7516.000000	66.872644 
7515.000000	66.795182 
7514.000000	66.733407 
7513.000000	66.672492 
7512.000000	66.587257 
7511.000000	66.450500 
7510.000000	66.241002 
7509.000000	65.953683 
7508.000000	65.599489 
7507.000000	65.211892 
7506.000000	64.839458 
7505.000000	64.538812 
7504.000000	64.358115 
7503.000000	64.330625 
7502.000000	64.464664 
7501.000000	64.744138 
7500.000000	65.132284 
7499.000000	65.576934 
7498.000000	66.019964 
7497.000000	66.409206 
7496.000000	66.706705 
7495.000000	66.892957 
7494.000000	66.966605 
7493.000000	66.938805 
7492.000000	66.826725 
7491.000000	66.650438 
7490.000000	66.426348 
7489.000000	66.168260 
7488.000000	65.884137 
7487.000000	65.582275 
7486.000000	65.268349 
7485.000000	64.954352 
7484.000000	64.651226 
7483.000000	64.365315 
7482.000000	64.099907 
7481.000000	63.852548 
7480.000000	63.622641 
7479.000000	63.405227 
7478.000000	63.207912 
7477.000000	63.045763 
7476.000000	62.949609 
7475.000000	62.956261 
7474.000000	63.102483 
7473.000000	63.411498 
7472.000000	63.881897 
7471.000000	64.482069 
7470.000000	65.145158 
7469.000000	65.777850 
7468.000000	66.279387 
7467.000000	66.563081 
7466.000000	66.570758 
7465.000000	66.288566 
7464.000000	65.751791 
7463.000000	65.041184 
7462.000000	64.264798 
7461.000000	63.541579 
7460.000000	62.977957 
7459.000000	62.653040 
7458.000000	62.610721 
7457.000000	62.854647 
7456.000000	63.350200 
7455.000000	64.037036 
7454.000000	64.842104 
7453.000000	65.691900 
7452.000000	66.519999 
7451.000000	67.272472 
7450.000000	67.910456 
7449.000000	68.401741 
7448.000000	68.718457 
7447.000000	68.833017 
7446.000000	68.724489 
7445.000000	68.377304 
7444.000000	67.792773 
7443.000000	66.990709 
7442.000000	66.016626 
7441.000000	64.935302 
7440.000000	63.827300 
7439.000000	62.774252 
7438.000000	61.851763 
7437.000000	61.120629 
7436.000000	60.624456 
7435.000000	60.381650 
7434.000000	60.392189 
7433.000000	60.635566 
7432.000000	61.081123 
7431.000000	61.683106 
7430.000000	62.393069 
7429.000000	63.152480 
7428.000000	63.907217 
7427.000000	64.602971 
7426.000000	65.197896 
7425.000000	65.660595 
7424.000000	65.978002 
7423.000000	66.156101 
7422.000000	66.215348 
7421.000000	66.189813 
7420.000000	66.113209 
7419.000000	66.018080 
7418.000000	65.919995 
7417.000000	65.819621 
7416.000000	65.702652 
7415.000000	65.550136 
7414.000000	65.343999 
7413.000000	65.077304 
7412.000000	64.762544 
7411.000000	64.432263 
7410.000000	64.129209 
7409.000000	63.898253 
7408.000000	63.775587 
7407.000000	63.780021 
7406.000000	63.905167 
7405.000000	64.123725 
7404.000000	64.392042 
7403.000000	64.664578 
7402.000000	64.903306 
7401.000000	65.089702 
7400.000000	65.218997 
7399.000000	65.309834 
7398.000000	65.394234 
7397.000000	65.512537 
7396.000000	65.695405 
7395.000000	65.964341 
7394.000000	66.325497 
7393.000000	66.770148 
7392.000000	67.278122 
7391.000000	67.820525 
7390.000000	68.365883 
7389.000000	68.883800 
7388.000000	69.349050 
7387.000000	69.741630 
7386.000000	70.046997 
7385.000000	70.257520 
7384.000000	70.369791 
7383.000000	70.385646 
7382.000000	70.307898 
7381.000000	70.145273 
7380.000000	69.905710 
7379.000000	69.602751 
7378.000000	69.246625 
7377.000000	68.848776 
7376.000000	68.416094 
7375.000000	67.954587 
7374.000000	67.471218 
7373.000000	66.971445 
7372.000000	66.471838 
7371.000000	65.998268 
7370.000000	65.591335 
7369.000000	65.292692 
7368.000000	65.147805 
7367.000000	65.193700 
7366.000000	65.447616 
7365.000000	65.895771 
7364.000000	66.494154 
7363.000000	67.172026 
7362.000000	67.843174 
7361.000000	68.420243 
7360.000000	68.834328 
7359.000000	69.045710 
7358.000000	69.053196 
7357.000000	68.887495 
7356.000000	68.597412 
7355.000000	68.232750 
7354.000000	67.834258 
7353.000000	67.422270 
7352.000000	66.999912 
7351.000000	66.555619 
7350.000000	66.082262 
7349.000000	65.579104 
7348.000000	65.062093 
7347.000000	64.558601 
7346.000000	64.101886 
7345.000000	63.721609 
7344.000000	63.435101 
7343.000000	63.240361 
7342.000000	63.111972 
7341.000000	63.010787 
7340.000000	62.890195 
7339.000000	62.715697 
7338.000000	62.471222 
7337.000000	62.173914 
7336.000000	61.868023 
7335.000000	61.623811 
7334.000000	61.518478 
7333.000000	61.622929 
7332.000000	61.982035 
7331.000000	62.604355 
7330.000000	63.455677 
7329.000000	64.464235 
7328.000000	65.531420 
7327.000000	66.551518 
7326.000000	67.426776 
7325.000000	68.086338 
7324.000000	68.488240 
7323.000000	68.631362 
7322.000000	68.534922 
7321.000000	68.232035 
7320.000000	67.752456 
7319.000000	67.125558 
7318.000000	66.372966 
7317.000000	65.520071 
7316.000000	64.599847 
7315.000000	63.665676 
7314.000000	62.785744 
7313.000000	62.037467 
7312.000000	61.495900 
7311.000000	61.215806 
7310.000000	61.225438 
7309.000000	61.516261 
7308.000000	62.046504 
7307.000000	62.745857 
7306.000000	63.532495 
7305.000000	64.326786 
7304.000000	65.064549 
7303.000000	65.705394 
7302.000000	66.233682 
7301.000000	66.654539 
7300.000000	66.985845 
7299.000000	67.246365 
7298.000000	67.454123 
7297.000000	67.613434 
7296.000000	67.719769 
7295.000000	67.755103 
7294.000000	67.708420 
7293.000000	67.568802 
7292.000000	67.337656 
7291.000000	67.024731 
7290.000000	66.654682 
7289.000000	66.256928 
7288.000000	65.863561 
7287.000000	65.500974 
7286.000000	65.186476 
7285.000000	64.926624 
7284.000000	64.719629 
7283.000000	64.556026 
7282.000000	64.421844 
7281.000000	64.310598 
7280.000000	64.226412 
7279.000000	64.186549 
7278.000000	64.215874 
7277.000000	64.343166 
7276.000000	64.587569 
7275.000000	64.949059 
7274.000000	65.399122 
7273.000000	65.878057 
7272.000000	66.303515 
7271.000000	66.593790 
7270.000000	66.679644 
7269.000000	66.524004 
7268.000000	66.124582 
7267.000000	65.519523 
7266.000000	64.770960 
7265.000000	63.955473 
7264.000000	63.142228 
7263.000000	62.380766 
7262.000000	61.697411 
7261.000000	61.098194 
7260.000000	60.580897 
7259.000000	60.142683 
7258.000000	59.796762 
7257.000000	59.571528 
7256.000000	59.510421 
7255.000000	59.654831 
7254.000000	60.035634 
7253.000000	60.654878 
7252.000000	61.482048 
7251.000000	62.449765 
7250.000000	63.465857 
7249.000000	64.423847 
7248.000000	65.218877 
7247.000000	65.763211 
7246.000000	65.998959 
7245.000000	65.908098 
7244.000000	65.514254 
7243.000000	64.880681 
7242.000000	64.100384 
7241.000000	63.281893 
7240.000000	62.536716 
7239.000000	61.959099 
7238.000000	61.619949 
7237.000000	61.551117 
7236.000000	61.746263 
7235.000000	62.162756 
7234.000000	62.732529 
7233.000000	63.376474 
7232.000000	64.014220 
7231.000000	64.584112 
7230.000000	65.045833 
7229.000000	65.389657 
7228.000000	65.628457 
7227.000000	65.793108 
7226.000000	65.918302 
7225.000000	66.037392 
7224.000000	66.171455 
7223.000000	66.326498 
7222.000000	66.490197 
7221.000000	66.637229 
7220.000000	66.734409 
7219.000000	66.748380 
7218.000000	66.655540 
7217.000000	66.451811 
7216.000000	66.156125 
7215.000000	65.805220 
7214.000000	65.450549 
7213.000000	65.148925 
7212.000000	64.949703 
7211.000000	64.887452 
7210.000000	64.969921 
7209.000000	65.177989 
7208.000000	65.466237 
7207.000000	65.777754 
7206.000000	66.048145 
7205.000000	66.219973 
7204.000000	66.249871 
7203.000000	66.115760 
7202.000000	65.818238 
7201.000000	65.379261 
7200.000000	64.834690 
7199.000000	64.226889 
7198.000000	63.606381 
7197.000000	63.025498 
7196.000000	62.532806 
7195.000000	62.166976 
7194.000000	61.952853 
7193.000000	61.897253 
7192.000000	61.985063 
7191.000000	62.183260 
7190.000000	62.443256 
7189.000000	62.713408 
7188.000000	62.944340 
7187.000000	63.103151 
7186.000000	63.170790 
7185.000000	63.152575 
7184.000000	63.071298 
7183.000000	62.964320 
7182.000000	62.870907 
7181.000000	62.825179 
7180.000000	62.852358 
7179.000000	62.956666 
7178.000000	63.123893 
7177.000000	63.319706 
7176.000000	63.501620 
7175.000000	63.622236 
7174.000000	63.641738 
7173.000000	63.533711 
7172.000000	63.291621 
7171.000000	62.929534 
7170.000000	62.480401 
7169.000000	61.990451 
7168.000000	61.512207 
7167.000000	61.094808 
7166.000000	60.778784 
7165.000000	60.589385 
7164.000000	60.538792 
7163.000000	60.624980 
7162.000000	60.839247 
7161.000000	61.165046 
7160.000000	61.586523 
7159.000000	62.084054 
7158.000000	62.639665 
7157.000000	63.231182 
7156.000000	63.834285 
7155.000000	64.418816 
7154.000000	64.952135 
7153.000000	65.402626 
7152.000000	65.742826 
7151.000000	65.955543 
7150.000000	66.036319 
7149.000000	65.998005 
7148.000000	65.864992 
7147.000000	65.670680 
7146.000000	65.450739 
7145.000000	65.238285 
7144.000000	65.053343 
7143.000000	64.900016 
7142.000000	64.766907 
7141.000000	64.631247 
7140.000000	64.463067 
7139.000000	64.236593 
7138.000000	63.934421 
7137.000000	63.560247 
7136.000000	63.137745 
7135.000000	62.715625 
7134.000000	62.352299 
7133.000000	62.112402 
7132.000000	62.051773 
7131.000000	62.205266 
7130.000000	62.575340 
7129.000000	63.129186 
7128.000000	63.804244 
7127.000000	64.516377 
7126.000000	65.171360 
7125.000000	65.689063 
7124.000000	66.016101 
7123.000000	66.139912 
7122.000000	66.084551 
7121.000000	65.911507 
7120.000000	65.702438 
7119.000000	65.542197 
7118.000000	65.498614 
7117.000000	65.606951 
7116.000000	65.861105 
7115.000000	66.218471 
7114.000000	66.608357 
7113.000000	66.945123 
7112.000000	67.146587 
7111.000000	67.154097 
7110.000000	66.943502 
7109.000000	66.525292 
7108.000000	65.943527 
7107.000000	65.265417 
7106.000000	64.567756 
7105.000000	63.922357 
7104.000000	63.383412 
7103.000000	62.983822 
7102.000000	62.730145 
7101.000000	62.608313 
7100.000000	62.589335 
7099.000000	62.637853 
7098.000000	62.721800 
7097.000000	62.815141 
7096.000000	62.903642 
7095.000000	62.978148 
7094.000000	63.041257 
7093.000000	63.100576 
7092.000000	63.166499 
7091.000000	63.246345 
7090.000000	63.348054 
7089.000000	63.478660 
7088.000000	63.644504 
7087.000000	63.850569 
7086.000000	64.102530 
7085.000000	64.403080 
7084.000000	64.750266 
7083.000000	65.132713 
7082.000000	65.530586 
7081.000000	65.914034 
7080.000000	66.246485 
7079.000000	66.491651 
7078.000000	66.620302 
7077.000000	66.619682 
7076.000000	66.501188 
7075.000000	66.297554 
7074.000000	66.056370 
7073.000000	65.831828 
7072.000000	65.678453 
7071.000000	65.632534 
7070.000000	65.706753 
7069.000000	65.884590 
7068.000000	66.127538 
7067.000000	66.380429 
7066.000000	66.586995 
7065.000000	66.698312 
7064.000000	66.683340 
7063.000000	66.535329 
7062.000000	66.271162 
7061.000000	65.921974 
7060.000000	65.524339 
7059.000000	65.112161 
7058.000000	64.710187 
7057.000000	64.332270 
7056.000000	63.984274 
7055.000000	63.666200 
7054.000000	63.382244 
7053.000000	63.144516 
7052.000000	62.976384 
7051.000000	62.904834 
7050.000000	62.957572 
7049.000000	63.146924 
7048.000000	63.469934 
7047.000000	63.903331 
7046.000000	64.405417 
7045.000000	64.918804 
7044.000000	65.383028 
7043.000000	65.747404 
7042.000000	65.975427 
7041.000000	66.052269 
7040.000000	65.978670 
7039.000000	65.769457 
7038.000000	65.442562 
7037.000000	65.016412 
7036.000000	64.505457 
7035.000000	63.925504 
7034.000000	63.297867 
7033.000000	62.659573 
7032.000000	62.066507 
7031.000000	61.594295 
7030.000000	61.328959 
7029.000000	61.350369 
7028.000000	61.711597 
7027.000000	62.418699 
7026.000000	63.424873 
7025.000000	64.624285 
7024.000000	65.865707 
7023.000000	66.976428 
7022.000000	67.792820 
7021.000000	68.194437 
7020.000000	68.130707 
7019.000000	67.627215 
7018.000000	66.782355 
7017.000000	65.736413 
7016.000000	64.642214 
7015.000000	63.630604 
7014.000000	62.790417 
7013.000000	62.159347 
7012.000000	61.733078 
7011.000000	61.477375 
7010.000000	61.351346 
7009.000000	61.313080 
7008.000000	61.335015 
7007.000000	61.399245 
7006.000000	61.502599 
7005.000000	61.653637 
7004.000000	61.869072 
7003.000000	62.167286 
7002.000000	62.557244 
7001.000000	63.033580 
7000.000000	63.565802 
6999.000000	64.103055 
6998.000000	64.574670 
6997.000000	64.905118 
6996.000000	65.027618 
6995.000000	64.901447 
6994.000000	64.523744 
6993.000000	63.933777 
6992.000000	63.209629 
6991.000000	62.452769 
6990.000000	61.772441 
6989.000000	61.264920 
6988.000000	60.996866 
6987.000000	60.994648 
6986.000000	61.243414 
6985.000000	61.693620 
6984.000000	62.274551 
6983.000000	62.909936 
6982.000000	63.523840 
6981.000000	64.050626 
6980.000000	64.438319 
6979.000000	64.652347 
6978.000000	64.674210 
6977.000000	64.503121 
6976.000000	64.157223 
6975.000000	63.672280 
6974.000000	63.100814 
6973.000000	62.505412 
6972.000000	61.954092 
6971.000000	61.509132 
6970.000000	61.219716 
6969.000000	61.114668 
6968.000000	61.196374 
6967.000000	61.445927 
6966.000000	61.827468 
6965.000000	62.295842 
6964.000000	62.802720 
6963.000000	63.302469 
6962.000000	63.754606 
6961.000000	64.125514 
6960.000000	64.388513 
6959.000000	64.522886 
