PE IR       SPECTRUM    SPECTRUM    ASCII       PEDS        1.60        
  -1
C-1AEE~1.ASC
17/05/02
12:07:57.00
17/05/02
12:07:57.00
tln
$C-4040-8_t0015$<tbV0>[2.5,-3.0,8.0,0.0,22,1,0]
370.000000
64









2002,4.07    
MIRTGS : RIGHTBACK : INTERNAL 2
MIR : ON : INTERNAL 2
OPTKBR

0.200000
8
8.000000
FILLER
RATIO
SPECTRUM
UNLOCKED 256

DOUBLE
64
COMBINED
1
0
0


1.000000
RATIO


1
0
TRUE
51149
0
LEFT NOT FITTED RIGHT NOT FITTED 0
NONE
NONE
15600
12.000000
4.427000
51148
TRUE
1 0 8 72 0 0 0 0 

15798.010000






#HDR
-1
-1
#GR
CM-1
%T
0.00002384185791015625
0.0
7800.000000
-1.000000
7431
8
94.455885
30.762624
#DATA
7800.000000	64.297413 
7799.000000	65.577983 
7798.000000	66.899895 
7797.000000	68.206810 
7796.000000	69.458079 
7795.000000	70.615625 
7794.000000	71.634054 
7793.000000	72.454619 
7792.000000	73.017072 
7791.000000	73.271799 
7790.000000	73.206400 
7789.000000	72.852754 
7788.000000	72.290325 
7787.000000	71.629071 
7786.000000	70.994400 
7785.000000	70.493793 
7784.000000	70.200634 
7783.000000	70.132851 
7782.000000	70.256638 
7781.000000	70.492219 
7780.000000	70.753264 
7779.000000	70.949292 
7778.000000	71.011805 
7777.000000	70.895671 
7776.000000	70.572662 
7775.000000	70.048642 
7774.000000	69.345045 
7773.000000	68.523812 
7772.000000	67.671418 
7771.000000	66.905784 
7770.000000	66.361165 
7769.000000	66.148638 
7768.000000	66.332411 
7767.000000	66.896009 
7766.000000	67.740631 
7765.000000	68.712377 
7764.000000	69.639611 
7763.000000	70.377349 
7762.000000	70.841312 
7761.000000	71.032142 
7760.000000	71.019697 
7759.000000	70.919084 
7758.000000	70.836400 
7757.000000	70.832920 
7756.000000	70.892167 
7755.000000	70.921206 
7754.000000	70.782470 
7753.000000	70.341587 
7752.000000	69.527626 
7751.000000	68.363642 
7750.000000	66.992378 
7749.000000	65.648221 
7748.000000	64.613795 
7747.000000	64.141297 
7746.000000	64.395952 
7745.000000	65.404438 
7744.000000	67.047953 
7743.000000	69.088125 
7742.000000	71.214032 
7741.000000	73.111772 
7740.000000	74.534463 
7739.000000	75.351357 
7738.000000	75.567317 
7737.000000	75.305128 
7736.000000	74.772667 
7735.000000	74.194717 
7734.000000	73.758220 
7733.000000	73.555731 
7732.000000	73.582053 
7731.000000	73.728418 
7730.000000	73.850131 
7729.000000	73.784947 
7728.000000	73.416137 
7727.000000	72.687149 
7726.000000	71.605086 
7725.000000	70.252251 
7724.000000	68.737149 
7723.000000	67.214298 
7722.000000	65.847659 
7721.000000	64.798569 
7720.000000	64.202523 
7719.000000	64.137268 
7718.000000	64.605593 
7717.000000	65.532064 
7716.000000	66.767740 
7715.000000	68.136954 
7714.000000	69.466853 
7713.000000	70.635795 
7712.000000	71.587300 
7711.000000	72.338843 
7710.000000	72.954869 
7709.000000	73.508858 
7708.000000	74.041342 
7707.000000	74.538564 
7706.000000	74.922180 
7705.000000	75.078606 
7704.000000	74.885892 
7703.000000	74.267673 
7702.000000	73.212981 
7701.000000	71.814179 
7700.000000	70.229768 
7699.000000	68.649077 
7698.000000	67.248153 
7697.000000	66.140961 
7696.000000	65.374159 
7695.000000	64.924573 
7694.000000	64.725303 
7693.000000	64.698958 
7692.000000	64.778518 
7691.000000	64.921522 
7690.000000	65.115094 
7689.000000	65.358567 
7688.000000	65.660691 
7687.000000	66.016817 
7686.000000	66.413736 
7685.000000	66.822576 
7684.000000	67.219185 
7683.000000	67.588186 
7682.000000	67.926955 
7681.000000	68.244051 
7680.000000	68.556189 
7679.000000	68.880367 
7678.000000	69.218468 
7677.000000	69.559478 
7676.000000	69.888687 
7675.000000	70.186901 
7674.000000	70.449352 
7673.000000	70.670104 
7672.000000	70.848369 
7671.000000	70.972657 
7670.000000	71.024990 
7669.000000	70.976853 
7668.000000	70.793271 
7667.000000	70.451116 
7666.000000	69.955182 
7665.000000	69.341373 
7664.000000	68.676495 
7663.000000	68.046879 
7662.000000	67.542839 
7661.000000	67.234683 
7660.000000	67.156171 
7659.000000	67.295479 
7658.000000	67.597770 
7657.000000	67.978954 
7656.000000	68.345165 
7655.000000	68.615460 
7654.000000	68.736457 
7653.000000	68.687033 
7652.000000	68.478012 
7651.000000	68.133831 
7650.000000	67.690515 
7649.000000	67.187333 
7648.000000	66.665792 
7647.000000	66.164875 
7646.000000	65.722274 
7645.000000	65.383410 
7644.000000	65.184020 
7643.000000	65.149641 
7642.000000	65.277791 
7641.000000	65.536284 
7640.000000	65.861797 
7639.000000	66.163635 
7638.000000	66.353797 
7637.000000	66.359734 
7636.000000	66.160058 
7635.000000	65.790224 
7634.000000	65.340900 
7633.000000	64.932417 
7632.000000	64.695501 
7631.000000	64.736032 
7630.000000	65.105628 
7629.000000	65.783715 
7628.000000	66.683363 
7627.000000	67.664670 
7626.000000	68.564724 
7625.000000	69.228816 
7624.000000	69.541287 
7623.000000	69.445729 
7622.000000	68.954157 
7621.000000	68.137121 
7620.000000	67.103433 
7619.000000	65.974068 
7618.000000	64.860892 
7617.000000	63.846087 
7616.000000	62.981581 
7615.000000	62.286853 
7614.000000	61.751866 
7613.000000	61.367321 
7612.000000	61.126780 
7611.000000	61.056923 
7610.000000	61.205673 
7609.000000	61.639356 
7608.000000	62.410664 
7607.000000	63.536453 
7606.000000	64.972829 
7605.000000	66.607332 
7604.000000	68.267464 
7603.000000	69.764089 
7602.000000	70.925855 
7601.000000	71.642208 
7600.000000	71.877646 
7599.000000	71.667981 
7598.000000	71.100211 
7597.000000	70.286273 
7596.000000	69.334101 
7595.000000	68.332314 
7594.000000	67.341160 
7593.000000	66.402864 
7592.000000	65.550208 
7591.000000	64.826869 
7590.000000	64.286732 
7589.000000	63.989543 
7588.000000	63.989782 
7587.000000	64.315223 
7586.000000	64.954781 
7585.000000	65.844321 
7584.000000	66.874694 
7583.000000	67.903804 
7582.000000	68.782353 
7581.000000	69.382977 
7580.000000	69.616699 
7579.000000	69.447517 
7578.000000	68.899393 
7577.000000	68.050265 
7576.000000	67.020153 
7575.000000	65.949463 
7574.000000	64.983201 
7573.000000	64.244389 
7572.000000	63.823771 
7571.000000	63.758349 
7570.000000	64.029383 
7569.000000	64.559984 
7568.000000	65.232563 
7567.000000	65.906286 
7566.000000	66.439509 
7565.000000	66.717767 
7564.000000	66.669154 
7563.000000	66.278815 
7562.000000	65.586090 
7561.000000	64.674353 
7560.000000	63.644886 
7559.000000	62.606263 
7558.000000	61.648893 
7557.000000	60.850000 
7556.000000	60.266828 
7555.000000	59.945893 
7554.000000	59.921145 
7553.000000	60.219526 
7552.000000	60.854554 
7551.000000	61.814522 
7550.000000	63.051915 
7549.000000	64.485859 
7548.000000	66.005063 
7547.000000	67.480206 
7546.000000	68.781208 
7545.000000	69.800090 
7544.000000	70.464420 
7543.000000	70.757794 
7542.000000	70.708489 
7541.000000	70.379805 
7540.000000	69.847345 
7539.000000	69.193172 
7538.000000	68.481683 
7537.000000	67.767667 
7536.000000	67.080974 
7535.000000	66.447067 
7534.000000	65.875816 
7533.000000	65.376639 
7532.000000	64.952707 
7531.000000	64.600586 
7530.000000	64.316916 
7529.000000	64.095282 
7528.000000	63.932442 
7527.000000	63.826084 
7526.000000	63.771462 
7525.000000	63.756155 
7524.000000	63.765072 
7523.000000	63.780546 
7522.000000	63.787984 
7521.000000	63.778805 
7520.000000	63.754224 
7519.000000	63.724088 
7518.000000	63.707280 
7517.000000	63.723635 
7516.000000	63.784098 
7515.000000	63.885307 
7514.000000	64.014077 
7513.000000	64.144015 
7512.000000	64.240860 
7511.000000	64.268326 
7510.000000	64.200997 
7509.000000	64.025259 
7508.000000	63.747215 
7507.000000	63.385796 
7506.000000	62.964248 
7505.000000	62.512493 
7504.000000	62.058591 
7503.000000	61.635637 
7502.000000	61.275625 
7501.000000	61.017274 
7500.000000	60.901808 
7499.000000	60.965514 
7498.000000	61.229491 
7497.000000	61.693549 
7496.000000	62.330007 
7495.000000	63.088512 
7494.000000	63.900709 
7493.000000	64.691591 
7492.000000	65.389084 
7491.000000	65.934395 
7490.000000	66.288280 
7489.000000	66.434502 
7488.000000	66.379427 
7487.000000	66.149520 
7486.000000	65.784788 
7485.000000	65.339565 
7484.000000	64.867830 
7483.000000	64.420938 
7482.000000	64.036393 
7481.000000	63.742041 
7480.000000	63.548088 
7479.000000	63.449811 
7478.000000	63.432192 
7477.000000	63.472890 
7476.000000	63.553452 
7475.000000	63.660693 
7474.000000	63.791847 
7473.000000	63.951253 
7472.000000	64.142179 
7471.000000	64.359092 
7470.000000	64.583110 
7469.000000	64.781641 
7468.000000	64.915442 
7467.000000	64.947962 
7466.000000	64.856123 
7465.000000	64.639258 
7464.000000	64.320921 
7463.000000	63.948607 
7462.000000	63.580727 
7461.000000	63.280153 
7460.000000	63.105034 
7459.000000	63.097095 
7458.000000	63.273739 
7457.000000	63.623785 
7456.000000	64.111089 
7455.000000	64.679026 
7454.000000	65.259790 
7453.000000	65.787816 
7452.000000	66.207385 
7451.000000	66.486668 
7450.000000	66.618919 
7449.000000	66.623997 
7448.000000	66.540336 
7447.000000	66.415023 
7446.000000	66.294836 
7445.000000	66.210293 
7444.000000	66.171789 
7443.000000	66.169500 
7442.000000	66.181111 
7441.000000	66.184353 
7440.000000	66.167116 
7439.000000	66.134834 
7438.000000	66.108560 
7437.000000	66.114854 
7436.000000	66.175317 
7435.000000	66.294145 
7434.000000	66.454911 
7433.000000	66.624093 
7432.000000	66.758394 
7431.000000	66.818642 
7430.000000	66.778016 
7429.000000	66.632771 
7428.000000	66.400194 
7427.000000	66.112184 
7426.000000	65.809202 
7425.000000	65.528726 
7424.000000	65.300798 
7423.000000	65.139532 
7422.000000	65.050053 
7421.000000	65.032720 
7420.000000	65.084910 
7419.000000	65.204715 
7418.000000	65.386772 
7417.000000	65.620899 
7416.000000	65.888786 
7415.000000	66.163229 
7414.000000	66.420459 
7413.000000	66.643309 
7412.000000	66.828060 
7411.000000	66.981077 
7410.000000	67.117023 
7409.000000	67.247223 
7408.000000	67.371702 
7407.000000	67.472815 
7406.000000	67.520809 
7405.000000	67.477011 
7404.000000	67.310452 
7403.000000	67.003345 
7402.000000	66.558694 
7401.000000	66.004562 
7400.000000	65.390038 
7399.000000	64.780735 
7398.000000	64.243745 
7397.000000	63.840508 
7396.000000	63.615322 
7395.000000	63.587522 
7394.000000	63.748025 
7393.000000	64.061355 
7392.000000	64.475369 
7391.000000	64.921259 
7390.000000	65.324187 
7389.000000	65.612483 
7388.000000	65.727853 
7387.000000	65.633869 
7386.000000	65.320920 
7385.000000	64.807915 
7384.000000	64.139151 
7383.000000	63.376498 
7382.000000	62.591576 
7381.000000	61.853861 
7380.000000	61.225104 
7379.000000	60.754799 
7378.000000	60.477161 
7377.000000	60.405898 
7376.000000	60.538005 
7375.000000	60.852646 
7374.000000	61.318039 
7373.000000	61.882925 
7372.000000	62.497138 
7371.000000	63.107633 
7370.000000	63.678121 
7369.000000	64.183616 
7368.000000	64.623236 
7367.000000	65.012049 
7366.000000	65.377759 
7365.000000	65.752506 
7364.000000	66.153573 
7363.000000	66.576576 
7362.000000	66.993594 
7361.000000	67.361235 
7360.000000	67.632389 
7359.000000	67.770600 
7358.000000	67.766547 
7357.000000	67.639803 
7356.000000	67.432665 
7355.000000	67.194437 
7354.000000	66.973447 
7353.000000	66.795587 
7352.000000	66.656947 
7351.000000	66.521668 
7350.000000	66.340827 
7349.000000	66.061353 
7348.000000	65.647244 
7347.000000	65.089631 
7346.000000	64.409899 
7345.000000	63.661313 
7344.000000	62.915635 
7343.000000	62.252855 
7342.000000	61.733484 
7341.000000	61.402845 
7340.000000	61.282444 
7339.000000	61.370635 
7338.000000	61.642765 
7337.000000	62.060070 
7336.000000	62.575674 
7335.000000	63.140082 
7334.000000	63.706016 
7333.000000	64.239478 
7332.000000	64.723134 
7331.000000	65.160703 
7330.000000	65.572595 
7329.000000	65.993762 
7328.000000	66.457080 
7327.000000	66.989517 
7326.000000	67.589473 
7325.000000	68.227815 
7324.000000	68.836998 
7323.000000	69.334220 
7322.000000	69.624185 
7321.000000	69.629001 
7320.000000	69.298124 
7319.000000	68.631768 
7318.000000	67.675757 
7317.000000	66.517210 
7316.000000	65.270376 
7315.000000	64.056587 
7314.000000	62.988305 
7313.000000	62.151908 
7312.000000	61.602020 
7311.000000	61.359214 
7310.000000	61.411118 
7309.000000	61.718416 
7308.000000	62.223482 
7307.000000	62.858557 
7306.000000	63.555860 
7305.000000	64.254593 
7304.000000	64.904451 
7303.000000	65.469026 
7302.000000	65.930676 
7301.000000	66.286110 
7300.000000	66.542696 
7299.000000	66.708993 
7298.000000	66.797018 
7297.000000	66.810965 
7296.000000	66.750264 
7295.000000	66.607856 
7294.000000	66.383743 
7293.000000	66.082620 
7292.000000	65.723562 
7291.000000	65.334057 
7290.000000	64.950776 
7289.000000	64.609551 
7288.000000	64.339542 
7287.000000	64.157223 
7286.000000	64.060473 
7285.000000	64.037752 
7284.000000	64.071893 
7283.000000	64.148807 
7282.000000	64.259386 
7281.000000	64.407634 
7280.000000	64.606738 
7279.000000	64.871263 
7278.000000	65.207004 
7277.000000	65.603876 
7276.000000	66.030049 
7275.000000	66.436839 
7274.000000	66.763281 
7273.000000	66.948485 
7272.000000	66.942453 
7271.000000	66.722106 
7270.000000	66.294074 
7269.000000	65.695786 
7268.000000	64.988541 
7267.000000	64.244627 
7266.000000	63.538169 
7265.000000	62.934422 
7264.000000	62.481641 
7263.000000	62.206935 
7262.000000	62.114834 
7261.000000	62.191843 
7260.000000	62.407636 
7259.000000	62.718510 
7258.000000	63.076400 
7257.000000	63.430500 
7256.000000	63.742184 
7255.000000	63.985657 
7254.000000	64.156675 
7253.000000	64.267587 
7252.000000	64.344024 
7251.000000	64.413857 
7250.000000	64.496564 
7249.000000	64.595365 
7248.000000	64.695668 
7247.000000	64.769959 
7246.000000	64.784455 
7245.000000	64.714837 
7244.000000	64.557719 
7243.000000	64.338636 
7242.000000	64.108133 
7241.000000	63.933157 
7240.000000	63.881802 
7239.000000	64.002728 
7238.000000	64.313364 
7237.000000	64.788222 
7236.000000	65.360617 
7235.000000	65.938138 
7234.000000	66.425871 
7233.000000	66.746687 
7232.000000	66.858649 
7231.000000	66.765022 
7230.000000	66.511344 
7229.000000	66.170740 
7228.000000	65.823674 
7227.000000	65.536355 
7226.000000	65.345025 
7225.000000	65.251159 
7224.000000	65.225648 
7223.000000	65.221071 
7222.000000	65.187501 
7221.000000	65.087676 
7220.000000	64.906811 
7219.000000	64.651679 
7218.000000	64.349651 
7217.000000	64.034223 
7216.000000	63.741946 
7215.000000	63.496875 
7214.000000	63.315820 
7213.000000	63.207983 
7212.000000	63.178086 
7211.000000	63.230895 
7210.000000	63.367509 
7209.000000	63.584208 
7208.000000	63.867878 
7207.000000	64.192271 
7206.000000	64.521861 
7205.000000	64.814305 
7204.000000	65.030837 
7203.000000	65.143036 
7202.000000	65.140438 
7201.000000	65.033292 
7200.000000	64.848971 
7199.000000	64.625740 
7198.000000	64.404654 
7197.000000	64.220762 
7196.000000	64.097785 
7195.000000	64.044070 
7194.000000	64.053487 
7193.000000	64.108085 
7192.000000	64.185619 
7191.000000	64.263796 
7190.000000	64.323592 
7189.000000	64.353489 
7188.000000	64.347505 
7187.000000	64.308452 
7186.000000	64.241337 
7185.000000	64.157295 
7184.000000	64.071512 
7183.000000	64.001321 
7182.000000	63.961529 
7181.000000	63.964247 
7180.000000	64.016652 
7179.000000	64.119935 
7178.000000	64.270544 
7177.000000	64.457559 
7176.000000	64.664983 
7175.000000	64.870429 
7174.000000	65.048623 
7173.000000	65.173530 
7172.000000	65.222859 
7171.000000	65.181517 
7170.000000	65.045142 
7169.000000	64.821624 
7168.000000	64.530920 
7167.000000	64.201974 
7166.000000	63.869667 
7165.000000	63.567638 
7164.000000	63.327121 
7163.000000	63.172316 
7162.000000	63.121318 
7161.000000	63.182711 
7160.000000	63.357615 
7159.000000	63.639926 
7158.000000	64.014387 
7157.000000	64.457535 
7156.000000	64.935398 
7155.000000	65.402221 
7154.000000	65.809297 
7153.000000	66.109466 
7152.000000	66.270756 
7151.000000	66.281032 
7150.000000	66.157078 
7149.000000	65.941643 
7148.000000	65.697264 
7147.000000	65.493535 
7146.000000	65.389037 
7145.000000	65.418243 
7144.000000	65.579771 
7143.000000	65.836763 
7142.000000	66.124057 
7141.000000	66.364359 
7140.000000	66.488027 
7139.000000	66.450428 
7138.000000	66.239786 
7137.000000	65.881729 
7136.000000	65.427064 
7135.000000	64.946174 
7134.000000	64.506006 
7133.000000	64.166975 
7132.000000	63.973045 
7131.000000	63.949346 
7130.000000	64.105105 
7129.000000	64.429211 
7128.000000	64.896488 
7127.000000	65.463614 
7126.000000	66.072559 
7125.000000	66.656708 
7124.000000	67.147850 
7123.000000	67.488479 
7122.000000	67.638063 
7121.000000	67.587423 
7120.000000	67.360115 
7119.000000	67.008423 
7118.000000	66.602253 
7117.000000	66.211128 
7116.000000	65.888595 
7115.000000	65.661263 
7114.000000	65.524888 
7113.000000	65.449690 
7112.000000	65.390753 
7111.000000	65.306043 
7110.000000	65.167236 
7109.000000	64.965176 
7108.000000	64.713001 
7107.000000	64.434456 
7106.000000	64.162564 
7105.000000	63.925909 
7104.000000	63.747239 
7103.000000	63.637113 
7102.000000	63.596010 
7101.000000	63.616752 
7100.000000	63.686537 
7099.000000	63.792395 
7098.000000	63.919329 
7097.000000	64.051270 
7096.000000	64.170742 
7095.000000	64.258193 
7094.000000	64.296603 
7093.000000	64.273118 
7092.000000	64.184331 
7091.000000	64.037823 
7090.000000	63.852858 
7089.000000	63.657808 
7088.000000	63.485574 
7087.000000	63.367581 
7086.000000	63.328099 
7085.000000	63.378524 
7084.000000	63.518667 
7083.000000	63.732838 
7082.000000	63.992619 
7081.000000	64.259505 
7080.000000	64.491415 
7079.000000	64.650130 
7078.000000	64.706540 
7077.000000	64.648795 
7076.000000	64.482235 
7075.000000	64.232611 
7074.000000	63.937473 
7073.000000	63.645625 
7072.000000	63.406229 
7071.000000	63.264155 
7070.000000	63.253092 
7069.000000	63.388633 
7068.000000	63.665747 
7067.000000	64.059472 
7066.000000	64.530181 
7065.000000	65.026688 
7064.000000	65.494370 
7063.000000	65.886902 
7062.000000	66.172909 
7061.000000	66.339373 
7060.000000	66.390490 
7059.000000	66.344308 
7058.000000	66.225337 
7057.000000	66.060590 
7056.000000	65.872311 
7055.000000	65.674853 
7054.000000	65.475153 
7053.000000	65.280437 
7052.000000	65.098261 
7051.000000	64.941024 
7050.000000	64.822936 
7049.000000	64.759683 
7048.000000	64.760041 
7047.000000	64.823794 
7046.000000	64.934396 
7045.000000	65.060162 
7044.000000	65.157985 
7043.000000	65.183138 
7042.000000	65.097212 
7041.000000	64.878964 
7040.000000	64.526486 
7039.000000	64.058542 
7038.000000	63.509941 
7037.000000	62.925338 
7036.000000	62.350654 
7035.000000	61.827468 
7034.000000	61.387419 
7033.000000	61.053228 
7032.000000	60.841727 
7031.000000	60.767269 
7030.000000	60.839486 
7029.000000	61.063933 
7028.000000	61.437129 
7027.000000	61.943745 
7026.000000	62.551379 
7025.000000	63.211584 
7024.000000	63.861393 
7023.000000	64.432954 
7022.000000	64.863824 
7021.000000	65.108060 
7020.000000	65.146231 
7019.000000	64.987754 
7018.000000	64.671111 
7017.000000	64.253664 
7016.000000	63.802099 
7015.000000	63.379764 
7014.000000	63.038301 
7013.000000	62.810564 
7012.000000	62.710452 
7011.000000	62.733268 
7010.000000	62.861871 
7009.000000	63.065433 
7008.000000	63.307118 
7007.000000	63.547682 
7006.000000	63.754391 
7005.000000	63.904905 
7004.000000	63.992762 
7003.000000	64.030599 
7002.000000	64.043855 
7001.000000	64.062666 
7000.000000	64.110112 
6999.000000	64.197492 
6998.000000	64.315485 
6997.000000	64.440608 
6996.000000	64.534902 
6995.000000	64.558815 
6994.000000	64.478564 
6993.000000	64.279031 
6992.000000	63.966035 
6991.000000	63.565015 
6990.000000	63.119459 
6989.000000	62.680864 
6988.000000	62.301111 
6987.000000	62.021255 
6986.000000	61.867403 
6985.000000	61.846733 
6984.000000	61.949658 
6983.000000	62.153983 
6982.000000	62.426328 
6981.000000	62.729334 
6980.000000	63.027119 
6979.000000	63.292050 
6978.000000	63.509631 
6977.000000	63.678693 
6976.000000	63.811016 
6975.000000	63.922452 
6974.000000	64.027285 
6973.000000	64.128875 
6972.000000	64.217972 
6971.000000	64.272832 
6970.000000	64.268064 
6969.000000	64.181804 
6968.000000	64.005970 
6967.000000	63.750600 
6966.000000	63.446426 
6965.000000	63.137888 
6964.000000	62.873172 
6963.000000	62.694454 
6962.000000	62.627840 
6961.000000	62.678194 
6960.000000	62.828445 
6959.000000	63.045501 
