PE IR       SPECTRUM    SPECTRUM    ASCII       PEDS        1.60        
  -1
C-9965~1.ASC
17/05/02
11:28:10.00
17/05/02
11:28:10.00
tln
$C-4040-8_t0008$<tbV0>[7.5,-8.0,8.0,0.0,22,1,0]
370.000000
64









2002,4.07    
MIRTGS : RIGHTBACK : INTERNAL 2
MIR : ON : INTERNAL 2
OPTKBR

0.200000
8
8.000000
FILLER
RATIO
SPECTRUM
UNLOCKED 256

DOUBLE
64
COMBINED
1
0
0


1.000000
RATIO


1
0
TRUE
51149
0
LEFT NOT FITTED RIGHT NOT FITTED 0
NONE
NONE
15600
12.000000
4.427000
51148
TRUE
1 0 8 72 0 0 0 0 

15798.010000






#HDR
-1
-1
#GR
CM-1
%T
0.00002384185791015625
0.0
7800.000000
-1.000000
7431
8
81.166410
9.982895
#DATA
7800.000000	61.800718 
7799.000000	61.322426 
7798.000000	61.170387 
7797.000000	61.236929 
7796.000000	61.404180 
7795.000000	61.545133 
7794.000000	61.555624 
7793.000000	61.360645 
7792.000000	60.936880 
7791.000000	60.307908 
7790.000000	59.535646 
7789.000000	58.700180 
7788.000000	57.872223 
7787.000000	57.102370 
7786.000000	56.407117 
7785.000000	55.786705 
7784.000000	55.234503 
7783.000000	54.766440 
7782.000000	54.417443 
7781.000000	54.259872 
7780.000000	54.380559 
7779.000000	54.871869 
7778.000000	55.778002 
7777.000000	57.103109 
7776.000000	58.786129 
7775.000000	60.718178 
7774.000000	62.767171 
7773.000000	64.775037 
7772.000000	66.578841 
7771.000000	68.030381 
7770.000000	69.023942 
7769.000000	69.491577 
7768.000000	69.412326 
7767.000000	68.823003 
7766.000000	67.818689 
7765.000000	66.542983 
7764.000000	65.174460 
7763.000000	63.910222 
7762.000000	62.937879 
7761.000000	62.422823 
7760.000000	62.470340 
7759.000000	63.111019 
7758.000000	64.279174 
7757.000000	65.818357 
7756.000000	67.503833 
7755.000000	69.072771 
7754.000000	70.285272 
7753.000000	70.964264 
7752.000000	71.038866 
7751.000000	70.549392 
7750.000000	69.637417 
7749.000000	68.502378 
7748.000000	67.362046 
7747.000000	66.402649 
7746.000000	65.751481 
7745.000000	65.466070 
7744.000000	65.535807 
7743.000000	65.909314 
7742.000000	66.503262 
7741.000000	67.231249 
7740.000000	68.000245 
7739.000000	68.720078 
7738.000000	69.300365 
7737.000000	69.654893 
7736.000000	69.702577 
7735.000000	69.380092 
7734.000000	68.660092 
7733.000000	67.561626 
7732.000000	66.162061 
7731.000000	64.584755 
7730.000000	62.985420 
7729.000000	61.522603 
7728.000000	60.323524 
7727.000000	59.471964 
7726.000000	58.995556 
7725.000000	58.879327 
7724.000000	59.059309 
7723.000000	59.470057 
7722.000000	60.052585 
7721.000000	60.780763 
7720.000000	61.640167 
7719.000000	62.641429 
7718.000000	63.787651 
7717.000000	65.071892 
7716.000000	66.456818 
7715.000000	67.872953 
7714.000000	69.220829 
7713.000000	70.392632 
7712.000000	71.292543 
7711.000000	71.850848 
7710.000000	72.034239 
7709.000000	71.853351 
7708.000000	71.351838 
7707.000000	70.590472 
7706.000000	69.628381 
7705.000000	68.528461 
7704.000000	67.339301 
7703.000000	66.099095 
7702.000000	64.833760 
7701.000000	63.576912 
7700.000000	62.365627 
7699.000000	61.238646 
7698.000000	60.241484 
7697.000000	59.409499 
7696.000000	58.780574 
7695.000000	58.375525 
7694.000000	58.211541 
7693.000000	58.282780 
7692.000000	58.576655 
7691.000000	59.067511 
7690.000000	59.714913 
7689.000000	60.456132 
7688.000000	61.218380 
7687.000000	61.923265 
7686.000000	62.501859 
7685.000000	62.905335 
7684.000000	63.128662 
7683.000000	63.215351 
7682.000000	63.256263 
7681.000000	63.370513 
7680.000000	63.689708 
7679.000000	64.315724 
7678.000000	65.299272 
7677.000000	66.606879 
7676.000000	68.122172 
7675.000000	69.655871 
7674.000000	70.997953 
7673.000000	71.948456 
7672.000000	72.367715 
7671.000000	72.196602 
7670.000000	71.482920 
7669.000000	70.347881 
7668.000000	68.956589 
7667.000000	67.480158 
7666.000000	66.063523 
7665.000000	64.809274 
7664.000000	63.775157 
7663.000000	62.987828 
7662.000000	62.460851 
7661.000000	62.209343 
7660.000000	62.258052 
7659.000000	62.622499 
7658.000000	63.294529 
7657.000000	64.221143 
7656.000000	65.301585 
7655.000000	66.388034 
7654.000000	67.316985 
7653.000000	67.956089 
7652.000000	68.235754 
7651.000000	68.172025 
7650.000000	67.856264 
7649.000000	67.431235 
7648.000000	67.046666 
7647.000000	66.813635 
7646.000000	66.779756 
7645.000000	66.932272 
7644.000000	67.198538 
7643.000000	67.490458 
7642.000000	67.712616 
7641.000000	67.803955 
7640.000000	67.732071 
7639.000000	67.498588 
7638.000000	67.126822 
7637.000000	66.643428 
7636.000000	66.080236 
7635.000000	65.464615 
7634.000000	64.829039 
7633.000000	64.210605 
7632.000000	63.660931 
7631.000000	63.242244 
7630.000000	63.008761 
7629.000000	62.993383 
7628.000000	63.187766 
7627.000000	63.540196 
7626.000000	63.965773 
7625.000000	64.363932 
7624.000000	64.636206 
7623.000000	64.711093 
7622.000000	64.562273 
7621.000000	64.212322 
7620.000000	63.715863 
7619.000000	63.153219 
7618.000000	62.605738 
7617.000000	62.145423 
7616.000000	61.825466 
7615.000000	61.670541 
7614.000000	61.678457 
7613.000000	61.822152 
7612.000000	62.067389 
7611.000000	62.367653 
7610.000000	62.671470 
7609.000000	62.929534 
7608.000000	63.096094 
7607.000000	63.145709 
7606.000000	63.073515 
7605.000000	62.902760 
7604.000000	62.677025 
7603.000000	62.444257 
7602.000000	62.240552 
7601.000000	62.078189 
7600.000000	61.939048 
7599.000000	61.776018 
7598.000000	61.527490 
7597.000000	61.138939 
7596.000000	60.584783 
7595.000000	59.871888 
7594.000000	59.057617 
7593.000000	58.231019 
7592.000000	57.514405 
7591.000000	57.030820 
7590.000000	56.888961 
7589.000000	57.155084 
7588.000000	57.839345 
7587.000000	58.886671 
7586.000000	60.185503 
7585.000000	61.587333 
7584.000000	62.931060 
7583.000000	64.070868 
7582.000000	64.898610 
7581.000000	65.355944 
7580.000000	65.442872 
7579.000000	65.210676 
7578.000000	64.742422 
7577.000000	64.132881 
7576.000000	63.475990 
7575.000000	62.852382 
7574.000000	62.325811 
7573.000000	61.942195 
7572.000000	61.733984 
7571.000000	61.721420 
7570.000000	61.918282 
7569.000000	62.326669 
7568.000000	62.925052 
7567.000000	63.672137 
7566.000000	64.500045 
7565.000000	65.332531 
7564.000000	66.088938 
7563.000000	66.707015 
7562.000000	67.155194 
7561.000000	67.432332 
7560.000000	67.571902 
7559.000000	67.613887 
7558.000000	67.603969 
7557.000000	67.553901 
7556.000000	67.447209 
7555.000000	67.224860 
7554.000000	66.809582 
7553.000000	66.127943 
7552.000000	65.145230 
7551.000000	63.881754 
7550.000000	62.423563 
7549.000000	60.912442 
7548.000000	59.523558 
7547.000000	58.428812 
7546.000000	57.764863 
7545.000000	57.606482 
7544.000000	57.954931 
7543.000000	58.741283 
7542.000000	59.842848 
7541.000000	61.103940 
7540.000000	62.368917 
7539.000000	63.495326 
7538.000000	64.385056 
7537.000000	64.989185 
7536.000000	65.308928 
7535.000000	65.379929 
7534.000000	65.255665 
7533.000000	64.994359 
7532.000000	64.639568 
7531.000000	64.221477 
7530.000000	63.753414 
7529.000000	63.248491 
7528.000000	62.723445 
7527.000000	62.212443 
7526.000000	61.761760 
7525.000000	61.425161 
7524.000000	61.254596 
7523.000000	61.287236 
7522.000000	61.536884 
7521.000000	61.986875 
7520.000000	62.593173 
7519.000000	63.288688 
7518.000000	63.993000 
7517.000000	64.622926 
7516.000000	65.108060 
7515.000000	65.396881 
7514.000000	65.458869 
7513.000000	65.288615 
7512.000000	64.904665 
7511.000000	64.347434 
7510.000000	63.678383 
7509.000000	62.968277 
7508.000000	62.290287 
7507.000000	61.708831 
7506.000000	61.277556 
7505.000000	61.026859 
7504.000000	60.961079 
7503.000000	61.061954 
7502.000000	61.293482 
7501.000000	61.611080 
7500.000000	61.968326 
7499.000000	62.323474 
7498.000000	62.641429 
7497.000000	62.895727 
7496.000000	63.067054 
7495.000000	63.138866 
7494.000000	63.097000 
7493.000000	62.934827 
7492.000000	62.656140 
7491.000000	62.278580 
7490.000000	61.833381 
7489.000000	61.368727 
7488.000000	60.938239 
7487.000000	60.591554 
7486.000000	60.363197 
7485.000000	60.262441 
7484.000000	60.275483 
7483.000000	60.369729 
7482.000000	60.504651 
7481.000000	60.642194 
7480.000000	60.755562 
7479.000000	60.830473 
7478.000000	60.868287 
7477.000000	60.880374 
7476.000000	60.881590 
7475.000000	60.879302 
7474.000000	60.875797 
7473.000000	60.866737 
7472.000000	60.846757 
7471.000000	60.814189 
7470.000000	60.774946 
7469.000000	60.743594 
7468.000000	60.748839 
7467.000000	60.828447 
7466.000000	61.015415 
7465.000000	61.329889 
7464.000000	61.775684 
7463.000000	62.335395 
7462.000000	62.972235 
7461.000000	63.634037 
7460.000000	64.260983 
7459.000000	64.796137 
7458.000000	65.197658 
7457.000000	65.444588 
7456.000000	65.535306 
7455.000000	65.491461 
7454.000000	65.353178 
7453.000000	65.172529 
7452.000000	65.005493 
7451.000000	64.900279 
7450.000000	64.897370 
7449.000000	65.011048 
7448.000000	65.234923 
7447.000000	65.530633 
7446.000000	65.842914 
7445.000000	66.093778 
7444.000000	66.200661 
7443.000000	66.085958 
7442.000000	65.695929 
7441.000000	65.010666 
7440.000000	64.054179 
7439.000000	62.895226 
7438.000000	61.641621 
7437.000000	60.424041 
7436.000000	59.377694 
7435.000000	58.617544 
7434.000000	58.221626 
7433.000000	58.222198 
7432.000000	58.599829 
7431.000000	59.283590 
7430.000000	60.168552 
7429.000000	61.127829 
7428.000000	62.043642 
7427.000000	62.810087 
7426.000000	63.368010 
7425.000000	63.700556 
7424.000000	63.841962 
7423.000000	63.859724 
7422.000000	63.835859 
7421.000000	63.843917 
7420.000000	63.930726 
7419.000000	64.109563 
7418.000000	64.360451 
7417.000000	64.644312 
7416.000000	64.916968 
7415.000000	65.146565 
7414.000000	65.321922 
7413.000000	65.454530 
7412.000000	65.567898 
7411.000000	65.685796 
7410.000000	65.820097 
7409.000000	65.962457 
7408.000000	66.084313 
7407.000000	66.145062 
7406.000000	66.103386 
7405.000000	65.935277 
7404.000000	65.647816 
7403.000000	65.282821 
7402.000000	64.907217 
7401.000000	64.602112 
7400.000000	64.443445 
7399.000000	64.482855 
7398.000000	64.734458 
7397.000000	65.168380 
7396.000000	65.719270 
7395.000000	66.296648 
7394.000000	66.808724 
7393.000000	67.174959 
7392.000000	67.342853 
7391.000000	67.293024 
7390.000000	67.039203 
7389.000000	66.619539 
7388.000000	66.084718 
7387.000000	65.484786 
7386.000000	64.859151 
7385.000000	64.233660 
7384.000000	63.620281 
7383.000000	63.024640 
7382.000000	62.452077 
7381.000000	61.908125 
7380.000000	61.407756 
7379.000000	60.969257 
7378.000000	60.623288 
7377.000000	60.394382 
7376.000000	60.313963 
7375.000000	60.403609 
7374.000000	60.682964 
7373.000000	61.156511 
7372.000000	61.815619 
7371.000000	62.632989 
7370.000000	63.560175 
7369.000000	64.528679 
7368.000000	65.455746 
7367.000000	66.254138 
7366.000000	66.847681 
7365.000000	67.182159 
7364.000000	67.245388 
7363.000000	67.071151 
7362.000000	66.732192 
7361.000000	66.324687 
7360.000000	65.939188 
7359.000000	65.639233 
7358.000000	65.445566 
7357.000000	65.335583 
7356.000000	65.253424 
7355.000000	65.132641 
7354.000000	64.926433 
7353.000000	64.624190 
7352.000000	64.250707 
7351.000000	63.866090 
7350.000000	63.544535 
7349.000000	63.357996 
7348.000000	63.352608 
7347.000000	63.535594 
7346.000000	63.877654 
7345.000000	64.309096 
7344.000000	64.739108 
7343.000000	65.068817 
7342.000000	65.216541 
7341.000000	65.129995 
7340.000000	64.796185 
7339.000000	64.243173 
7338.000000	63.529276 
7337.000000	62.738227 
7336.000000	61.962819 
7335.000000	61.287784 
7334.000000	60.775947 
7333.000000	60.464143 
7332.000000	60.362577 
7331.000000	60.454058 
7330.000000	60.704350 
7329.000000	61.072206 
7328.000000	61.519837 
7327.000000	62.014818 
7326.000000	62.534713 
7325.000000	63.057231 
7324.000000	63.564443 
7323.000000	64.032125 
7322.000000	64.440107 
7321.000000	64.769840 
7320.000000	65.016031 
7319.000000	65.190839 
7318.000000	65.321969 
7317.000000	65.451550 
7316.000000	65.620303 
7315.000000	65.864324 
7314.000000	66.192507 
7313.000000	66.587376 
7312.000000	66.998434 
7311.000000	67.356872 
7310.000000	67.587137 
7309.000000	67.628645 
7308.000000	67.449498 
7307.000000	67.057895 
7306.000000	66.491460 
7305.000000	65.810084 
7304.000000	65.082955 
7303.000000	64.376473 
7302.000000	63.745355 
7301.000000	63.227581 
7300.000000	62.844443 
7299.000000	62.602519 
7298.000000	62.498903 
7297.000000	62.524652 
7296.000000	62.658786 
7295.000000	62.878012 
7294.000000	63.155031 
7293.000000	63.463568 
7292.000000	63.773345 
7291.000000	64.056324 
7290.000000	64.286422 
7289.000000	64.442372 
7288.000000	64.507222 
7287.000000	64.474463 
7286.000000	64.347553 
7285.000000	64.146327 
7284.000000	63.903617 
7283.000000	63.668179 
7282.000000	63.496971 
7281.000000	63.444995 
7280.000000	63.552594 
7279.000000	63.829421 
7278.000000	64.247488 
7277.000000	64.738225 
7276.000000	65.204715 
7275.000000	65.539789 
7274.000000	65.652370 
7273.000000	65.489721 
7272.000000	65.053606 
7271.000000	64.399147 
7270.000000	63.626432 
7269.000000	62.857174 
7268.000000	62.209749 
7267.000000	61.774158 
7266.000000	61.595511 
7265.000000	61.669826 
7264.000000	61.949825 
7263.000000	62.362313 
7262.000000	62.826538 
7261.000000	63.273048 
7260.000000	63.655591 
7259.000000	63.952374 
7258.000000	64.164876 
7257.000000	64.304256 
7256.000000	64.386034 
7255.000000	64.418888 
7254.000000	64.406204 
7253.000000	64.346551 
7252.000000	64.236426 
7251.000000	64.074158 
7250.000000	63.866734 
7249.000000	63.628315 
7248.000000	63.375020 
7247.000000	63.119983 
7246.000000	62.868833 
7245.000000	62.618613 
7244.000000	62.359738 
7243.000000	62.082004 
7242.000000	61.775374 
7241.000000	61.442136 
7240.000000	61.097669 
7239.000000	60.774302 
7238.000000	60.511708 
7237.000000	60.353899 
7236.000000	60.331988 
7235.000000	60.463452 
7234.000000	60.742926 
7233.000000	61.146235 
7232.000000	61.631679 
7231.000000	62.150287 
7230.000000	62.651443 
7229.000000	63.097262 
7228.000000	63.466811 
7227.000000	63.759565 
7226.000000	63.990521 
7225.000000	64.188957 
7224.000000	64.386892 
7223.000000	64.612984 
7222.000000	64.879441 
7221.000000	65.178632 
7220.000000	65.477728 
7219.000000	65.727496 
7218.000000	65.869498 
7217.000000	65.849804 
7216.000000	65.634346 
7215.000000	65.221810 
7214.000000	64.648890 
7213.000000	63.983345 
7212.000000	63.314867 
7211.000000	62.740612 
7210.000000	62.341308 
7209.000000	62.165880 
7208.000000	62.219142 
7207.000000	62.463712 
7206.000000	62.828302 
7205.000000	63.225889 
7204.000000	63.573718 
7203.000000	63.808894 
7202.000000	63.904404 
7201.000000	63.869714 
7200.000000	63.742327 
7199.000000	63.571333 
7198.000000	63.404226 
7197.000000	63.271999 
7196.000000	63.179516 
7195.000000	63.107180 
7194.000000	63.023233 
7193.000000	62.897706 
7192.000000	62.714147 
7191.000000	62.481379 
7190.000000	62.231802 
7189.000000	62.019681 
7188.000000	61.902403 
7187.000000	61.931228 
7186.000000	62.136697 
7185.000000	62.518382 
7184.000000	63.046073 
7183.000000	63.657927 
7182.000000	64.272761 
7181.000000	64.803647 
7180.000000	65.177464 
7179.000000	65.346050 
7178.000000	65.293169 
7177.000000	65.039634 
7176.000000	64.638304 
7175.000000	64.158821 
7174.000000	63.672780 
7173.000000	63.237333 
7172.000000	62.886381 
7171.000000	62.625002 
7170.000000	62.435102 
7169.000000	62.283110 
7168.000000	62.134814 
7167.000000	61.967635 
7166.000000	61.779117 
7165.000000	61.585211 
7164.000000	61.416149 
7163.000000	61.302328 
7162.000000	61.267161 
7161.000000	61.311841 
7160.000000	61.421155 
7159.000000	61.565279 
7158.000000	61.712765 
7157.000000	61.837911 
7156.000000	61.931252 
7155.000000	61.999821 
7154.000000	62.066507 
7153.000000	62.158870 
7152.000000	62.302875 
7151.000000	62.511539 
7150.000000	62.782359 
7149.000000	63.096666 
7148.000000	63.423705 
7147.000000	63.728380 
7146.000000	63.979029 
7145.000000	64.155125 
7144.000000	64.243125 
7143.000000	64.237475 
7142.000000	64.139890 
7141.000000	63.957905 
7140.000000	63.704037 
7139.000000	63.393831 
7138.000000	63.049483 
7137.000000	62.694025 
7136.000000	62.351465 
7135.000000	62.040758 
7134.000000	61.772441 
7133.000000	61.549830 
7132.000000	61.367893 
7131.000000	61.220765 
7130.000000	61.101961 
7129.000000	61.012959 
7128.000000	60.958051 
7127.000000	60.951423 
7126.000000	61.006164 
7125.000000	61.139702 
7124.000000	61.363554 
7123.000000	61.684489 
7122.000000	62.096238 
7121.000000	62.585926 
7120.000000	63.133239 
7119.000000	63.711333 
7118.000000	64.288187 
7117.000000	64.827060 
7116.000000	65.288615 
7115.000000	65.633249 
7114.000000	65.825462 
7113.000000	65.839862 
7112.000000	65.665602 
7111.000000	65.314769 
7110.000000	64.820361 
7109.000000	64.231038 
7108.000000	63.606929 
7107.000000	63.013577 
7106.000000	62.513947 
7105.000000	62.160515 
7104.000000	61.988973 
7103.000000	62.015914 
7102.000000	62.233853 
7101.000000	62.614440 
7100.000000	63.107347 
7099.000000	63.644671 
7098.000000	64.152169 
7097.000000	64.559197 
7096.000000	64.810514 
7095.000000	64.871740 
7094.000000	64.739441 
7093.000000	64.439392 
7092.000000	64.023041 
7091.000000	63.556909 
7090.000000	63.111782 
7089.000000	62.751102 
7088.000000	62.518978 
7087.000000	62.436795 
7086.000000	62.507820 
7085.000000	62.720608 
7084.000000	63.054251 
7083.000000	63.482236 
7082.000000	63.975977 
7081.000000	64.503049 
7080.000000	65.029573 
7079.000000	65.514850 
7078.000000	65.912270 
7077.000000	66.171216 
7076.000000	66.249895 
7075.000000	66.117238 
7074.000000	65.762829 
7073.000000	65.201711 
7072.000000	64.478063 
7071.000000	63.660669 
7070.000000	62.835741 
7069.000000	62.092566 
7068.000000	61.510014 
7067.000000	61.142492 
7066.000000	61.012625 
7065.000000	61.103892 
7064.000000	61.365962 
7063.000000	61.720681 
7062.000000	62.079834 
7061.000000	62.359166 
7060.000000	62.499642 
7059.000000	62.475967 
7058.000000	62.306404 
7057.000000	62.047886 
7056.000000	61.784219 
7055.000000	61.604404 
7054.000000	61.580586 
7053.000000	61.754965 
7052.000000	62.122821 
7051.000000	62.640023 
7050.000000	63.224244 
7049.000000	63.778781 
7048.000000	64.208459 
7047.000000	64.442634 
7046.000000	64.448165 
7045.000000	64.230155 
7044.000000	63.836121 
7043.000000	63.341593 
7042.000000	62.836527 
7041.000000	62.405419 
7040.000000	62.112808 
7039.000000	61.993503 
7038.000000	62.049937 
7037.000000	62.258768 
7036.000000	62.575697 
7035.000000	62.949728 
7034.000000	63.334512 
7033.000000	63.699817 
7032.000000	64.032173 
7031.000000	64.336967 
7030.000000	64.630746 
7029.000000	64.934182 
7028.000000	65.264463 
7027.000000	65.624642 
7026.000000	66.006803 
7025.000000	66.382861 
7024.000000	66.715788 
7023.000000	66.958332 
7022.000000	67.073774 
7021.000000	67.031860 
7020.000000	66.822147 
7019.000000	66.449236 
7018.000000	65.936756 
7017.000000	65.320014 
7016.000000	64.644837 
7015.000000	63.957405 
7014.000000	63.299989 
7013.000000	62.707757 
7012.000000	62.207770 
7011.000000	61.820840 
7010.000000	61.562490 
7009.000000	61.445856 
7008.000000	61.480975 
7007.000000	61.672782 
7006.000000	62.018275 
7005.000000	62.498617 
7004.000000	63.081645 
7003.000000	63.715958 
7002.000000	64.344859 
7001.000000	64.917993 
7000.000000	65.401530 
6999.000000	65.781068 
6998.000000	66.061973 
6997.000000	66.268873 
6996.000000	66.429615 
6995.000000	66.568565 
6994.000000	66.693568 
6993.000000	66.799306 
6992.000000	66.863536 
6991.000000	66.862154 
6990.000000	66.772341 
6989.000000	66.587138 
6988.000000	66.316199 
6987.000000	65.989041 
6986.000000	65.646910 
6985.000000	65.333867 
6984.000000	65.091896 
6983.000000	64.952039 
6982.000000	64.934682 
6981.000000	65.044903 
6980.000000	65.278291 
6979.000000	65.616321 
6978.000000	66.022348 
6977.000000	66.441822 
6976.000000	66.804289 
6975.000000	67.035579 
6974.000000	67.071676 
6973.000000	66.874289 
6972.000000	66.440415 
6971.000000	65.806865 
6970.000000	65.047669 
6969.000000	64.257884 
6968.000000	63.533830 
6967.000000	62.955045 
6966.000000	62.574505 
6965.000000	62.404727 
6964.000000	62.421488 
6963.000000	62.569737 
6962.000000	62.779617 
6961.000000	62.981891 
6960.000000	63.120675 
6959.000000	63.166284 
