PE IR       SPECTRUM    SPECTRUM    ASCII       PEDS        1.60        
  -1
C-99E1~1.ASC
17/05/02
11:04:08.00
17/05/02
11:04:08.00
tln
$C-4040-8_t0003$<tbV0>[2.5,-13.0,8.0,0.0,22,1,0]
370.000000
64









2002,4.07    
MIRTGS : RIGHTBACK : INTERNAL 2
MIR : ON : INTERNAL 2
OPTKBR

0.200000
8
8.000000
FILLER
RATIO
SPECTRUM
UNLOCKED 256

DOUBLE
64
COMBINED
1
0
0


1.000000
RATIO


1
0
TRUE
51149
0
LEFT NOT FITTED RIGHT NOT FITTED 0
NONE
NONE
15600
12.000000
4.427000
51148
TRUE
1 0 8 72 0 0 0 0 

15798.010000






#HDR
-1
-1
#GR
CM-1
%T
0.00002384185791015625
0.0
7800.000000
-1.000000
7431
8
73.852038
25.595498
#DATA
7800.000000	70.635914 
7799.000000	69.834899 
7798.000000	68.750929 
7797.000000	67.468237 
7796.000000	66.079020 
7795.000000	64.671230 
7794.000000	63.312053 
7793.000000	62.046694 
7792.000000	60.914254 
7791.000000	59.955978 
7790.000000	59.215044 
7789.000000	58.735227 
7788.000000	58.551073 
7787.000000	58.679151 
7786.000000	59.086465 
7785.000000	59.707665 
7784.000000	60.437417 
7783.000000	61.176395 
7782.000000	61.831092 
7781.000000	62.367677 
7780.000000	62.807869 
7779.000000	63.238906 
7778.000000	63.787627 
7777.000000	64.575743 
7776.000000	65.683913 
7775.000000	67.101740 
7774.000000	68.731045 
7773.000000	70.374798 
7772.000000	71.786236 
7771.000000	72.717761 
7770.000000	72.990751 
7769.000000	72.535943 
7768.000000	71.417951 
7767.000000	69.826841 
7766.000000	68.038225 
7765.000000	66.339802 
7764.000000	64.965891 
7763.000000	64.053273 
7762.000000	63.617348 
7761.000000	63.566446 
7760.000000	63.736462 
7759.000000	63.948249 
7758.000000	64.055275 
7757.000000	63.973593 
7756.000000	63.701033 
7755.000000	63.283109 
7754.000000	62.810659 
7753.000000	62.372136 
7752.000000	62.042570 
7751.000000	61.853146 
7750.000000	61.800003 
7749.000000	61.851501 
7748.000000	61.966395 
7747.000000	62.110161 
7746.000000	62.270665 
7745.000000	62.461256 
7744.000000	62.713170 
7743.000000	63.057017 
7742.000000	63.511419 
7741.000000	64.068293 
7740.000000	64.686584 
7739.000000	65.294981 
7738.000000	65.808391 
7737.000000	66.143035 
7736.000000	66.240024 
7735.000000	66.073441 
7734.000000	65.641570 
7733.000000	64.967513 
7732.000000	64.099025 
7731.000000	63.101768 
7730.000000	62.045860 
7729.000000	61.006760 
7728.000000	60.062313 
7727.000000	59.288716 
7726.000000	58.750128 
7725.000000	58.496499 
7724.000000	58.550477 
7723.000000	58.908891 
7722.000000	59.536528 
7721.000000	60.370945 
7720.000000	61.322927 
7719.000000	62.291097 
7718.000000	63.172173 
7717.000000	63.874650 
7716.000000	64.324951 
7715.000000	64.490318 
7714.000000	64.380359 
7713.000000	64.056706 
7712.000000	63.621282 
7711.000000	63.201141 
7710.000000	62.921524 
7709.000000	62.889266 
7708.000000	63.166308 
7707.000000	63.752889 
7706.000000	64.586496 
7705.000000	65.552425 
7704.000000	66.514348 
7703.000000	67.342472 
7702.000000	67.948865 
7701.000000	68.307709 
7700.000000	68.454384 
7699.000000	68.474435 
7698.000000	68.462300 
7697.000000	68.504524 
7696.000000	68.627405 
7695.000000	68.796515 
7694.000000	68.909764 
7693.000000	68.834567 
7692.000000	68.446683 
7691.000000	67.676186 
7690.000000	66.545128 
7689.000000	65.169715 
7688.000000	63.764333 
7687.000000	62.595272 
7686.000000	61.923742 
7685.000000	61.939120 
7684.000000	62.713932 
7683.000000	64.180636 
7682.000000	66.140222 
7681.000000	68.305683 
7680.000000	70.370173 
7679.000000	72.071075 
7678.000000	73.236608 
7677.000000	73.812222 
7676.000000	73.852038 
7675.000000	73.490095 
7674.000000	72.889304 
7673.000000	72.199511 
7672.000000	71.537446 
7671.000000	70.955276 
7670.000000	70.474410 
7669.000000	70.065021 
7668.000000	69.692492 
7667.000000	69.310545 
7666.000000	68.892359 
7665.000000	68.423748 
7664.000000	67.901635 
7663.000000	67.341732 
7662.000000	66.763591 
7661.000000	66.209483 
7660.000000	65.732884 
7659.000000	65.397262 
7658.000000	65.259122 
7657.000000	65.347766 
7656.000000	65.649533 
7655.000000	66.094779 
7654.000000	66.566538 
7653.000000	66.918492 
7652.000000	67.011237 
7651.000000	66.742396 
7650.000000	66.081953 
7649.000000	65.081453 
7648.000000	63.876104 
7647.000000	62.642383 
7646.000000	61.578464 
7645.000000	60.862112 
7644.000000	60.616016 
7643.000000	60.889172 
7642.000000	61.640691 
7641.000000	62.751436 
7640.000000	64.047050 
7639.000000	65.337395 
7638.000000	66.448640 
7637.000000	67.251181 
7636.000000	67.678356 
7635.000000	67.727351 
7634.000000	67.444491 
7633.000000	66.902685 
7632.000000	66.185021 
7631.000000	65.367579 
7630.000000	64.515256 
7629.000000	63.679862 
7628.000000	62.907958 
7627.000000	62.243294 
7626.000000	61.725044 
7625.000000	61.387372 
7624.000000	61.247277 
7623.000000	61.307477 
7622.000000	61.548733 
7621.000000	61.939549 
7620.000000	62.431049 
7619.000000	62.974357 
7618.000000	63.522100 
7617.000000	64.039611 
7616.000000	64.503502 
7615.000000	64.903426 
7614.000000	65.234088 
7613.000000	65.495276 
7612.000000	65.688443 
7611.000000	65.815019 
7610.000000	65.881252 
7609.000000	65.890693 
7608.000000	65.849757 
7607.000000	65.759682 
7606.000000	65.622234 
7605.000000	65.430307 
7604.000000	65.172743 
7603.000000	64.839911 
7602.000000	64.429903 
7601.000000	63.954806 
7600.000000	63.441896 
7599.000000	62.927341 
7598.000000	62.451052 
7597.000000	62.051105 
7596.000000	61.756157 
7595.000000	61.573743 
7594.000000	61.493945 
7593.000000	61.496543 
7592.000000	61.554169 
7591.000000	61.635470 
7590.000000	61.711454 
7589.000000	61.762356 
7588.000000	61.772847 
7587.000000	61.727547 
7586.000000	61.614251 
7585.000000	61.419081 
7584.000000	61.138486 
7583.000000	60.782551 
7582.000000	60.376834 
7581.000000	59.961128 
7580.000000	59.579682 
7579.000000	59.273743 
7578.000000	59.065914 
7577.000000	58.955430 
7576.000000	58.919763 
7575.000000	58.923816 
7574.000000	58.930420 
7573.000000	58.917307 
7572.000000	58.882570 
7571.000000	58.855652 
7570.000000	58.884286 
7569.000000	59.034633 
7568.000000	59.368109 
7567.000000	59.935021 
7566.000000	60.755300 
7565.000000	61.815881 
7564.000000	63.069367 
7563.000000	64.438199 
7562.000000	65.833020 
7561.000000	67.154693 
7560.000000	68.313550 
7559.000000	69.231677 
7558.000000	69.858145 
7557.000000	70.164895 
7556.000000	70.154190 
7555.000000	69.850492 
7554.000000	69.304370 
7553.000000	68.577671 
7552.000000	67.741942 
7551.000000	66.870403 
7550.000000	66.036081 
7549.000000	65.298223 
7548.000000	64.699125 
7547.000000	64.264965 
7546.000000	64.004230 
7545.000000	63.902640 
7544.000000	63.928890 
7543.000000	64.034438 
7542.000000	64.168095 
7541.000000	64.282178 
7540.000000	64.347457 
7539.000000	64.343643 
7538.000000	64.275288 
7537.000000	64.171266 
7536.000000	64.074468 
7535.000000	64.025235 
7534.000000	64.050531 
7533.000000	64.161419 
7532.000000	64.339041 
7531.000000	64.536595 
7530.000000	64.694046 
7529.000000	64.754891 
7528.000000	64.684414 
7527.000000	64.478278 
7526.000000	64.176511 
7525.000000	63.854098 
7524.000000	63.612914 
7523.000000	63.555932 
7522.000000	63.768744 
7521.000000	64.293885 
7520.000000	65.125107 
7519.000000	66.197323 
7518.000000	67.393684 
7517.000000	68.556976 
7516.000000	69.524717 
7515.000000	70.147466 
7514.000000	70.316410 
7513.000000	69.976210 
7512.000000	69.137144 
7511.000000	67.868185 
7510.000000	66.286706 
7509.000000	64.538764 
7508.000000	62.778353 
7507.000000	61.150312 
7506.000000	59.777951 
7505.000000	58.751392 
7504.000000	58.125066 
7503.000000	57.914185 
7502.000000	58.095216 
7501.000000	58.612298 
7500.000000	59.379220 
7499.000000	60.295009 
7498.000000	61.249709 
7497.000000	62.141799 
7496.000000	62.884998 
7495.000000	63.425493 
7494.000000	63.743758 
7493.000000	63.858628 
7492.000000	63.816308 
7491.000000	63.681364 
7490.000000	63.515400 
7489.000000	63.371467 
7488.000000	63.273501 
7487.000000	63.219499 
7486.000000	63.177490 
7485.000000	63.102316 
7484.000000	62.947297 
7483.000000	62.680196 
7482.000000	62.298274 
7481.000000	61.829400 
7480.000000	61.334490 
7479.000000	60.886096 
7478.000000	60.563302 
7477.000000	60.431504 
7476.000000	60.528516 
7475.000000	60.851216 
7474.000000	61.361217 
7473.000000	61.993646 
7472.000000	62.667489 
7471.000000	63.301491 
7470.000000	63.828253 
7469.000000	64.203977 
7468.000000	64.419126 
7467.000000	64.495706 
7466.000000	64.475584 
7465.000000	64.407730 
7464.000000	64.340901 
7463.000000	64.311861 
7462.000000	64.337611 
7461.000000	64.417171 
7460.000000	64.542603 
7459.000000	64.702558 
7458.000000	64.892864 
7457.000000	65.113997 
7456.000000	65.367436 
7455.000000	65.652990 
7454.000000	65.964531 
7453.000000	66.286921 
7452.000000	66.595220 
7451.000000	66.858673 
7450.000000	67.050385 
7449.000000	67.148184 
7448.000000	67.143154 
7447.000000	67.036890 
7446.000000	66.844534 
7445.000000	66.585922 
7444.000000	66.282558 
7443.000000	65.953779 
7442.000000	65.615105 
7441.000000	65.275239 
7440.000000	64.936351 
7439.000000	64.594435 
7438.000000	64.241743 
7437.000000	63.866686 
7436.000000	63.461494 
7435.000000	63.018441 
7434.000000	62.544679 
7433.000000	62.060332 
7432.000000	61.609005 
7431.000000	61.247205 
7430.000000	61.040782 
7429.000000	61.049675 
7428.000000	61.309909 
7427.000000	61.820220 
7426.000000	62.533307 
7425.000000	63.358759 
7424.000000	64.178371 
7423.000000	64.861869 
7422.000000	65.306353 
7421.000000	65.456175 
7420.000000	65.321826 
7419.000000	64.972901 
7418.000000	64.529252 
7417.000000	64.130425 
7416.000000	63.903164 
7415.000000	63.930678 
7414.000000	64.236068 
7413.000000	64.778828 
7412.000000	65.469884 
7411.000000	66.194748 
7410.000000	66.838979 
7409.000000	67.315244 
7408.000000	67.578744 
7407.000000	67.634606 
7406.000000	67.525172 
7405.000000	67.317986 
7404.000000	67.086124 
7403.000000	66.888356 
7402.000000	66.763567 
7401.000000	66.715431 
7400.000000	66.731595 
7399.000000	66.771340 
7398.000000	66.787004 
7397.000000	66.725850 
7396.000000	66.547799 
7395.000000	66.229724 
7394.000000	65.771102 
7393.000000	65.194725 
7392.000000	64.541172 
7391.000000	63.862657 
7390.000000	63.213205 
7389.000000	62.639212 
7388.000000	62.172484 
7387.000000	61.829948 
7386.000000	61.614751 
7385.000000	61.519598 
7384.000000	61.530733 
7383.000000	61.631751 
7382.000000	61.804914 
7381.000000	62.026619 
7380.000000	62.269663 
7379.000000	62.501239 
7378.000000	62.689924 
7377.000000	62.801218 
7376.000000	62.814617 
7375.000000	62.725472 
7374.000000	62.554502 
7373.000000	62.344622 
7372.000000	62.154626 
7371.000000	62.044167 
7370.000000	62.062859 
7369.000000	62.238073 
7368.000000	62.569308 
7367.000000	63.027572 
7366.000000	63.564181 
7365.000000	64.123415 
7364.000000	64.650940 
7363.000000	65.103602 
7362.000000	65.454530 
7361.000000	65.694522 
7360.000000	65.822672 
7359.000000	65.841388 
7358.000000	65.755391 
7357.000000	65.569925 
7356.000000	65.291023 
7355.000000	64.929151 
7354.000000	64.508247 
7353.000000	64.064145 
7352.000000	63.643288 
7351.000000	63.295221 
7350.000000	63.062596 
7349.000000	62.973999 
7348.000000	63.036727 
7347.000000	63.236880 
7346.000000	63.538289 
7345.000000	63.894510 
7344.000000	64.255762 
7343.000000	64.581990 
7342.000000	64.843440 
7341.000000	65.032505 
7340.000000	65.160655 
7339.000000	65.252757 
7338.000000	65.335321 
7337.000000	65.431666 
7336.000000	65.555667 
7335.000000	65.707182 
7334.000000	65.873265 
7333.000000	66.037511 
7332.000000	66.186261 
7331.000000	66.312003 
7330.000000	66.414976 
7329.000000	66.502261 
7328.000000	66.583442 
7327.000000	66.665673 
7326.000000	66.750144 
7325.000000	66.830182 
7324.000000	66.893792 
7323.000000	66.931319 
7322.000000	66.935586 
7321.000000	66.911005 
7320.000000	66.863703 
7319.000000	66.808319 
7318.000000	66.748785 
7317.000000	66.678237 
7316.000000	66.572046 
7315.000000	66.395854 
7314.000000	66.111493 
7313.000000	65.691280 
7312.000000	65.127468 
7311.000000	64.440989 
7310.000000	63.677668 
7309.000000	62.901878 
7308.000000	62.181520 
7307.000000	61.574459 
7306.000000	61.118578 
7305.000000	60.827326 
7304.000000	60.692238 
7303.000000	60.689926 
7302.000000	60.793399 
7301.000000	60.978388 
7300.000000	61.224508 
7299.000000	61.515164 
7298.000000	61.829733 
7297.000000	62.144494 
7296.000000	62.421417 
7295.000000	62.623548 
7294.000000	62.719559 
7293.000000	62.698078 
7292.000000	62.571740 
7291.000000	62.378811 
7290.000000	62.178564 
7289.000000	62.034988 
7288.000000	62.002110 
7287.000000	62.109398 
7286.000000	62.353968 
7285.000000	62.703418 
7284.000000	63.105797 
7283.000000	63.503098 
7282.000000	63.845658 
7281.000000	64.106178 
7280.000000	64.284682 
7279.000000	64.399075 
7278.000000	64.475488 
7277.000000	64.539504 
7276.000000	64.605355 
7275.000000	64.673757 
7274.000000	64.728999 
7273.000000	64.752507 
7272.000000	64.721417 
7271.000000	64.619946 
7270.000000	64.436960 
7269.000000	64.169311 
7268.000000	63.820600 
7267.000000	63.402915 
7266.000000	62.933921 
7265.000000	62.436318 
7264.000000	61.935567 
7263.000000	61.455321 
7262.000000	61.019682 
7261.000000	60.649228 
7260.000000	60.364532 
7259.000000	60.179972 
7258.000000	60.109996 
7257.000000	60.163450 
7256.000000	60.345029 
7255.000000	60.649108 
7254.000000	61.060667 
7253.000000	61.551976 
7252.000000	62.082576 
7251.000000	62.601375 
7250.000000	63.051295 
7249.000000	63.376903 
7248.000000	63.536238 
7247.000000	63.506793 
7246.000000	63.291239 
7245.000000	62.915754 
7244.000000	62.424755 
7243.000000	61.875510 
7242.000000	61.325240 
7241.000000	60.830569 
7240.000000	60.443234 
7239.000000	60.207390 
7238.000000	60.154724 
7237.000000	60.303378 
7236.000000	60.652065 
7235.000000	61.182713 
7234.000000	61.855292 
7233.000000	62.619113 
7232.000000	63.411998 
7231.000000	64.177966 
7230.000000	64.871740 
7229.000000	65.465712 
7228.000000	65.948629 
7227.000000	66.325473 
7226.000000	66.610908 
7225.000000	66.820597 
7224.000000	66.964149 
7223.000000	67.044258 
7222.000000	67.054629 
7221.000000	66.987895 
7220.000000	66.834688 
7219.000000	66.596555 
7218.000000	66.278481 
7217.000000	65.891623 
7216.000000	65.446019 
7215.000000	64.950752 
7214.000000	64.413022 
7213.000000	63.837456 
7212.000000	63.235497 
7211.000000	62.626647 
7210.000000	62.045550 
7209.000000	61.534214 
7208.000000	61.143493 
7207.000000	60.918164 
7206.000000	60.892701 
7205.000000	61.077928 
7204.000000	61.458611 
7203.000000	61.988282 
7202.000000	62.603044 
7201.000000	63.231635 
7200.000000	63.804936 
7199.000000	64.265608 
7198.000000	64.582562 
7197.000000	64.754462 
7196.000000	64.802145 
7195.000000	64.763092 
7194.000000	64.689183 
7193.000000	64.633488 
7192.000000	64.642143 
7191.000000	64.743113 
7190.000000	64.944696 
7189.000000	65.232181 
7188.000000	65.575623 
7187.000000	65.935707 
7186.000000	66.272807 
7185.000000	66.556954 
7184.000000	66.774606 
7183.000000	66.929006 
7182.000000	67.035818 
7181.000000	67.116475 
7180.000000	67.194747 
7179.000000	67.281532 
7178.000000	67.372751 
7177.000000	67.447447 
7176.000000	67.478799 
7175.000000	67.434000 
7174.000000	67.287111 
7173.000000	67.020249 
7172.000000	66.630482 
7171.000000	66.122508 
7170.000000	65.509939 
7169.000000	64.807724 
7168.000000	64.035058 
7167.000000	63.220763 
7166.000000	62.405586 
7165.000000	61.640739 
7164.000000	60.983109 
7163.000000	60.486769 
7162.000000	60.192108 
7161.000000	60.110521 
7160.000000	60.225415 
7159.000000	60.486102 
7158.000000	60.827851 
7157.000000	61.175274 
7156.000000	61.471748 
7155.000000	61.684918 
7154.000000	61.818289 
7153.000000	61.901950 
7152.000000	61.982083 
7151.000000	62.099933 
7150.000000	62.280392 
7149.000000	62.521982 
7148.000000	62.797975 
7147.000000	63.064479 
7146.000000	63.277220 
7145.000000	63.406515 
7144.000000	63.440966 
7143.000000	63.390684 
7142.000000	63.279008 
7141.000000	63.135528 
7140.000000	62.984752 
7139.000000	62.841916 
7138.000000	62.713551 
7137.000000	62.599802 
7136.000000	62.498974 
7135.000000	62.412238 
7134.000000	62.350511 
7133.000000	62.330150 
7132.000000	62.364816 
7131.000000	62.465119 
7130.000000	62.627744 
7129.000000	62.844038 
7128.000000	63.094854 
7127.000000	63.365364 
7126.000000	63.644385 
7125.000000	63.934612 
7124.000000	64.251637 
7123.000000	64.615297 
7122.000000	65.040135 
7121.000000	65.524840 
7120.000000	66.047644 
7119.000000	66.562795 
7118.000000	67.008757 
7117.000000	67.319536 
7116.000000	67.440938 
7115.000000	67.344403 
7114.000000	67.036080 
7113.000000	66.558670 
7112.000000	65.982747 
7111.000000	65.392494 
7110.000000	64.867734 
7109.000000	64.469051 
7108.000000	64.226961 
7107.000000	64.142465 
7106.000000	64.189624 
7105.000000	64.328694 
7104.000000	64.515328 
7103.000000	64.711642 
7102.000000	64.891409 
7101.000000	65.039587 
7100.000000	65.150594 
7099.000000	65.218329 
7098.000000	65.237784 
7097.000000	65.200948 
7096.000000	65.100955 
7095.000000	64.934754 
7094.000000	64.708280 
7093.000000	64.439678 
7092.000000	64.156031 
7091.000000	63.889670 
7090.000000	63.668894 
7089.000000	63.512158 
7088.000000	63.420557 
7087.000000	63.379096 
7086.000000	63.363385 
7085.000000	63.347649 
7084.000000	63.311553 
7083.000000	63.247084 
7082.000000	63.159608 
7081.000000	63.066434 
7080.000000	62.989974 
7079.000000	62.950539 
7078.000000	62.956404 
7077.000000	63.002872 
7076.000000	63.073873 
7075.000000	63.145565 
7074.000000	63.192701 
7073.000000	63.197016 
7072.000000	63.150978 
7071.000000	63.063836 
7070.000000	62.958645 
7069.000000	62.868309 
7068.000000	62.824940 
7067.000000	62.854766 
7066.000000	62.970900 
7065.000000	63.168811 
7064.000000	63.426923 
7063.000000	63.706111 
7062.000000	63.957810 
7061.000000	64.134144 
7060.000000	64.199519 
7059.000000	64.134979 
7058.000000	63.944983 
7057.000000	63.659119 
7056.000000	63.325905 
7055.000000	63.001322 
7054.000000	62.737441 
7053.000000	62.572908 
7052.000000	62.524461 
7051.000000	62.588262 
7050.000000	62.739086 
7049.000000	62.940812 
7048.000000	63.151025 
7047.000000	63.332653 
7046.000000	63.456559 
7045.000000	63.503170 
7044.000000	63.465332 
7043.000000	63.346195 
7042.000000	63.157367 
7041.000000	62.913131 
7040.000000	62.635517 
7039.000000	62.352013 
7038.000000	62.096333 
7037.000000	61.904788 
7036.000000	61.814808 
7035.000000	61.858248 
7034.000000	62.055754 
7033.000000	62.410235 
7032.000000	62.902045 
7031.000000	63.489723 
7030.000000	64.115047 
7029.000000	64.712190 
7028.000000	65.220546 
7027.000000	65.592265 
7026.000000	65.803170 
7025.000000	65.849065 
7024.000000	65.745186 
7023.000000	65.515136 
7022.000000	65.193057 
7021.000000	64.805722 
7020.000000	64.374136 
7019.000000	63.907027 
7018.000000	63.413572 
7017.000000	62.897419 
7016.000000	62.366843 
7015.000000	61.832880 
7014.000000	61.311817 
7013.000000	60.824990 
7012.000000	60.395479 
7011.000000	60.047960 
7010.000000	59.803223 
7009.000000	59.681987 
7008.000000	59.699559 
7007.000000	59.865450 
7006.000000	60.177350 
7005.000000	60.612916 
7004.000000	61.130881 
7003.000000	61.669754 
7002.000000	62.162828 
7001.000000	62.547349 
7000.000000	62.784719 
6999.000000	62.864184 
6998.000000	62.812876 
6997.000000	62.690734 
6996.000000	62.576055 
6995.000000	62.546372 
6994.000000	62.658309 
6993.000000	62.937903 
6992.000000	63.368248 
6991.000000	63.900184 
6990.000000	64.456081 
6989.000000	64.952063 
6988.000000	65.313625 
6987.000000	65.495038 
6986.000000	65.484261 
6985.000000	65.302872 
6984.000000	65.002584 
6983.000000	64.651894 
6982.000000	64.326524 
6981.000000	64.093399 
6980.000000	64.004945 
6979.000000	64.087724 
6978.000000	64.340114 
6977.000000	64.730215 
6976.000000	65.203094 
6975.000000	65.688610 
6974.000000	66.113972 
6973.000000	66.416811 
6972.000000	66.552209 
6971.000000	66.503429 
6970.000000	66.283869 
6969.000000	65.933012 
6968.000000	65.505862 
6967.000000	65.062475 
6966.000000	64.659452 
6965.000000	64.336967 
6964.000000	64.117264 
6963.000000	63.999962 
6962.000000	63.969898 
6961.000000	63.999056 
6960.000000	64.056897 
6959.000000	64.113593 
