PE IR       SPECTRUM    SPECTRUM    ASCII       PEDS        1.60        
  -1
C-9A65~1.ASC
17/05/02
13:16:01.00
17/05/02
13:16:01.00
tln
$C-4040-8_t0028$<tbV0>[-2.5,7.0,8.0,0.0,22,1,0]
370.000000
64









2002,4.07    
MIRTGS : RIGHTBACK : INTERNAL 2
MIR : ON : INTERNAL 2
OPTKBR

0.200000
8
8.000000
FILLER
RATIO
SPECTRUM
UNLOCKED 256

DOUBLE
64
COMBINED
1
0
0


1.000000
RATIO


1
0
TRUE
51149
0
LEFT NOT FITTED RIGHT NOT FITTED 0
NONE
NONE
15600
12.000000
4.427000
51148
TRUE
1 0 8 72 0 0 0 0 

15798.010000






#HDR
-1
-1
#GR
CM-1
%T
0.00002384185791015625
0.0
7800.000000
-1.000000
7431
8
77.198243
36.951327
#DATA
7800.000000	76.747941 
7799.000000	77.105593 
7798.000000	77.198243 
7797.000000	77.007579 
7796.000000	76.558661 
7795.000000	75.917100 
7794.000000	75.180721 
7793.000000	74.459958 
7792.000000	73.855042 
7791.000000	73.434090 
7790.000000	73.222565 
7789.000000	73.194813 
7788.000000	73.284530 
7787.000000	73.394298 
7786.000000	73.416495 
7785.000000	73.253703 
7784.000000	72.836279 
7783.000000	72.139501 
7782.000000	71.180868 
7781.000000	70.028042 
7780.000000	68.770813 
7779.000000	67.527484 
7778.000000	66.416692 
7777.000000	65.554428 
7776.000000	65.036273 
7775.000000	64.922118 
7774.000000	65.225601 
7773.000000	65.905904 
7772.000000	66.872930 
7771.000000	67.992854 
7770.000000	69.104552 
7769.000000	70.050430 
7768.000000	70.699357 
7767.000000	70.973634 
7766.000000	70.858287 
7765.000000	70.397567 
7764.000000	69.679999 
7763.000000	68.818879 
7762.000000	67.930006 
7761.000000	67.105340 
7760.000000	66.410160 
7759.000000	65.884375 
7758.000000	65.555620 
7757.000000	65.453147 
7756.000000	65.609049 
7755.000000	66.058993 
7754.000000	66.819167 
7753.000000	67.870712 
7752.000000	69.140553 
7751.000000	70.494556 
7750.000000	71.758460 
7749.000000	72.739982 
7748.000000	73.281860 
7747.000000	73.297214 
7746.000000	72.798848 
7745.000000	71.898984 
7744.000000	70.789909 
7743.000000	69.700860 
7742.000000	68.849849 
7741.000000	68.398523 
7740.000000	68.417263 
7739.000000	68.877172 
7738.000000	69.668793 
7737.000000	70.635247 
7736.000000	71.609473 
7735.000000	72.450757 
7734.000000	73.066544 
7733.000000	73.420739 
7732.000000	73.519921 
7731.000000	73.400306 
7730.000000	73.102521 
7729.000000	72.662878 
7728.000000	72.109341 
7727.000000	71.463847 
7726.000000	70.763158 
7725.000000	70.049500 
7724.000000	69.389200 
7723.000000	68.841242 
7722.000000	68.454027 
7721.000000	68.238878 
7720.000000	68.161606 
7719.000000	68.152523 
7718.000000	68.122553 
7717.000000	67.987084 
7716.000000	67.688131 
7715.000000	67.209076 
7714.000000	66.576576 
7713.000000	65.859508 
7712.000000	65.150713 
7711.000000	64.548420 
7710.000000	64.130449 
7709.000000	63.950085 
7708.000000	64.017987 
7707.000000	64.294958 
7706.000000	64.697337 
7705.000000	65.107941 
7704.000000	65.404868 
7703.000000	65.488767 
7702.000000	65.308833 
7701.000000	64.864778 
7700.000000	64.215779 
7699.000000	63.461852 
7698.000000	62.725114 
7697.000000	62.117671 
7696.000000	61.722493 
7695.000000	61.576676 
7694.000000	61.670374 
7693.000000	61.953949 
7692.000000	62.359237 
7691.000000	62.813806 
7690.000000	63.271307 
7689.000000	63.715529 
7688.000000	64.170002 
7687.000000	64.679455 
7686.000000	65.301632 
7685.000000	66.080665 
7684.000000	67.032861 
7683.000000	68.130278 
7682.000000	69.309592 
7681.000000	70.474457 
7680.000000	71.508073 
7679.000000	72.290658 
7678.000000	72.734236 
7677.000000	72.789716 
7676.000000	72.459959 
7675.000000	71.789717 
7674.000000	70.866012 
7673.000000	69.788861 
7672.000000	68.662142 
7671.000000	67.568659 
7670.000000	66.565561 
7669.000000	65.683531 
7668.000000	64.936542 
7667.000000	64.333105 
7666.000000	63.884782 
7665.000000	63.611960 
7664.000000	63.536071 
7663.000000	63.675284 
7662.000000	64.025235 
7661.000000	64.561271 
7660.000000	65.230989 
7659.000000	65.965700 
7658.000000	66.688489 
7657.000000	67.346811 
7656.000000	67.922520 
7655.000000	68.436908 
7654.000000	68.938732 
7653.000000	69.494700 
7652.000000	70.156311 
7651.000000	70.937991 
7650.000000	71.796798 
7649.000000	72.644734 
7648.000000	73.355889 
7647.000000	73.804020 
7646.000000	73.887801 
7645.000000	73.564934 
7644.000000	72.861933 
7643.000000	71.881771 
7642.000000	70.773363 
7641.000000	69.696211 
7640.000000	68.791174 
7639.000000	68.157720 
7638.000000	67.833709 
7637.000000	67.798161 
7636.000000	67.983508 
7635.000000	68.302249 
7634.000000	68.664073 
7633.000000	68.997335 
7632.000000	69.251298 
7631.000000	69.396615 
7630.000000	69.422698 
7629.000000	69.329190 
7628.000000	69.118285 
7627.000000	68.790221 
7626.000000	68.347239 
7625.000000	67.797207 
7624.000000	67.156505 
7623.000000	66.458606 
7622.000000	65.752887 
7621.000000	65.109276 
7620.000000	64.598751 
7619.000000	64.297413 
7618.000000	64.269709 
7617.000000	64.560532 
7616.000000	65.181541 
7615.000000	66.102886 
7614.000000	67.253804 
7613.000000	68.521761 
7612.000000	69.769024 
7611.000000	70.846581 
7610.000000	71.617817 
7609.000000	71.982789 
7608.000000	71.897792 
7607.000000	71.381711 
7606.000000	70.512127 
7605.000000	69.417333 
7604.000000	68.254017 
7603.000000	67.183113 
7602.000000	66.342306 
7601.000000	65.826821 
7600.000000	65.674567 
7599.000000	65.866327 
7598.000000	66.332483 
7597.000000	66.966032 
7596.000000	67.648196 
7595.000000	68.265652 
7594.000000	68.737888 
7593.000000	69.016385 
7592.000000	69.101524 
7591.000000	69.029164 
7590.000000	68.863177 
7589.000000	68.678092 
7588.000000	68.535518 
7587.000000	68.472838 
7586.000000	68.490242 
7585.000000	68.560791 
7584.000000	68.634128 
7583.000000	68.658280 
7582.000000	68.592572 
7581.000000	68.421721 
7580.000000	68.162608 
7579.000000	67.860507 
7578.000000	67.575430 
7577.000000	67.364001 
7576.000000	67.263698 
7575.000000	67.279863 
7574.000000	67.385673 
7573.000000	67.526221 
7572.000000	67.632627 
7571.000000	67.637228 
7570.000000	67.489910 
7569.000000	67.169404 
7568.000000	66.685557 
7567.000000	66.080451 
7566.000000	65.408229 
7565.000000	64.736652 
7564.000000	64.133238 
7563.000000	63.659739 
7562.000000	63.364028 
7561.000000	63.273644 
7560.000000	63.389682 
7559.000000	63.690376 
7558.000000	64.133262 
7557.000000	64.664745 
7556.000000	65.223193 
7555.000000	65.756225 
7554.000000	66.222071 
7553.000000	66.603279 
7552.000000	66.903114 
7551.000000	67.142081 
7550.000000	67.345619 
7549.000000	67.533063 
7548.000000	67.704772 
7547.000000	67.837834 
7546.000000	67.884302 
7545.000000	67.781186 
7544.000000	67.463040 
7543.000000	66.882753 
7542.000000	66.029071 
7541.000000	64.927172 
7540.000000	63.656210 
7539.000000	62.328624 
7538.000000	61.096525 
7537.000000	60.121226 
7536.000000	59.554815 
7535.000000	59.513950 
7534.000000	60.047054 
7533.000000	61.116695 
7532.000000	62.597966 
7531.000000	64.293360 
7530.000000	65.970683 
7529.000000	67.403864 
7528.000000	68.415522 
7527.000000	68.905091 
7526.000000	68.861532 
7525.000000	68.354678 
7524.000000	67.510557 
7523.000000	66.477966 
7522.000000	65.401482 
7521.000000	64.396190 
7520.000000	63.538956 
7519.000000	62.865781 
7518.000000	62.384176 
7517.000000	62.083649 
7516.000000	61.946129 
7515.000000	61.956620 
7514.000000	62.096619 
7513.000000	62.355113 
7512.000000	62.707757 
7511.000000	63.135313 
7510.000000	63.614583 
7509.000000	64.126300 
7508.000000	64.658617 
7507.000000	65.194201 
7506.000000	65.705442 
7505.000000	66.152000 
7504.000000	66.484665 
7503.000000	66.655182 
7502.000000	66.630458 
7501.000000	66.402721 
7500.000000	65.999460 
7499.000000	65.475296 
7498.000000	64.905905 
7497.000000	64.365673 
7496.000000	63.913202 
7495.000000	63.582110 
7494.000000	63.376617 
7493.000000	63.277959 
7492.000000	63.251376 
7491.000000	63.250756 
7490.000000	63.231611 
7489.000000	63.159942 
7488.000000	63.020801 
7487.000000	62.811350 
7486.000000	62.548279 
7485.000000	62.256479 
7484.000000	61.971926 
7483.000000	61.732578 
7482.000000	61.573290 
7481.000000	61.523127 
7480.000000	61.593127 
7479.000000	61.771202 
7478.000000	62.025260 
7477.000000	62.306332 
7476.000000	62.565326 
7475.000000	62.760996 
7474.000000	62.876486 
7473.000000	62.919902 
7472.000000	62.926864 
7471.000000	62.948250 
7470.000000	63.037753 
7469.000000	63.235473 
7468.000000	63.559556 
7467.000000	63.999462 
7466.000000	64.521145 
7465.000000	65.072154 
7464.000000	65.594482 
7463.000000	66.033482 
7462.000000	66.344451 
7461.000000	66.501998 
7460.000000	66.499376 
7459.000000	66.357374 
7458.000000	66.108965 
7457.000000	65.812468 
7456.000000	65.543889 
7455.000000	65.390133 
7454.000000	65.438103 
7453.000000	65.751981 
7452.000000	66.362023 
7451.000000	67.245674 
7450.000000	68.330454 
7449.000000	69.498729 
7448.000000	70.607852 
7447.000000	71.521759 
7446.000000	72.139787 
7445.000000	72.414946 
7444.000000	72.360205 
7443.000000	72.043204 
7442.000000	71.565890 
7441.000000	71.032333 
7440.000000	70.520472 
7439.000000	70.065522 
7438.000000	69.652342 
7437.000000	69.231748 
7436.000000	68.736457 
7435.000000	68.109035 
7434.000000	67.319965 
7433.000000	66.382741 
7432.000000	65.353322 
7431.000000	64.305210 
7430.000000	63.325858 
7429.000000	62.490057 
7428.000000	61.857080 
7427.000000	61.447548 
7426.000000	61.262845 
7425.000000	61.281299 
7424.000000	61.481618 
7423.000000	61.836075 
7422.000000	62.335181 
7421.000000	62.976789 
7420.000000	63.767814 
7419.000000	64.703369 
7418.000000	65.765118 
7417.000000	66.909623 
7416.000000	68.068099 
7415.000000	69.150733 
7414.000000	70.059180 
7413.000000	70.701193 
7412.000000	71.011328 
7411.000000	70.960569 
7410.000000	70.558524 
7409.000000	69.848990 
7408.000000	68.912386 
7407.000000	67.844390 
7406.000000	66.744470 
7405.000000	65.695762 
7404.000000	64.766097 
7403.000000	63.992834 
7402.000000	63.390493 
7401.000000	62.948703 
7400.000000	62.641644 
7399.000000	62.436079 
7398.000000	62.293982 
7397.000000	62.187147 
7396.000000	62.088823 
7395.000000	61.992216 
7394.000000	61.898779 
7393.000000	61.827778 
7392.000000	61.801505 
7391.000000	61.849427 
7390.000000	61.995959 
7389.000000	62.259387 
7388.000000	62.643885 
7387.000000	63.143467 
7386.000000	63.739442 
7385.000000	64.403843 
7384.000000	65.098476 
7383.000000	65.778303 
7382.000000	66.391682 
7381.000000	66.886806 
7380.000000	67.213892 
7379.000000	67.338752 
7378.000000	67.240166 
7377.000000	66.924095 
7376.000000	66.410779 
7375.000000	65.738320 
7374.000000	64.949703 
7373.000000	64.092898 
7372.000000	63.214015 
7371.000000	62.356615 
7370.000000	61.563611 
7369.000000	60.876631 
7368.000000	60.338091 
7367.000000	59.983134 
7366.000000	59.843277 
7365.000000	59.934377 
7364.000000	60.260581 
7363.000000	60.804939 
7362.000000	61.535167 
7361.000000	62.401318 
7360.000000	63.345670 
7359.000000	64.305853 
7358.000000	65.223908 
7357.000000	66.047787 
7356.000000	66.738080 
7355.000000	67.262482 
7354.000000	67.602777 
7353.000000	67.741727 
7352.000000	67.671442 
7351.000000	67.379832 
7350.000000	66.865849 
7349.000000	66.130852 
7348.000000	65.192341 
7347.000000	64.083647 
7346.000000	62.860345 
7345.000000	61.600494 
7344.000000	60.396409 
7343.000000	59.351086 
7342.000000	58.560395 
7341.000000	58.102202 
7340.000000	58.016633 
7339.000000	58.302688 
7338.000000	58.911538 
7337.000000	59.756898 
7336.000000	60.724782 
7335.000000	61.695933 
7334.000000	62.562251 
7333.000000	63.250112 
7332.000000	63.728284 
7331.000000	64.009165 
7330.000000	64.137911 
7329.000000	64.181184 
7328.000000	64.204168 
7327.000000	64.255857 
7326.000000	64.353537 
7325.000000	64.490890 
7324.000000	64.635014 
7323.000000	64.747643 
7322.000000	64.790558 
7321.000000	64.741039 
7320.000000	64.596319 
7319.000000	64.378595 
7318.000000	64.125728 
7317.000000	63.876914 
7316.000000	63.667154 
7315.000000	63.524317 
7314.000000	63.455319 
7313.000000	63.443613 
7312.000000	63.459491 
7311.000000	63.471174 
7310.000000	63.452792 
7309.000000	63.392353 
7308.000000	63.295054 
7307.000000	63.180255 
7306.000000	63.077831 
7305.000000	63.018155 
7304.000000	63.019824 
7303.000000	63.082981 
7302.000000	63.191604 
7301.000000	63.316750 
7300.000000	63.420557 
7299.000000	63.470101 
7298.000000	63.445997 
7297.000000	63.353896 
7296.000000	63.216233 
7295.000000	63.080239 
7294.000000	62.999653 
7293.000000	63.036298 
7292.000000	63.238811 
7291.000000	63.642501 
7290.000000	64.263081 
7289.000000	65.086960 
7288.000000	66.076254 
7287.000000	67.159032 
7286.000000	68.242001 
7285.000000	69.214105 
7284.000000	69.965314 
7283.000000	70.405077 
7282.000000	70.480871 
7281.000000	70.192956 
7280.000000	69.596886 
7279.000000	68.798017 
7278.000000	67.930316 
7277.000000	67.131400 
7276.000000	66.512346 
7275.000000	66.137504 
7274.000000	66.012072 
7273.000000	66.086721 
7272.000000	66.274881 
7271.000000	66.480374 
7270.000000	66.623163 
7269.000000	66.655921 
7268.000000	66.574501 
7267.000000	66.407489 
7266.000000	66.206431 
7265.000000	66.019439 
7264.000000	65.880370 
7263.000000	65.795493 
7262.000000	65.744972 
7261.000000	65.696811 
7260.000000	65.610980 
7259.000000	65.457224 
7258.000000	65.219569 
7257.000000	64.903688 
7256.000000	64.531683 
7255.000000	64.136433 
7254.000000	63.749980 
7253.000000	63.394236 
7252.000000	63.081502 
7251.000000	62.812876 
7250.000000	62.581539 
7249.000000	62.376451 
7248.000000	62.182807 
7247.000000	61.988472 
7246.000000	61.784434 
7245.000000	61.571598 
7244.000000	61.354088 
7243.000000	61.148047 
7242.000000	60.973453 
7241.000000	60.860204 
7240.000000	60.835170 
7239.000000	60.927343 
7238.000000	61.152195 
7237.000000	61.520028 
7236.000000	62.028026 
7235.000000	62.664175 
7234.000000	63.405752 
7233.000000	64.218664 
7232.000000	65.058255 
7231.000000	65.871381 
7230.000000	66.602587 
7229.000000	67.198204 
7228.000000	67.614579 
7227.000000	67.826890 
7226.000000	67.835402 
7225.000000	67.668199 
7224.000000	67.376995 
7223.000000	67.033219 
7222.000000	66.711997 
7221.000000	66.476821 
7220.000000	66.364264 
7219.000000	66.381072 
7218.000000	66.501855 
7217.000000	66.678261 
7216.000000	66.852807 
7215.000000	66.973876 
7214.000000	67.010855 
7213.000000	66.958785 
7212.000000	66.840863 
7211.000000	66.695833 
7210.000000	66.570329 
7209.000000	66.504526 
7208.000000	66.521143 
7207.000000	66.618871 
7206.000000	66.774344 
7205.000000	66.953611 
7204.000000	67.115354 
7203.000000	67.222189 
7202.000000	67.250275 
7201.000000	67.195940 
7200.000000	67.070460 
7199.000000	66.895127 
7198.000000	66.699600 
7197.000000	66.514468 
7196.000000	66.365766 
7195.000000	66.269731 
7194.000000	66.232013 
7193.000000	66.246390 
7192.000000	66.299700 
7191.000000	66.373372 
7190.000000	66.445016 
7189.000000	66.494083 
7188.000000	66.506457 
7187.000000	66.475868 
7186.000000	66.403889 
7185.000000	66.296958 
7184.000000	66.166090 
7183.000000	66.018271 
7182.000000	65.857887 
7181.000000	65.679097 
7180.000000	65.470719 
7179.000000	65.215849 
7178.000000	64.898681 
7177.000000	64.511847 
7176.000000	64.062166 
7175.000000	63.573265 
7174.000000	63.082695 
7173.000000	62.637662 
7172.000000	62.285280 
7171.000000	62.065386 
7170.000000	62.002754 
7169.000000	62.100958 
7168.000000	62.343502 
7167.000000	62.698411 
7166.000000	63.126921 
7165.000000	63.590073 
7164.000000	64.056372 
7163.000000	64.502954 
7162.000000	64.915966 
7161.000000	65.287876 
7160.000000	65.611600 
7159.000000	65.876603 
7158.000000	66.067886 
7157.000000	66.169142 
7156.000000	66.167879 
7155.000000	66.064167 
7154.000000	65.873169 
7153.000000	65.628337 
7152.000000	65.375518 
7151.000000	65.167498 
7150.000000	65.050101 
7149.000000	65.053987 
7148.000000	65.183401 
7147.000000	65.415263 
7146.000000	65.703368 
7145.000000	65.990161 
7144.000000	66.216039 
7143.000000	66.333913 
7142.000000	66.319537 
7141.000000	66.177654 
7140.000000	65.938997 
7139.000000	65.654277 
7138.000000	65.382075 
7137.000000	65.176248 
7136.000000	65.078783 
7135.000000	65.107059 
7134.000000	65.257072 
7133.000000	65.496730 
7132.000000	65.778875 
7131.000000	66.042828 
7130.000000	66.228222 
7129.000000	66.283988 
7128.000000	66.178083 
7127.000000	65.904355 
7126.000000	65.480804 
7125.000000	64.950489 
7124.000000	64.370369 
7123.000000	63.806796 
7122.000000	63.323020 
7121.000000	62.972640 
7120.000000	62.791705 
7119.000000	62.794089 
7118.000000	62.970542 
7117.000000	63.285708 
7116.000000	63.684725 
7115.000000	64.097189 
7114.000000	64.452004 
7113.000000	64.691090 
7112.000000	64.782929 
7111.000000	64.725303 
7110.000000	64.547538 
7109.000000	64.302587 
7108.000000	64.054584 
7107.000000	63.864874 
7106.000000	63.776969 
7105.000000	63.809490 
7104.000000	63.952040 
7103.000000	64.174962 
7102.000000	64.434409 
7101.000000	64.684629 
7100.000000	64.890098 
7099.000000	65.030813 
7098.000000	65.109133 
7097.000000	65.145087 
7096.000000	65.169858 
7095.000000	65.214228 
7094.000000	65.298461 
7093.000000	65.425801 
7092.000000	65.579748 
7091.000000	65.728807 
7090.000000	65.833067 
7089.000000	65.855121 
7088.000000	65.769290 
7087.000000	65.568804 
7086.000000	65.265965 
7085.000000	64.890956 
7084.000000	64.483237 
7083.000000	64.086270 
7082.000000	63.739252 
7081.000000	63.473105 
7080.000000	63.307380 
7079.000000	63.249659 
7078.000000	63.296294 
7077.000000	63.434600 
7076.000000	63.646841 
7075.000000	63.909697 
7074.000000	64.194607 
7073.000000	64.470195 
7072.000000	64.703440 
7071.000000	64.863705 
7070.000000	64.927387 
7069.000000	64.878749 
7068.000000	64.713740 
7067.000000	64.437818 
7066.000000	64.066886 
7065.000000	63.624382 
7064.000000	63.140273 
7063.000000	62.646269 
7062.000000	62.173771 
7061.000000	61.754512 
7060.000000	61.418676 
7059.000000	61.188292 
7058.000000	61.078405 
7057.000000	61.091756 
7056.000000	61.224079 
7055.000000	61.462926 
7054.000000	61.793565 
7053.000000	62.194490 
7052.000000	62.643814 
7051.000000	63.118910 
7050.000000	63.596606 
7049.000000	64.052629 
7048.000000	64.460277 
7047.000000	64.792466 
7046.000000	65.023231 
7045.000000	65.132427 
7044.000000	65.110635 
7043.000000	64.964270 
7042.000000	64.717268 
7041.000000	64.409732 
7040.000000	64.095044 
7039.000000	63.831830 
7038.000000	63.677954 
7037.000000	63.680624 
7036.000000	63.872838 
7035.000000	64.265203 
7034.000000	64.847159 
7033.000000	65.581488 
7032.000000	66.402530 
7031.000000	67.219829 
7030.000000	67.930984 
7029.000000	68.435716 
7028.000000	68.651080 
7027.000000	68.529367 
7026.000000	68.072319 
7025.000000	67.330837 
7024.000000	66.399407 
7023.000000	65.395998 
7022.000000	64.444351 
7021.000000	63.647198 
7020.000000	63.076710 
7019.000000	62.756752 
7018.000000	62.667083 
7017.000000	62.752127 
7016.000000	62.940430 
7015.000000	63.161110 
7014.000000	63.355636 
7013.000000	63.494753 
7012.000000	63.576674 
7011.000000	63.623452 
7010.000000	63.665533 
7009.000000	63.736248 
7008.000000	63.859081 
7007.000000	64.043211 
7006.000000	64.281749 
7005.000000	64.557600 
7004.000000	64.848470 
7003.000000	65.135598 
7002.000000	65.406203 
7001.000000	65.656828 
7000.000000	65.888667 
6999.000000	66.105055 
6998.000000	66.304063 
6997.000000	66.477560 
6996.000000	66.607785 
6995.000000	66.676163 
6994.000000	66.662192 
6993.000000	66.552138 
6992.000000	66.342282 
6991.000000	66.048216 
6990.000000	65.695977 
6989.000000	65.319776 
6988.000000	64.952874 
6987.000000	64.624452 
6986.000000	64.347743 
6985.000000	64.119839 
6984.000000	63.922476 
6983.000000	63.729548 
6982.000000	63.518309 
6981.000000	63.279414 
6980.000000	63.019013 
6979.000000	62.760949 
6978.000000	62.541270 
6977.000000	62.402224 
6976.000000	62.375664 
6975.000000	62.480378 
6974.000000	62.717437 
6973.000000	63.071727 
6972.000000	63.512563 
6971.000000	64.001679 
6970.000000	64.502143 
6969.000000	64.980149 
6968.000000	65.408134 
6967.000000	65.763735 
6966.000000	66.028785 
6965.000000	66.190052 
6964.000000	66.240811 
6963.000000	66.181921 
6962.000000	66.024184 
6961.000000	65.788793 
6960.000000	65.510869 
6959.000000	65.226888 
