PE IR       SPECTRUM    SPECTRUM    ASCII       PEDS        1.60        
  -1
C-1AE1~1.ASC
17/05/02
11:58:35.00
17/05/02
11:58:35.00
tln
$C-4040-8_t0013$<tbV0>[12.5,-3.0,8.0,0.0,22,1,0]
370.000000
64









2002,4.07    
MIRTGS : RIGHTBACK : INTERNAL 2
MIR : ON : INTERNAL 2
OPTKBR

0.200000
8
8.000000
FILLER
RATIO
SPECTRUM
UNLOCKED 256

DOUBLE
64
COMBINED
1
0
0


1.000000
RATIO


1
0
TRUE
51149
0
LEFT NOT FITTED RIGHT NOT FITTED 0
NONE
NONE
15600
12.000000
4.427000
51148
TRUE
1 0 8 72 0 0 0 0 

15798.010000






#HDR
-1
-1
#GR
CM-1
%T
0.00002384185791015625
0.0
7800.000000
-1.000000
7431
8
94.661283
37.678503
#DATA
7800.000000	76.234507 
7799.000000	75.310516 
7798.000000	74.743843 
7797.000000	74.401903 
7796.000000	74.094438 
7795.000000	73.654365 
7794.000000	72.961258 
7793.000000	71.976995 
7792.000000	70.745825 
7791.000000	69.383406 
7790.000000	68.025922 
7789.000000	66.808295 
7788.000000	65.848207 
7787.000000	65.233731 
7786.000000	65.022611 
7785.000000	65.234661 
7784.000000	65.854048 
7783.000000	66.824722 
7782.000000	68.042683 
7781.000000	69.374585 
7780.000000	70.668673 
7779.000000	71.783924 
7778.000000	72.591328 
7777.000000	73.018074 
7776.000000	73.058772 
7775.000000	72.776460 
7774.000000	72.285676 
7773.000000	71.727323 
7772.000000	71.239209 
7771.000000	70.926141 
7770.000000	70.851421 
7769.000000	71.009254 
7768.000000	71.334910 
7767.000000	71.734595 
7766.000000	72.117877 
7765.000000	72.425270 
7764.000000	72.643709 
7763.000000	72.810053 
7762.000000	72.988891 
7761.000000	73.243665 
7760.000000	73.600745 
7759.000000	74.033665 
7758.000000	74.451971 
7757.000000	74.727153 
7756.000000	74.714922 
7755.000000	74.304246 
7754.000000	73.443460 
7753.000000	72.157526 
7752.000000	70.559549 
7751.000000	68.814468 
7750.000000	67.137789 
7749.000000	65.748262 
7748.000000	64.840793 
7747.000000	64.545917 
7746.000000	64.911532 
7745.000000	65.895414 
7744.000000	67.369294 
7743.000000	69.141173 
7742.000000	70.988392 
7741.000000	72.692918 
7740.000000	74.075865 
7739.000000	75.018358 
7738.000000	75.475096 
7737.000000	75.465679 
7736.000000	75.064754 
7735.000000	74.371767 
7734.000000	73.488545 
7733.000000	72.494029 
7732.000000	71.444773 
7731.000000	70.369458 
7730.000000	69.292378 
7729.000000	68.235731 
7728.000000	67.240595 
7727.000000	66.359782 
7726.000000	65.641951 
7725.000000	65.135192 
7724.000000	64.853715 
7723.000000	64.804148 
7722.000000	64.972305 
7721.000000	65.340828 
7720.000000	65.892577 
7719.000000	66.598033 
7718.000000	67.403674 
7717.000000	68.237590 
7716.000000	69.009304 
7715.000000	69.628715 
7714.000000	70.018720 
7713.000000	70.142006 
7712.000000	70.009613 
7711.000000	69.679427 
7710.000000	69.243407 
7709.000000	68.800473 
7708.000000	68.434262 
7707.000000	68.204951 
7706.000000	68.135070 
7705.000000	68.213820 
7704.000000	68.400263 
7703.000000	68.637657 
7702.000000	68.868064 
7701.000000	69.046020 
7700.000000	69.150209 
7699.000000	69.175672 
7698.000000	69.144535 
7697.000000	69.085693 
7696.000000	69.044089 
7695.000000	69.064021 
7694.000000	69.190645 
7693.000000	69.456219 
7692.000000	69.881868 
7691.000000	70.473909 
7690.000000	71.219754 
7689.000000	72.085714 
7688.000000	73.025298 
7687.000000	73.984670 
7686.000000	74.905323 
7685.000000	75.730252 
7684.000000	76.401734 
7683.000000	76.867175 
7682.000000	77.084088 
7681.000000	77.027559 
7680.000000	76.700973 
7679.000000	76.137137 
7678.000000	75.403618 
7677.000000	74.586343 
7676.000000	73.787689 
7675.000000	73.093366 
7674.000000	72.566795 
7673.000000	72.220873 
7672.000000	72.027587 
7671.000000	71.912193 
7670.000000	71.776962 
7669.000000	71.520423 
7668.000000	71.065402 
7667.000000	70.376849 
7666.000000	69.467616 
7665.000000	68.399763 
7664.000000	67.259812 
7663.000000	66.157150 
7662.000000	65.191364 
7661.000000	64.459896 
7660.000000	64.039969 
7659.000000	63.985562 
7658.000000	64.315676 
7657.000000	65.007209 
7656.000000	65.990233 
7655.000000	67.141175 
7654.000000	68.296933 
7653.000000	69.279193 
7652.000000	69.924640 
7651.000000	70.112252 
7650.000000	69.788217 
7649.000000	68.977713 
7648.000000	67.779445 
7647.000000	66.345810 
7646.000000	64.854407 
7645.000000	63.473582 
7644.000000	62.339854 
7643.000000	61.542367 
7642.000000	61.119747 
7641.000000	61.065435 
7640.000000	61.341214 
7639.000000	61.894345 
7638.000000	62.661623 
7637.000000	63.569641 
7636.000000	64.541602 
7635.000000	65.492534 
7634.000000	66.338253 
7633.000000	66.995239 
7632.000000	67.404007 
7631.000000	67.536091 
7630.000000	67.402863 
7629.000000	67.050528 
7628.000000	66.555356 
7627.000000	66.002082 
7626.000000	65.465188 
7625.000000	64.988780 
7624.000000	64.582777 
7623.000000	64.221811 
7622.000000	63.863110 
7621.000000	63.461256 
7620.000000	62.985324 
7619.000000	62.434434 
7618.000000	61.837863 
7617.000000	61.255764 
7616.000000	60.753440 
7615.000000	60.400032 
7614.000000	60.234689 
7613.000000	60.280966 
7612.000000	60.536479 
7611.000000	60.984945 
7610.000000	61.597156 
7609.000000	62.337636 
7608.000000	63.169693 
7607.000000	64.040327 
7606.000000	64.880609 
7605.000000	65.602421 
7604.000000	66.108798 
7603.000000	66.324615 
7602.000000	66.215300 
7601.000000	65.804553 
7600.000000	65.171694 
7599.000000	64.442420 
7598.000000	63.755440 
7597.000000	63.232445 
7596.000000	62.944960 
7595.000000	62.900567 
7594.000000	63.042306 
7593.000000	63.276171 
7592.000000	63.494586 
7591.000000	63.598442 
7590.000000	63.537144 
7589.000000	63.310122 
7588.000000	62.983965 
7587.000000	62.661719 
7586.000000	62.470793 
7585.000000	62.520933 
7584.000000	62.881183 
7583.000000	63.559293 
7582.000000	64.495301 
7581.000000	65.576410 
7580.000000	66.655349 
7579.000000	67.586231 
7578.000000	68.242645 
7577.000000	68.542599 
7576.000000	68.453645 
7575.000000	67.995786 
7574.000000	67.227935 
7573.000000	66.238808 
7572.000000	65.134406 
7571.000000	64.027929 
7570.000000	63.033366 
7569.000000	62.254834 
7568.000000	61.778450 
7567.000000	61.662101 
7566.000000	61.929392 
7565.000000	62.562966 
7564.000000	63.501310 
7563.000000	64.645862 
7562.000000	65.869402 
7561.000000	67.035055 
7560.000000	68.011260 
7559.000000	68.695235 
7558.000000	69.023346 
7557.000000	68.983554 
7556.000000	68.614649 
7555.000000	67.994403 
7554.000000	67.226290 
7553.000000	66.413950 
7552.000000	65.646862 
7551.000000	64.987635 
7550.000000	64.471435 
7549.000000	64.112997 
7548.000000	63.916420 
7547.000000	63.880944 
7546.000000	64.005517 
7545.000000	64.287424 
7544.000000	64.717745 
7543.000000	65.267610 
7542.000000	65.890431 
7541.000000	66.516494 
7540.000000	67.071270 
7539.000000	67.486333 
7538.000000	67.718720 
7537.000000	67.760109 
7536.000000	67.638921 
7535.000000	67.417168 
7534.000000	67.168545 
7533.000000	66.965723 
7532.000000	66.853976 
7531.000000	66.841053 
7530.000000	66.900062 
7529.000000	66.986417 
7528.000000	67.049217 
7527.000000	67.049407 
7526.000000	66.976475 
7525.000000	66.853475 
7524.000000	66.727042 
7523.000000	66.652488 
7522.000000	66.670894 
7521.000000	66.793918 
7520.000000	67.001581 
7519.000000	67.245817 
7518.000000	67.463350 
7517.000000	67.593002 
7516.000000	67.598366 
7515.000000	67.473816 
7514.000000	67.245054 
7513.000000	66.958546 
7512.000000	66.667199 
7511.000000	66.413140 
7510.000000	66.218495 
7509.000000	66.076350 
7508.000000	65.963077 
7507.000000	65.835881 
7506.000000	65.652871 
7505.000000	65.376329 
7504.000000	64.986658 
7503.000000	64.483404 
7502.000000	63.883495 
7501.000000	63.222956 
7500.000000	62.546515 
7499.000000	61.908578 
7498.000000	61.362695 
7497.000000	60.959815 
7496.000000	60.739636 
7495.000000	60.727906 
7494.000000	60.931229 
7493.000000	61.331105 
7492.000000	61.886644 
7491.000000	62.534666 
7490.000000	63.204813 
7489.000000	63.825511 
7488.000000	64.345145 
7487.000000	64.739298 
7486.000000	65.018820 
7485.000000	65.221238 
7484.000000	65.401411 
7483.000000	65.617847 
7482.000000	65.912103 
7481.000000	66.300010 
7480.000000	66.763281 
7479.000000	67.259526 
7478.000000	67.728805 
7477.000000	68.118262 
7476.000000	68.386554 
7475.000000	68.518018 
7474.000000	68.519783 
7473.000000	68.420124 
7472.000000	68.255877 
7471.000000	68.063282 
7470.000000	67.868947 
7469.000000	67.686367 
7468.000000	67.522406 
7467.000000	67.380809 
7466.000000	67.271232 
7465.000000	67.207765 
7464.000000	67.204570 
7463.000000	67.267346 
7462.000000	67.388510 
7461.000000	67.540693 
7460.000000	67.679619 
7459.000000	67.748785 
7458.000000	67.691636 
7457.000000	67.464470 
7456.000000	67.047452 
7455.000000	66.455006 
7454.000000	65.731167 
7453.000000	64.951038 
7452.000000	64.208507 
7451.000000	63.596653 
7450.000000	63.195252 
7449.000000	63.040161 
7448.000000	63.118815 
7447.000000	63.361811 
7446.000000	63.659358 
7445.000000	63.883304 
7444.000000	63.918161 
7443.000000	63.688325 
7442.000000	63.177061 
7441.000000	62.434744 
7440.000000	61.568951 
7439.000000	60.722208 
7438.000000	60.041093 
7437.000000	59.647965 
7436.000000	59.613704 
7435.000000	59.947848 
7434.000000	60.595536 
7433.000000	61.450266 
7432.000000	62.379646 
7431.000000	63.248705 
7430.000000	63.955092 
7429.000000	64.438652 
7428.000000	64.699697 
7427.000000	64.782142 
7426.000000	64.766860 
7425.000000	64.742779 
7424.000000	64.786934 
7423.000000	64.949846 
7422.000000	65.239739 
7421.000000	65.629863 
7420.000000	66.063189 
7419.000000	66.477966 
7418.000000	66.812825 
7417.000000	67.024850 
7416.000000	67.093968 
7415.000000	67.026329 
7414.000000	66.847920 
7413.000000	66.597056 
7412.000000	66.315460 
7411.000000	66.040349 
7410.000000	65.802097 
7409.000000	65.620255 
7408.000000	65.508031 
7407.000000	65.469622 
7406.000000	65.501737 
7405.000000	65.593361 
7404.000000	65.725994 
7403.000000	65.877056 
7402.000000	66.022658 
7401.000000	66.141343 
7400.000000	66.211724 
7399.000000	66.221308 
7398.000000	66.170406 
7397.000000	66.069149 
7396.000000	65.933871 
7395.000000	65.783762 
7394.000000	65.637230 
7393.000000	65.507292 
7392.000000	65.400600 
7391.000000	65.316343 
7390.000000	65.248799 
7389.000000	65.190124 
7388.000000	65.133929 
7387.000000	65.076470 
7386.000000	65.017700 
7385.000000	64.960598 
7384.000000	64.909458 
7383.000000	64.867305 
7382.000000	64.833498 
7381.000000	64.806389 
7380.000000	64.779615 
7379.000000	64.741468 
7378.000000	64.676117 
7377.000000	64.566707 
7376.000000	64.400362 
7375.000000	64.171767 
7374.000000	63.887739 
7373.000000	63.565444 
7372.000000	63.233923 
7371.000000	62.927722 
7370.000000	62.683320 
7369.000000	62.528944 
7368.000000	62.483310 
7367.000000	62.551021 
7366.000000	62.722611 
7365.000000	62.975335 
7364.000000	63.279032 
7363.000000	63.600587 
7362.000000	63.912987 
7361.000000	64.198875 
7360.000000	64.456009 
7359.000000	64.695167 
7358.000000	64.938783 
7357.000000	65.211343 
7356.000000	65.532350 
7355.000000	65.904712 
7354.000000	66.315793 
7353.000000	66.731357 
7352.000000	67.102074 
7351.000000	67.371201 
7350.000000	67.491769 
7349.000000	67.435336 
7348.000000	67.204070 
7347.000000	66.828250 
7346.000000	66.364550 
7345.000000	65.879249 
7344.000000	65.436863 
7343.000000	65.083622 
7342.000000	64.839243 
7341.000000	64.698219 
7340.000000	64.637637 
7339.000000	64.627313 
7338.000000	64.641952 
7337.000000	64.667391 
7336.000000	64.702725 
7335.000000	64.756989 
7334.000000	64.841699 
7333.000000	64.964818 
7332.000000	65.125632 
7331.000000	65.314054 
7330.000000	65.513658 
7329.000000	65.710878 
7328.000000	65.897941 
7327.000000	66.078543 
7326.000000	66.261792 
7325.000000	66.459584 
7324.000000	66.674780 
7323.000000	66.898608 
7322.000000	67.103934 
7321.000000	67.254590 
7320.000000	67.306327 
7319.000000	67.223405 
7318.000000	66.982197 
7317.000000	66.582465 
7316.000000	66.047143 
7315.000000	65.420174 
7314.000000	64.761328 
7313.000000	64.134144 
7312.000000	63.600850 
7311.000000	63.211917 
7310.000000	63.001441 
7309.000000	62.982225 
7308.000000	63.147377 
7307.000000	63.472819 
7306.000000	63.918066 
7305.000000	64.433097 
7304.000000	64.964151 
7303.000000	65.462827 
7302.000000	65.892863 
7301.000000	66.234421 
7300.000000	66.486692 
7299.000000	66.661524 
7298.000000	66.777753 
7297.000000	66.851139 
7296.000000	66.890883 
7295.000000	66.894578 
7294.000000	66.857075 
7293.000000	66.768193 
7292.000000	66.625165 
7291.000000	66.429734 
7290.000000	66.194391 
7289.000000	65.937685 
7288.000000	65.680122 
7287.000000	65.443921 
7286.000000	65.246796 
7285.000000	65.106034 
7284.000000	65.034818 
7283.000000	65.047168 
7282.000000	65.154767 
7281.000000	65.368604 
7280.000000	65.694570 
7279.000000	66.129326 
7278.000000	66.656875 
7277.000000	67.246341 
7276.000000	67.854690 
7275.000000	68.435931 
7274.000000	68.946456 
7273.000000	69.354176 
7272.000000	69.638514 
7271.000000	69.795775 
7270.000000	69.830870 
7269.000000	69.756674 
7268.000000	69.585299 
7267.000000	69.330787 
7266.000000	69.004011 
7265.000000	68.619823 
7264.000000	68.194675 
7263.000000	67.753672 
7262.000000	67.326092 
7261.000000	66.945958 
7260.000000	66.644096 
7259.000000	66.443347 
7258.000000	66.352510 
7257.000000	66.363334 
7256.000000	66.451549 
7255.000000	66.580581 
7254.000000	66.708707 
7253.000000	66.796946 
7252.000000	66.816425 
7251.000000	66.754174 
7250.000000	66.613054 
7249.000000	66.411423 
7248.000000	66.180944 
7247.000000	65.959525 
7246.000000	65.785360 
7245.000000	65.686750 
7244.000000	65.678954 
7243.000000	65.757131 
7242.000000	65.898752 
7241.000000	66.066431 
7240.000000	66.218209 
7239.000000	66.315007 
7238.000000	66.327166 
7237.000000	66.243433 
7236.000000	66.071200 
7235.000000	65.836930 
7234.000000	65.578055 
7233.000000	65.336179 
7232.000000	65.147614 
7231.000000	65.035295 
7230.000000	65.006113 
7229.000000	65.047168 
7228.000000	65.130996 
7227.000000	65.221643 
7226.000000	65.285181 
7225.000000	65.296816 
7224.000000	65.248799 
7223.000000	65.152549 
7222.000000	65.037631 
7221.000000	64.947366 
7220.000000	64.927697 
7219.000000	65.017986 
7218.000000	65.236878 
7217.000000	65.577745 
7216.000000	66.003012 
7215.000000	66.454529 
7214.000000	66.859722 
7213.000000	67.148351 
7212.000000	67.264771 
7211.000000	67.183089 
7210.000000	66.908454 
7209.000000	66.475629 
7208.000000	65.940046 
7207.000000	65.367102 
7206.000000	64.817357 
7205.000000	64.337515 
7204.000000	63.954019 
7203.000000	63.674473 
7202.000000	63.491129 
7201.000000	63.389158 
7200.000000	63.352489 
7199.000000	63.369321 
7198.000000	63.432741 
7197.000000	63.539814 
7196.000000	63.684868 
7195.000000	63.857698 
7194.000000	64.043259 
7193.000000	64.223146 
7192.000000	64.377379 
7191.000000	64.489555 
7190.000000	64.549207 
7189.000000	64.556670 
7188.000000	64.523100 
7187.000000	64.469981 
7186.000000	64.423251 
7185.000000	64.408993 
7184.000000	64.449810 
7183.000000	64.556717 
7182.000000	64.728569 
7181.000000	64.948320 
7180.000000	65.187907 
7179.000000	65.412282 
7178.000000	65.588498 
7177.000000	65.690517 
7176.000000	65.705633 
7175.000000	65.633821 
7174.000000	65.486693 
7173.000000	65.284347 
7172.000000	65.051126 
7171.000000	64.806699 
7170.000000	64.563488 
7169.000000	64.326310 
7168.000000	64.096093 
7167.000000	63.873505 
7166.000000	63.665604 
7165.000000	63.485527 
7164.000000	63.356590 
7163.000000	63.306546 
7162.000000	63.365077 
7161.000000	63.551855 
7160.000000	63.873076 
7159.000000	64.316797 
7158.000000	64.850544 
7157.000000	65.427279 
7156.000000	65.986633 
7155.000000	66.466212 
7154.000000	66.807889 
7153.000000	66.969251 
7152.000000	66.929244 
7151.000000	66.691827 
7150.000000	66.287922 
7149.000000	65.770745 
7148.000000	65.209555 
7147.000000	64.679217 
7146.000000	64.248180 
7145.000000	63.968038 
7144.000000	63.863682 
7143.000000	63.930630 
7142.000000	64.134168 
7141.000000	64.418935 
7140.000000	64.719676 
7139.000000	64.977622 
7138.000000	65.148186 
7137.000000	65.213561 
7136.000000	65.181159 
7135.000000	65.083265 
7134.000000	64.964032 
7133.000000	64.869904 
7132.000000	64.837718 
7131.000000	64.885544 
7130.000000	65.012454 
7129.000000	65.196967 
7128.000000	65.406632 
7127.000000	65.604686 
7126.000000	65.760684 
7125.000000	65.857410 
7124.000000	65.894579 
7123.000000	65.886497 
7122.000000	65.855383 
7121.000000	65.824747 
7120.000000	65.811371 
7119.000000	65.819907 
7118.000000	65.841627 
7117.000000	65.853238 
7116.000000	65.823101 
7115.000000	65.720558 
7114.000000	65.524911 
7113.000000	65.229892 
7112.000000	64.848279 
7111.000000	64.410114 
7110.000000	63.959193 
7109.000000	63.542842 
7108.000000	63.205838 
7107.000000	62.978720 
7106.000000	62.877416 
7105.000000	62.901806 
7104.000000	63.038420 
7103.000000	63.262867 
7102.000000	63.546061 
7101.000000	63.856220 
7100.000000	64.165449 
7099.000000	64.447903 
7098.000000	64.686417 
7097.000000	64.870023 
7096.000000	64.996647 
7095.000000	65.070533 
7094.000000	65.100622 
7093.000000	65.098071 
7092.000000	65.073657 
7091.000000	65.036916 
7090.000000	64.993500 
7089.000000	64.946031 
7088.000000	64.896035 
7087.000000	64.845633 
7086.000000	64.798974 
7085.000000	64.762449 
7084.000000	64.744353 
7083.000000	64.752388 
7082.000000	64.791274 
7081.000000	64.860057 
7080.000000	64.950776 
7079.000000	65.049266 
7078.000000	65.137481 
7077.000000	65.198040 
7076.000000	65.217828 
7075.000000	65.192365 
7074.000000	65.126347 
7073.000000	65.034317 
7072.000000	64.935278 
7071.000000	64.851784 
7070.000000	64.805269 
7069.000000	64.811325 
7068.000000	64.875364 
7067.000000	64.994692 
7066.000000	65.160727 
7065.000000	65.357375 
7064.000000	65.563631 
7063.000000	65.758633 
7062.000000	65.924501 
7061.000000	66.046404 
7060.000000	66.113734 
7059.000000	66.120910 
7058.000000	66.066360 
7057.000000	65.955352 
7056.000000	65.796208 
7055.000000	65.598893 
7054.000000	65.372061 
7053.000000	65.128040 
7052.000000	64.876437 
7051.000000	64.623022 
7050.000000	64.370536 
7049.000000	64.121174 
7048.000000	63.877820 
7047.000000	63.647127 
7046.000000	63.436508 
7045.000000	63.254761 
7044.000000	63.105082 
7043.000000	62.984514 
7042.000000	62.878870 
7041.000000	62.765216 
7040.000000	62.614107 
7039.000000	62.396550 
7038.000000	62.091636 
7037.000000	61.694002 
7036.000000	61.217355 
7035.000000	60.696172 
7034.000000	60.178399 
7033.000000	59.721326 
7032.000000	59.382510 
7031.000000	59.214615 
7030.000000	59.251999 
7029.000000	59.510493 
7028.000000	59.987068 
7027.000000	60.657882 
7026.000000	61.482405 
7025.000000	62.401247 
7024.000000	63.337516 
7023.000000	64.206361 
7022.000000	64.922547 
7021.000000	65.417075 
7020.000000	65.647149 
7019.000000	65.607500 
7018.000000	65.335941 
7017.000000	64.901232 
7016.000000	64.392066 
7015.000000	63.897538 
7014.000000	63.494181 
7013.000000	63.230204 
7012.000000	63.123011 
7011.000000	63.158822 
7010.000000	63.303375 
7009.000000	63.503503 
7008.000000	63.700819 
7007.000000	63.838529 
7006.000000	63.874030 
7005.000000	63.781237 
7004.000000	63.559770 
7003.000000	63.231968 
7002.000000	62.843585 
7001.000000	62.455081 
7000.000000	62.131643 
6999.000000	61.932539 
6998.000000	61.895751 
6997.000000	62.034440 
6996.000000	62.327432 
6995.000000	62.723588 
6994.000000	63.151121 
6993.000000	63.533425 
6992.000000	63.805103 
6991.000000	63.921475 
6990.000000	63.872671 
6989.000000	63.681817 
6988.000000	63.399958 
6987.000000	63.090443 
6986.000000	62.816572 
6985.000000	62.626743 
6984.000000	62.547445 
6983.000000	62.580919 
6982.000000	62.707901 
6981.000000	62.895727 
6980.000000	63.109493 
6979.000000	63.319683 
6978.000000	63.504362 
6977.000000	63.650798 
6976.000000	63.752102 
6975.000000	63.805627 
6974.000000	63.807797 
6973.000000	63.755774 
6972.000000	63.648176 
6971.000000	63.489103 
6970.000000	63.290929 
6969.000000	63.075566 
6968.000000	62.874174 
6967.000000	62.720775 
6966.000000	62.646794 
6965.000000	62.672066 
6964.000000	62.799429 
6963.000000	63.012647 
6962.000000	63.280868 
6961.000000	63.560581 
6960.000000	63.804674 
6959.000000	63.970279 
