PE IR       SPECTRUM    SPECTRUM    ASCII       PEDS        1.60        
  -1
C-1B61~1.ASC
17/05/02
13:25:23.00
17/05/02
13:25:23.00
tln
$C-4040-8_t0030$<tbV0>[-12.5,7.0,8.0,0.0,22,1,0]
370.000000
64









2002,4.07    
MIRTGS : RIGHTBACK : INTERNAL 2
MIR : ON : INTERNAL 2
OPTKBR

0.200000
8
8.000000
FILLER
RATIO
SPECTRUM
UNLOCKED 256

DOUBLE
64
COMBINED
1
0
0


1.000000
RATIO


1
0
TRUE
51149
0
LEFT NOT FITTED RIGHT NOT FITTED 0
NONE
NONE
15600
12.000000
4.427000
51148
TRUE
1 0 8 72 0 0 0 0 

15798.010000






#HDR
-1
-1
#GR
CM-1
%T
0.00002384185791015625
0.0
7800.000000
-1.000000
7431
8
85.096073
56.432747
#DATA
7800.000000	84.946155 
7799.000000	85.096073 
7798.000000	84.446191 
7797.000000	83.093452 
7796.000000	81.197404 
7795.000000	78.969621 
7794.000000	76.632380 
7793.000000	74.396157 
7792.000000	72.404217 
7791.000000	70.726609 
7790.000000	69.372129 
7789.000000	68.313932 
7788.000000	67.505288 
7787.000000	66.915464 
7786.000000	66.536664 
7785.000000	66.396284 
7784.000000	66.528129 
7783.000000	66.964149 
7782.000000	67.691969 
7781.000000	68.657422 
7780.000000	69.744348 
7779.000000	70.812225 
7778.000000	71.709370 
7777.000000	72.323560 
7776.000000	72.615265 
7775.000000	72.615170 
7774.000000	72.413229 
7773.000000	72.126102 
7772.000000	71.869993 
7771.000000	71.713376 
7770.000000	71.660757 
7769.000000	71.659517 
7768.000000	71.624779 
7767.000000	71.478295 
7766.000000	71.185183 
7765.000000	70.755386 
7764.000000	70.247578 
7763.000000	69.754052 
7762.000000	69.379639 
7761.000000	69.202136 
7760.000000	69.261550 
7759.000000	69.555020 
7758.000000	70.045208 
7757.000000	70.676827 
7756.000000	71.389269 
7755.000000	72.137188 
7754.000000	72.882390 
7753.000000	73.599171 
7752.000000	74.252986 
7751.000000	74.790000 
7750.000000	75.141477 
7749.000000	75.233745 
7748.000000	75.012493 
7747.000000	74.452352 
7746.000000	73.598670 
7745.000000	72.572731 
7744.000000	71.560311 
7743.000000	70.771265 
7742.000000	70.414519 
7741.000000	70.650720 
7740.000000	71.549129 
7739.000000	73.065185 
7738.000000	75.030899 
7737.000000	77.183628 
7736.000000	79.213333 
7735.000000	80.826711 
7734.000000	81.808829 
7733.000000	82.061481 
7732.000000	81.625699 
7731.000000	80.651879 
7730.000000	79.347586 
7729.000000	77.923226 
7728.000000	76.556921 
7727.000000	75.351643 
7726.000000	74.354267 
7725.000000	73.535561 
7724.000000	72.862696 
7723.000000	72.263693 
7722.000000	71.671986 
7721.000000	71.009254 
7720.000000	70.188784 
7719.000000	69.144248 
7718.000000	67.835593 
7717.000000	66.275596 
7716.000000	64.524078 
7715.000000	62.701749 
7714.000000	60.967206 
7713.000000	59.495091 
7712.000000	58.439016 
7711.000000	57.907557 
7710.000000	57.942390 
7709.000000	58.506131 
7708.000000	59.496402 
7707.000000	60.761022 
7706.000000	62.143611 
7705.000000	63.496208 
7704.000000	64.728498 
7703.000000	65.816426 
7702.000000	66.804051 
7701.000000	67.776370 
7700.000000	68.818426 
7699.000000	69.983363 
7698.000000	71.249270 
7697.000000	72.538995 
7696.000000	73.698282 
7695.000000	74.547195 
7694.000000	74.906945 
7693.000000	74.672341 
7692.000000	73.818421 
7691.000000	72.421765 
7690.000000	70.645999 
7689.000000	68.716192 
7688.000000	66.869807 
7687.000000	65.312170 
7686.000000	64.184737 
7685.000000	63.548684 
7684.000000	63.377881 
7683.000000	63.580632 
7682.000000	64.030790 
7681.000000	64.605998 
7680.000000	65.207171 
7679.000000	65.781784 
7678.000000	66.314148 
7677.000000	66.821908 
7676.000000	67.327904 
7675.000000	67.847824 
7674.000000	68.365287 
7673.000000	68.839263 
7672.000000	69.222712 
7671.000000	69.467711 
7670.000000	69.551086 
7669.000000	69.471096 
7668.000000	69.259381 
7667.000000	68.962693 
7666.000000	68.632745 
7665.000000	68.314433 
7664.000000	68.040633 
7663.000000	67.824196 
7662.000000	67.662024 
7661.000000	67.539310 
7660.000000	67.439484 
7659.000000	67.352867 
7658.000000	67.283248 
7657.000000	67.245602 
7656.000000	67.261886 
7655.000000	67.360019 
7654.000000	67.563509 
7653.000000	67.877483 
7652.000000	68.285512 
7651.000000	68.748331 
7650.000000	69.212818 
7649.000000	69.625830 
7648.000000	69.946312 
7647.000000	70.149374 
7646.000000	70.235300 
7645.000000	70.235610 
7644.000000	70.194983 
7643.000000	70.161175 
7642.000000	70.164704 
7641.000000	70.215272 
7640.000000	70.291376 
7639.000000	70.350456 
7638.000000	70.339870 
7637.000000	70.217537 
7636.000000	69.964599 
7635.000000	69.596219 
7634.000000	69.157361 
7633.000000	68.713140 
7632.000000	68.332147 
7631.000000	68.069267 
7630.000000	67.955374 
7629.000000	67.990565 
7628.000000	68.151235 
7627.000000	68.394446 
7626.000000	68.671727 
7625.000000	68.932652 
7624.000000	69.134330 
7623.000000	69.238567 
7622.000000	69.210577 
7621.000000	69.020271 
7620.000000	68.643903 
7619.000000	68.073272 
7618.000000	67.316246 
7617.000000	66.410613 
7616.000000	65.425729 
7615.000000	64.455819 
7614.000000	63.609743 
7613.000000	62.984585 
7612.000000	62.649726 
7611.000000	62.621188 
7610.000000	62.854361 
7609.000000	63.255238 
7608.000000	63.697052 
7607.000000	64.061450 
7606.000000	64.264178 
7605.000000	64.279508 
7604.000000	64.141345 
7603.000000	63.925457 
7602.000000	63.723039 
7601.000000	63.609385 
7600.000000	63.624215 
7599.000000	63.761305 
7598.000000	63.980293 
7597.000000	64.226818 
7596.000000	64.458513 
7595.000000	64.667057 
7594.000000	64.883041 
7593.000000	65.163898 
7592.000000	65.576028 
7591.000000	66.165661 
7590.000000	66.941857 
7589.000000	67.860388 
7588.000000	68.834972 
7587.000000	69.759941 
7586.000000	70.530152 
7585.000000	71.076416 
7584.000000	71.366357 
7583.000000	71.411395 
7582.000000	71.256971 
7581.000000	70.969104 
7580.000000	70.618820 
7579.000000	70.266962 
7578.000000	69.964337 
7577.000000	69.748616 
7576.000000	69.642472 
7575.000000	69.653534 
7574.000000	69.773030 
7573.000000	69.975399 
7572.000000	70.218658 
7571.000000	70.448994 
7570.000000	70.606017 
7569.000000	70.634889 
7568.000000	70.498251 
7567.000000	70.182871 
7566.000000	69.707226 
7565.000000	69.110989 
7564.000000	68.451142 
7563.000000	67.781996 
7562.000000	67.143082 
7561.000000	66.555070 
7560.000000	66.019558 
7559.000000	65.530347 
7558.000000	65.077805 
7557.000000	64.669728 
7556.000000	64.333891 
7555.000000	64.116668 
7554.000000	64.064478 
7553.000000	64.220118 
7552.000000	64.604806 
7551.000000	65.204381 
7550.000000	65.963196 
7549.000000	66.794252 
7548.000000	67.593479 
7547.000000	68.260431 
7546.000000	68.718576 
7545.000000	68.930840 
7544.000000	68.904519 
7543.000000	68.687367 
7542.000000	68.352603 
7541.000000	67.980194 
7540.000000	67.638015 
7539.000000	67.373800 
7538.000000	67.205381 
7537.000000	67.129755 
7536.000000	67.123866 
7535.000000	67.166423 
7534.000000	67.232847 
7533.000000	67.304039 
7532.000000	67.362523 
7531.000000	67.394518 
7530.000000	67.382740 
7529.000000	67.303562 
7528.000000	67.133188 
7527.000000	66.853952 
7526.000000	66.457366 
7525.000000	65.949559 
7524.000000	65.352916 
7523.000000	64.705586 
7522.000000	64.052724 
7521.000000	63.440179 
7520.000000	62.904834 
7519.000000	62.471246 
7518.000000	62.150835 
7517.000000	61.945319 
7516.000000	61.845231 
7515.000000	61.838579 
7514.000000	61.914229 
7513.000000	62.065434 
7512.000000	62.279176 
7511.000000	62.543606 
7510.000000	62.840414 
7509.000000	63.151860 
7508.000000	63.457298 
7507.000000	63.740181 
7506.000000	63.985681 
7505.000000	64.187908 
7504.000000	64.351344 
7503.000000	64.487361 
7502.000000	64.610719 
7501.000000	64.735174 
7500.000000	64.871454 
7499.000000	65.020680 
7498.000000	65.174269 
7497.000000	65.319538 
7496.000000	65.444850 
7495.000000	65.543580 
7494.000000	65.615725 
7493.000000	65.671563 
7492.000000	65.724873 
7491.000000	65.784907 
7490.000000	65.848588 
7489.000000	65.898966 
7488.000000	65.906333 
7487.000000	65.833449 
7486.000000	65.649485 
7485.000000	65.340089 
7484.000000	64.919686 
7483.000000	64.431142 
7482.000000	63.943743 
7481.000000	63.536095 
7480.000000	63.284087 
7479.000000	63.241004 
7478.000000	63.428044 
7477.000000	63.825249 
7476.000000	64.381551 
7475.000000	65.025329 
7474.000000	65.681672 
7473.000000	66.284823 
7472.000000	66.794323 
7471.000000	67.197823 
7470.000000	67.506074 
7469.000000	67.741489 
7468.000000	67.925810 
7467.000000	68.068909 
7466.000000	68.164634 
7465.000000	68.191862 
7464.000000	68.127751 
7463.000000	67.954707 
7462.000000	67.674565 
7461.000000	67.308521 
7460.000000	66.893219 
7459.000000	66.475796 
7458.000000	66.102361 
7457.000000	65.812683 
7456.000000	65.631842 
7455.000000	65.569376 
7454.000000	65.623521 
7453.000000	65.778017 
7452.000000	66.006088 
7451.000000	66.272377 
7450.000000	66.537237 
7449.000000	66.761946 
7448.000000	66.910719 
7447.000000	66.960501 
7446.000000	66.902613 
7445.000000	66.746902 
7444.000000	66.518831 
7443.000000	66.252779 
7442.000000	65.984249 
7441.000000	65.738630 
7440.000000	65.527486 
7439.000000	65.343856 
7438.000000	65.170383 
7437.000000	64.990377 
7436.000000	64.800119 
7435.000000	64.613938 
7434.000000	64.466714 
7433.000000	64.404416 
7432.000000	64.474582 
7431.000000	64.705801 
7430.000000	65.102767 
7429.000000	65.638637 
7428.000000	66.261863 
7427.000000	66.905236 
7426.000000	67.500758 
7425.000000	67.993330 
7424.000000	68.351101 
7423.000000	68.568873 
7422.000000	68.665933 
7421.000000	68.676900 
7420.000000	68.642997 
7419.000000	68.599653 
7418.000000	68.576502 
7417.000000	68.595719 
7416.000000	68.668389 
7415.000000	68.796658 
7414.000000	68.972158 
7413.000000	69.178557 
7412.000000	69.390749 
7411.000000	69.579386 
7410.000000	69.713640 
7409.000000	69.767427 
7408.000000	69.729328 
7407.000000	69.601655 
7406.000000	69.399666 
7405.000000	69.145798 
7404.000000	68.865036 
7403.000000	68.578529 
7402.000000	68.301582 
7401.000000	68.041563 
7400.000000	67.801427 
7399.000000	67.580366 
7398.000000	67.381072 
7397.000000	67.204809 
7396.000000	67.055845 
7395.000000	66.930532 
7394.000000	66.819548 
7393.000000	66.698074 
7392.000000	66.529631 
7391.000000	66.272115 
7390.000000	65.888381 
7389.000000	65.362334 
7388.000000	64.708280 
7387.000000	63.978862 
7386.000000	63.258934 
7385.000000	62.653946 
7384.000000	62.266850 
7383.000000	62.174654 
7382.000000	62.407112 
7381.000000	62.933588 
7380.000000	63.667988 
7379.000000	64.485621 
7378.000000	65.251898 
7377.000000	65.844130 
7376.000000	66.185235 
7375.000000	66.254973 
7374.000000	66.094183 
7373.000000	65.784788 
7372.000000	65.431332 
7371.000000	65.131664 
7370.000000	64.955782 
7369.000000	64.934110 
7368.000000	65.054988 
7367.000000	65.278124 
7366.000000	65.549659 
7365.000000	65.823769 
7364.000000	66.073441 
7363.000000	66.296720 
7362.000000	66.512680 
7361.000000	66.749644 
7360.000000	67.031812 
7359.000000	67.364883 
7358.000000	67.734408 
7357.000000	68.102288 
7356.000000	68.416333 
7355.000000	68.616271 
7354.000000	68.656539 
7353.000000	68.507051 
7352.000000	68.158364 
7351.000000	67.620801 
7350.000000	66.924667 
7349.000000	66.114664 
7348.000000	65.247321 
7347.000000	64.381480 
7346.000000	63.574671 
7345.000000	62.873125 
7344.000000	62.311506 
7343.000000	61.904358 
7342.000000	61.644124 
7341.000000	61.507821 
7340.000000	61.460018 
7339.000000	61.465048 
7338.000000	61.489629 
7337.000000	61.513686 
7336.000000	61.528706 
7335.000000	61.538004 
7334.000000	61.549377 
7333.000000	61.574912 
7332.000000	61.626291 
7331.000000	61.709594 
7330.000000	61.825704 
7329.000000	61.976695 
7328.000000	62.165260 
7327.000000	62.397003 
7326.000000	62.675189 
7325.000000	62.996339 
7324.000000	63.346505 
7323.000000	63.701605 
7322.000000	64.029288 
7321.000000	64.293360 
7320.000000	64.462327 
7319.000000	64.523792 
7318.000000	64.480042 
7317.000000	64.346837 
7316.000000	64.150094 
7315.000000	63.925075 
7314.000000	63.702559 
7313.000000	63.503122 
7312.000000	63.336110 
7311.000000	63.204216 
7310.000000	63.100028 
7309.000000	63.012075 
7308.000000	62.925124 
7307.000000	62.825083 
7306.000000	62.695765 
7305.000000	62.523579 
7304.000000	62.295889 
7303.000000	62.008810 
7302.000000	61.673092 
7301.000000	61.319351 
7300.000000	60.992598 
7299.000000	60.749578 
7298.000000	60.647130 
7297.000000	60.732078 
7296.000000	61.023354 
7295.000000	61.512231 
7294.000000	62.159514 
7293.000000	62.906670 
7292.000000	63.683485 
7291.000000	64.424729 
7290.000000	65.081167 
7289.000000	65.624785 
7288.000000	66.049027 
7287.000000	66.362261 
7286.000000	66.578888 
7285.000000	66.713714 
7284.000000	66.778326 
7283.000000	66.780614 
7282.000000	66.728711 
7281.000000	66.633772 
7280.000000	66.513919 
7279.000000	66.384577 
7278.000000	66.256642 
7277.000000	66.128420 
7276.000000	65.986871 
7275.000000	65.811157 
7274.000000	65.580916 
7273.000000	65.285086 
7272.000000	64.928817 
7271.000000	64.535450 
7270.000000	64.144349 
7269.000000	63.799786 
7268.000000	63.544154 
7267.000000	63.406538 
7266.000000	63.398027 
7265.000000	63.505482 
7264.000000	63.699340 
7263.000000	63.939619 
7262.000000	64.187264 
7261.000000	64.409732 
7260.000000	64.589810 
7259.000000	64.725422 
7258.000000	64.825654 
7257.000000	64.902400 
7256.000000	64.964962 
7255.000000	65.014958 
7254.000000	65.043044 
7253.000000	65.031695 
7252.000000	64.958500 
7251.000000	64.804267 
7250.000000	64.560675 
7249.000000	64.235258 
7248.000000	63.852357 
7247.000000	63.448357 
7246.000000	63.067674 
7245.000000	62.749505 
7244.000000	62.515544 
7243.000000	62.366223 
7242.000000	62.280654 
7241.000000	62.226629 
7240.000000	62.164640 
7239.000000	62.069678 
7238.000000	61.935162 
7237.000000	61.783981 
7236.000000	61.658167 
7235.000000	61.613345 
7234.000000	61.699247 
7233.000000	61.945509 
7232.000000	62.348818 
7231.000000	62.870359 
7230.000000	63.441467 
7229.000000	63.980460 
7228.000000	64.412355 
7227.000000	64.684629 
7226.000000	64.778852 
7225.000000	64.711952 
7224.000000	64.530515 
7223.000000	64.295363 
7222.000000	64.068388 
7221.000000	63.900923 
7220.000000	63.826322 
7219.000000	63.862061 
7218.000000	64.009284 
7217.000000	64.257740 
7216.000000	64.589405 
7215.000000	64.985132 
7214.000000	65.424370 
7213.000000	65.883350 
7212.000000	66.336750 
7211.000000	66.755342 
7210.000000	67.110943 
7209.000000	67.378830 
7208.000000	67.542791 
7207.000000	67.599654 
7206.000000	67.558789 
7205.000000	67.444872 
7204.000000	67.286610 
7203.000000	67.114734 
7202.000000	66.948747 
7201.000000	66.796326 
7200.000000	66.648483 
7199.000000	66.486334 
7198.000000	66.287970 
7197.000000	66.040182 
7196.000000	65.744996 
7195.000000	65.425729 
7194.000000	65.126562 
7193.000000	64.904308 
7192.000000	64.814805 
7191.000000	64.897155 
7190.000000	65.161371 
7189.000000	65.581226 
7188.000000	66.096711 
7187.000000	66.624855 
7186.000000	67.079353 
7185.000000	67.386531 
7184.000000	67.500329 
7183.000000	67.410278 
7182.000000	67.142820 
7181.000000	66.750597 
7180.000000	66.298031 
7179.000000	65.846180 
7178.000000	65.440177 
7177.000000	65.104913 
7176.000000	64.847660 
7175.000000	64.662861 
7174.000000	64.541459 
7173.000000	64.479303 
7172.000000	64.481663 
7171.000000	64.558768 
7170.000000	64.720535 
7169.000000	64.968395 
7168.000000	65.290141 
7167.000000	65.659141 
7166.000000	66.035985 
7165.000000	66.377735 
7164.000000	66.642761 
7163.000000	66.799330 
7162.000000	66.828274 
7161.000000	66.726779 
7160.000000	66.506552 
7159.000000	66.190338 
7158.000000	65.810227 
7157.000000	65.398883 
7156.000000	64.994406 
7155.000000	64.638495 
7154.000000	64.374518 
7153.000000	64.237928 
7152.000000	64.259648 
7151.000000	64.460659 
7150.000000	64.845466 
7149.000000	65.396809 
7148.000000	66.075181 
7147.000000	66.820526 
7146.000000	67.561554 
7145.000000	68.226170 
7144.000000	68.749618 
7143.000000	69.084620 
7142.000000	69.211435 
7141.000000	69.139885 
7140.000000	68.907332 
7139.000000	68.569302 
7138.000000	68.192720 
7137.000000	67.837858 
7136.000000	67.556500 
7135.000000	67.371964 
7134.000000	67.287325 
7133.000000	67.271876 
7132.000000	67.278265 
7131.000000	67.241787 
7130.000000	67.099237 
7129.000000	66.798496 
7128.000000	66.309595 
7127.000000	65.635251 
7126.000000	64.809060 
7125.000000	63.895225 
7124.000000	62.971043 
7123.000000	62.123990 
7122.000000	61.431837 
7121.000000	60.961270 
7120.000000	60.756301 
7119.000000	60.834860 
7118.000000	61.184620 
7117.000000	61.765146 
7116.000000	62.512159 
7115.000000	63.337922 
7114.000000	64.143967 
7113.000000	64.838004 
7112.000000	65.347719 
7111.000000	65.626764 
7110.000000	65.662717 
7109.000000	65.477681 
7108.000000	65.121412 
7107.000000	64.662170 
7106.000000	64.172315 
7105.000000	63.717126 
7104.000000	63.345527 
7103.000000	63.094091 
7102.000000	62.978100 
7101.000000	62.994766 
7100.000000	63.127183 
7099.000000	63.353729 
7098.000000	63.647246 
7097.000000	63.976693 
7096.000000	64.310622 
7095.000000	64.617705 
7094.000000	64.867711 
7093.000000	65.031838 
7092.000000	65.089154 
7091.000000	65.028810 
7090.000000	64.850425 
7089.000000	64.563274 
7088.000000	64.185142 
7087.000000	63.738083 
7086.000000	63.245010 
7085.000000	62.726712 
7084.000000	62.196993 
7083.000000	61.668610 
7082.000000	61.153101 
7081.000000	60.672616 
7080.000000	60.252833 
7079.000000	59.935402 
7078.000000	59.767508 
7077.000000	59.799957 
7076.000000	60.069131 
7075.000000	60.588836 
7074.000000	61.336016 
7073.000000	62.251901 
7072.000000	63.245177 
7071.000000	64.207983 
7070.000000	65.033364 
7069.000000	65.635824 
7068.000000	65.967178 
7067.000000	66.020965 
7066.000000	65.830850 
7065.000000	65.457415 
7064.000000	64.973473 
7063.000000	64.445090 
7062.000000	63.921332 
7061.000000	63.431835 
7060.000000	62.990546 
7059.000000	62.604808 
7058.000000	62.283658 
7057.000000	62.045550 
7056.000000	61.916303 
7055.000000	61.919379 
7054.000000	62.069320 
7053.000000	62.356209 
7052.000000	62.749195 
7051.000000	63.194274 
7050.000000	63.628911 
7049.000000	63.993382 
7048.000000	64.243698 
7047.000000	64.359188 
7046.000000	64.345526 
7045.000000	64.230251 
7044.000000	64.054012 
7043.000000	63.859033 
7042.000000	63.680338 
7041.000000	63.538503 
7040.000000	63.442850 
7039.000000	63.395690 
7038.000000	63.395428 
7037.000000	63.440990 
7036.000000	63.533186 
7035.000000	63.673758 
7034.000000	63.860464 
7033.000000	64.083695 
7032.000000	64.324426 
7031.000000	64.553689 
7030.000000	64.740109 
7029.000000	64.852142 
7028.000000	64.860939 
7027.000000	64.748597 
7026.000000	64.513301 
7025.000000	64.173531 
7024.000000	63.764572 
7023.000000	63.336706 
7022.000000	62.947916 
7021.000000	62.652778 
7020.000000	62.493467 
7019.000000	62.489581 
7018.000000	62.633156 
7017.000000	62.893104 
7016.000000	63.222479 
7015.000000	63.569521 
7014.000000	63.885784 
7013.000000	64.140367 
7012.000000	64.323067 
7011.000000	64.442801 
7010.000000	64.520096 
7009.000000	64.576101 
7008.000000	64.624285 
7007.000000	64.663362 
7006.000000	64.680147 
7005.000000	64.659452 
7004.000000	64.593648 
7003.000000	64.491343 
7002.000000	64.379525 
7001.000000	64.300060 
7000.000000	64.299035 
6999.000000	64.414429 
6998.000000	64.663386 
6997.000000	65.034317 
6996.000000	65.486502 
6995.000000	65.962243 
6994.000000	66.393136 
6993.000000	66.716361 
6992.000000	66.885375 
6991.000000	66.881823 
6990.000000	66.714000 
6989.000000	66.413402 
6988.000000	66.025996 
6987.000000	65.602803 
6986.000000	65.188193 
6985.000000	64.814519 
6984.000000	64.496397 
6983.000000	64.233446 
6982.000000	64.011240 
6981.000000	63.810038 
6980.000000	63.605356 
6979.000000	63.378906 
6978.000000	63.122510 
6977.000000	62.847042 
6976.000000	62.575054 
6975.000000	62.345051 
6974.000000	62.201046 
6973.000000	62.188816 
6972.000000	62.341165 
6971.000000	62.672948 
6970.000000	63.176131 
6969.000000	63.816571 
6968.000000	64.538145 
6967.000000	65.268969 
6966.000000	65.932011 
6965.000000	66.458559 
6964.000000	66.797757 
6963.000000	66.928768 
6962.000000	66.864395 
6961.000000	66.646528 
6960.000000	66.338467 
6959.000000	66.007065 
