PE IR       SPECTRUM    SPECTRUM    ASCII       PEDS        1.60        
  -1
C-9A61~1.ASC
17/05/02
12:32:00.00
17/05/02
12:32:00.00
tln
$C-4040-8_t0020$<tbV0>[7.5,2.0,8.0,0.0,22,1,0]
370.000000
64









2002,4.07    
MIRTGS : RIGHTBACK : INTERNAL 2
MIR : ON : INTERNAL 2
OPTKBR

0.200000
8
8.000000
FILLER
RATIO
SPECTRUM
UNLOCKED 256

DOUBLE
64
COMBINED
1
0
0


1.000000
RATIO


1
0
TRUE
51149
0
LEFT NOT FITTED RIGHT NOT FITTED 0
NONE
NONE
15600
12.000000
4.427000
51148
TRUE
1 0 8 72 0 0 0 0 

15798.010000






#HDR
-1
-1
#GR
CM-1
%T
0.00002384185791015625
0.0
7800.000000
-1.000000
7431
8
106.724095
45.731067
#DATA
7800.000000	68.032622  
7799.000000	68.014812  
7798.000000	68.173217  
7797.000000	68.465662  
7796.000000	68.839335  
7795.000000	69.257640  
7794.000000	69.698882  
7793.000000	70.156335  
7792.000000	70.628762  
7791.000000	71.107554  
7790.000000	71.552729  
7789.000000	71.896433  
7788.000000	72.056269  
7787.000000	71.959638  
7786.000000	71.578621  
7785.000000	70.941019  
7784.000000	70.132637  
7783.000000	69.281697  
7782.000000	68.523168  
7781.000000	67.979645  
7780.000000	67.730760  
7779.000000	67.812919  
7778.000000	68.196201  
7777.000000	68.829727  
7776.000000	69.663715  
7775.000000	70.661854  
7774.000000	71.807122  
7773.000000	73.085165  
7772.000000	74.471139  
7771.000000	75.900030  
7770.000000	77.259421  
7769.000000	78.396916  
7768.000000	79.146766  
7767.000000	79.373264  
7766.000000	79.010462  
7765.000000	78.087234  
7764.000000	76.729226  
7763.000000	75.143432  
7762.000000	73.569083  
7761.000000	72.227978  
7760.000000	71.265530  
7759.000000	70.730280  
7758.000000	70.554423  
7757.000000	70.585417  
7756.000000	70.619010  
7755.000000	70.457577  
7754.000000	69.959402  
7753.000000	69.062638  
7752.000000	67.812132  
7751.000000	66.326737  
7750.000000	64.789915  
7749.000000	63.388323  
7748.000000	62.286281  
7747.000000	61.587357  
7746.000000	61.317920  
7745.000000	61.430358  
7744.000000	61.815428  
7743.000000	62.327599  
7742.000000	62.834453  
7741.000000	63.246226  
7740.000000	63.530850  
7739.000000	63.709640  
7738.000000	63.849282  
7737.000000	64.031744  
7736.000000	64.329957  
7735.000000	64.780116  
7734.000000	65.370416  
7733.000000	66.038060  
7732.000000	66.694784  
7731.000000	67.243528  
7730.000000	67.596244  
7729.000000	67.704248  
7728.000000	67.567515  
7727.000000	67.246627  
7726.000000	66.848516  
7725.000000	66.506385  
7724.000000	66.351485  
7723.000000	66.474771  
7722.000000	66.919732  
7721.000000	67.643618  
7720.000000	68.538236  
7719.000000	69.429445  
7718.000000	70.120000  
7717.000000	70.430994  
7716.000000	70.243883  
7715.000000	69.540643  
7714.000000	68.409299  
7713.000000	67.042589  
7712.000000	65.695452  
7711.000000	64.635634  
7710.000000	64.081835  
7709.000000	64.159822  
7708.000000	64.871740  
7707.000000	66.105127  
7706.000000	67.651271  
7705.000000	69.262075  
7704.000000	70.687627  
7703.000000	71.721220  
7702.000000	72.225332  
7701.000000	72.143626  
7700.000000	71.495819  
7699.000000	70.362305  
7698.000000	68.856620  
7697.000000	67.109751  
7696.000000	65.241479  
7695.000000	63.364601  
7694.000000	61.564588  
7693.000000	59.913611  
7692.000000	58.465075  
7691.000000	57.263159  
7690.000000	56.343698  
7689.000000	55.727124  
7688.000000	55.430769  
7687.000000	55.458283  
7686.000000	55.799818  
7685.000000	56.421804  
7684.000000	57.272720  
7683.000000	58.284282  
7682.000000	59.375667  
7681.000000	60.466647  
7680.000000	61.489892  
7679.000000	62.402009  
7678.000000	63.191437  
7677.000000	63.869976  
7676.000000	64.467024  
7675.000000	65.004873  
7674.000000	65.498280  
7673.000000	65.928769  
7672.000000	66.260266  
7671.000000	66.429519  
7670.000000	66.381096  
7669.000000	66.066622  
7668.000000	65.470933  
7667.000000	64.616012  
7666.000000	63.573336  
7665.000000	62.443757  
7664.000000	61.337971  
7663.000000	60.364675  
7662.000000	59.613251  
7661.000000	59.139800  
7660.000000	58.959197  
7659.000000	59.050989  
7658.000000	59.366822  
7657.000000	59.829044  
7656.000000	60.345268  
7655.000000	60.815739  
7654.000000	61.154031  
7653.000000	61.300611  
7652.000000	61.238956  
7651.000000	60.992455  
7650.000000	60.625410  
7649.000000	60.228466  
7648.000000	59.901833  
7647.000000	59.729290  
7646.000000	59.764790  
7645.000000	60.031461  
7644.000000	60.509300  
7643.000000	61.149239  
7642.000000	61.871886  
7641.000000	62.585330  
7640.000000	63.197827  
7639.000000	63.631010  
7638.000000	63.838315  
7637.000000	63.807034  
7636.000000	63.569188  
7635.000000	63.192558  
7634.000000	62.768411  
7633.000000	62.391066  
7632.000000	62.143206  
7631.000000	62.080860  
7630.000000	62.222385  
7629.000000	62.548613  
7628.000000	63.009691  
7627.000000	63.538742  
7626.000000	64.068388  
7625.000000	64.544272  
7624.000000	64.930343  
7623.000000	65.212321  
7622.000000	65.393972  
7621.000000	65.490031  
7620.000000	65.514588  
7619.000000	65.479207  
7618.000000	65.390706  
7617.000000	65.254974  
7616.000000	65.087199  
7615.000000	64.908671  
7614.000000	64.747619  
7613.000000	64.635396  
7612.000000	64.604997  
7611.000000	64.677810  
7610.000000	64.859938  
7609.000000	65.132808  
7608.000000	65.455985  
7607.000000	65.769815  
7606.000000	66.008901  
7605.000000	66.110706  
7604.000000	66.029524  
7603.000000	65.751051  
7602.000000	65.296578  
7601.000000	64.719271  
7600.000000	64.092111  
7599.000000	63.491964  
7598.000000	62.982702  
7597.000000	62.601161  
7596.000000	62.355256  
7595.000000	62.224578  
7594.000000	62.178635  
7593.000000	62.181639  
7592.000000	62.219548  
7591.000000	62.298727  
7590.000000	62.456464  
7589.000000	62.739515  
7588.000000	63.197898  
7587.000000	63.859748  
7586.000000	64.719843  
7585.000000	65.730714  
7584.000000	66.805171  
7583.000000	67.835021  
7582.000000	68.702602  
7581.000000	69.310450  
7580.000000	69.586586  
7579.000000	69.500374  
7578.000000	69.062280  
7577.000000	68.323159  
7576.000000	67.365407  
7575.000000	66.291189  
7574.000000	65.211224  
7573.000000	64.230251  
7572.000000	63.435912  
7571.000000	62.889218  
7570.000000	62.620329  
7569.000000	62.628889  
7568.000000	62.883138  
7567.000000	63.332414  
7566.000000	63.911771  
7565.000000	64.556407  
7564.000000	65.203428  
7563.000000	65.801095  
7562.000000	66.305994  
7561.000000	66.686081  
7560.000000	66.917490  
7559.000000	66.986775  
7558.000000	66.886878  
7557.000000	66.628336  
7556.000000	66.244363  
7555.000000	65.786361  
7554.000000	65.322828  
7553.000000	64.920592  
7552.000000	64.635658  
7551.000000	64.495635  
7550.000000	64.496207  
7549.000000	64.604234  
7548.000000	64.768981  
7547.000000	64.937090  
7546.000000	65.068340  
7545.000000	65.139698  
7544.000000	65.153336  
7543.000000	65.131950  
7542.000000	65.113306  
7541.000000	65.136432  
7540.000000	65.230202  
7539.000000	65.409564  
7538.000000	65.663123  
7537.000000	65.960240  
7536.000000	66.248536  
7535.000000	66.469502  
7534.000000	66.565942  
7533.000000	66.495943  
7532.000000	66.244411  
7531.000000	65.823674  
7530.000000	65.281605  
7529.000000	64.691686  
7528.000000	64.143919  
7527.000000	63.725495  
7526.000000	63.507008  
7525.000000	63.528656  
7524.000000	63.792014  
7523.000000	64.260387  
7522.000000	64.871454  
7521.000000	65.550374  
7520.000000	66.224694  
7519.000000	66.834640  
7518.000000	67.337870  
7517.000000	67.709326  
7516.000000	67.935037  
7515.000000	68.009638  
7514.000000	67.933177  
7513.000000	67.712116  
7512.000000	67.363476  
7511.000000	66.916418  
7510.000000	66.416811  
7509.000000	65.921664  
7508.000000	65.497350  
7507.000000	65.203762  
7506.000000	65.088748  
7505.000000	65.169215  
7504.000000	65.427899  
7503.000000	65.810799  
7502.000000	66.239619  
7501.000000	66.622138  
7500.000000	66.871857  
7499.000000	66.923403  
7498.000000	66.744852  
7497.000000	66.343760  
7496.000000	65.763950  
7495.000000	65.074586  
7494.000000	64.354920  
7493.000000	63.682246  
7492.000000	63.117957  
7491.000000	62.697696  
7490.000000	62.430548  
7489.000000	62.304806  
7488.000000	62.295913  
7487.000000	62.376141  
7486.000000	62.520480  
7485.000000	62.709379  
7484.000000	62.926554  
7483.000000	63.150763  
7482.000000	63.355970  
7481.000000	63.508391  
7480.000000	63.572502  
7479.000000	63.513422  
7478.000000	63.311290  
7477.000000	62.971186  
7476.000000	62.522101  
7475.000000	62.014317  
7474.000000	61.509180  
7473.000000	61.067342  
7472.000000	60.736393  
7471.000000	60.543203  
7470.000000	60.488867  
7469.000000	60.551714  
7468.000000	60.707473  
7467.000000	60.939860  
7466.000000	61.245226  
7465.000000	61.634516  
7464.000000	62.124609  
7463.000000	62.730431  
7462.000000	63.450384  
7461.000000	64.263153  
7460.000000	65.122079  
7459.000000	65.966391  
7458.000000	66.736006  
7457.000000	67.382788  
7456.000000	67.881393  
7455.000000	68.233036  
7454.000000	68.466186  
7453.000000	68.624353  
7452.000000	68.760037  
7451.000000	68.912053  
7450.000000	69.108915  
7449.000000	69.341826  
7448.000000	69.577288  
7447.000000	69.750332  
7446.000000	69.791579  
7445.000000	69.628548  
7444.000000	69.209742  
7443.000000	68.513870  
7442.000000	67.561984  
7441.000000	66.413784  
7440.000000	65.162491  
7439.000000	63.922595  
7438.000000	62.813639  
7437.000000	61.944103  
7436.000000	61.394405  
7435.000000	61.202692  
7434.000000	61.360502  
7433.000000	61.815547  
7432.000000	62.483572  
7431.000000	63.250136  
7430.000000	64.005088  
7429.000000	64.652490  
7428.000000	65.138149  
7427.000000	65.440154  
7426.000000	65.583658  
7425.000000	65.623450  
7424.000000	65.632009  
7423.000000	65.678954  
7422.000000	65.811586  
7421.000000	66.047620  
7420.000000	66.368079  
7419.000000	66.730308  
7418.000000	67.074751  
7417.000000	67.345190  
7416.000000	67.502880  
7415.000000	67.538285  
7414.000000	67.472434  
7413.000000	67.349386  
7412.000000	67.226028  
7411.000000	67.153215  
7410.000000	67.158842  
7409.000000	67.237663  
7408.000000	67.356395  
7407.000000	67.460846  
7406.000000	67.491459  
7405.000000	67.402625  
7404.000000	67.176985  
7403.000000	66.835546  
7402.000000	66.430687  
7401.000000	66.040134  
7400.000000	65.740036  
7399.000000	65.596699  
7398.000000	65.652656  
7397.000000	65.914678  
7396.000000	66.353249  
7395.000000	66.907048  
7394.000000	67.497634  
7393.000000	68.043470  
7392.000000	68.475031  
7391.000000	68.750047  
7390.000000	68.858027  
7389.000000	68.821954  
7388.000000	68.688035  
7387.000000	68.514800  
7386.000000	68.355846  
7385.000000	68.247652  
7384.000000	68.199515  
7383.000000	68.195533  
7382.000000	68.197989  
7381.000000	68.163776  
7380.000000	68.053245  
7379.000000	67.842483  
7378.000000	67.528295  
7377.000000	67.129421  
7376.000000	66.681289  
7375.000000	66.223168  
7374.000000	65.793752  
7373.000000	65.419363  
7372.000000	65.117383  
7371.000000	64.892363  
7370.000000	64.745903  
7369.000000	64.678406  
7368.000000	64.694499  
7367.000000	64.802098  
7366.000000	65.006494  
7365.000000	65.302658  
7364.000000	65.670633  
7363.000000	66.072845  
7362.000000	66.457581  
7361.000000	66.766738  
7360.000000	66.952800  
7359.000000	66.989660  
7358.000000	66.882395  
7357.000000	66.666150  
7356.000000	66.396522  
7355.000000	66.136884  
7354.000000	65.942597  
7353.000000	65.850663  
7352.000000	65.872526  
7351.000000	65.997219  
7350.000000	66.198420  
7349.000000	66.444659  
7348.000000	66.714167  
7347.000000	66.992926  
7346.000000	67.276668  
7345.000000	67.561054  
7344.000000	67.835092  
7343.000000	68.076539  
7342.000000	68.250226  
7341.000000	68.318867  
7340.000000	68.252706  
7339.000000	68.043446  
7338.000000	67.712473  
7337.000000	67.308735  
7336.000000	66.901469  
7335.000000	66.564178  
7334.000000	66.358327  
7333.000000	66.322350  
7332.000000	66.463375  
7331.000000	66.758823  
7330.000000	67.160749  
7329.000000	67.608404  
7328.000000	68.036675  
7327.000000	68.389916  
7326.000000	68.623995  
7325.000000	68.707180  
7324.000000	68.620562  
7323.000000	68.357944  
7322.000000	67.925214  
7321.000000	67.343044  
7320.000000	66.643905  
7319.000000	65.875482  
7318.000000	65.091848  
7317.000000	64.352250  
7316.000000	63.708949  
7315.000000	63.200330  
7314.000000	62.846994  
7313.000000	62.649750  
7312.000000	62.592530  
7311.000000	62.645840  
7310.000000	62.772655  
7309.000000	62.932467  
7308.000000	63.090133  
7307.000000	63.219642  
7306.000000	63.309550  
7305.000000	63.363647  
7304.000000	63.402533  
7303.000000	63.458609  
7302.000000	63.571786  
7301.000000	63.777112  
7300.000000	64.098167  
7299.000000	64.533042  
7298.000000	65.055799  
7297.000000	65.611577  
7296.000000	66.125059  
7295.000000	66.514587  
7294.000000	66.712832  
7293.000000	66.681456  
7292.000000	66.420602  
7291.000000	65.972828  
7290.000000	65.412664  
7289.000000	64.836430  
7288.000000	64.341425  
7287.000000	64.010548  
7286.000000	63.895559  
7285.000000	64.014554  
7284.000000	64.354014  
7283.000000	64.873099  
7282.000000	65.514111  
7281.000000	66.213440  
7280.000000	66.911268  
7279.000000	67.555308  
7278.000000	68.102765  
7277.000000	68.521499  
7276.000000	68.787479  
7275.000000	68.885159  
7274.000000	68.804383  
7273.000000	68.548727  
7272.000000	68.129754  
7271.000000	67.571520  
7270.000000	66.904520  
7269.000000	66.170477  
7268.000000	65.413546  
7267.000000	64.680242  
7266.000000	64.012765  
7265.000000	63.445067  
7264.000000	63.001275  
7263.000000	62.694287  
7262.000000	62.525534  
7261.000000	62.480783  
7260.000000	62.538576  
7259.000000	62.668752  
7258.000000	62.841773  
7257.000000	63.027334  
7256.000000	63.204646  
7255.000000	63.360357  
7254.000000	63.494443  
7253.000000	63.615655  
7252.000000	63.742375  
7251.000000	63.896751  
7250.000000	64.098310  
7249.000000	64.358639  
7248.000000	64.682054  
7247.000000	65.062546  
7246.000000	65.484523  
7245.000000	65.923714  
7244.000000	66.353487  
7243.000000	66.745901  
7242.000000	67.077851  
7241.000000	67.330694  
7240.000000	67.493987  
7239.000000	67.563128  
7238.000000	67.544174  
7237.000000	67.447042  
7236.000000	67.285799  
7235.000000	67.075610  
7234.000000	66.837191  
7233.000000	66.589570  
7232.000000	66.350817  
7231.000000	66.136288  
7230.000000	65.960264  
7229.000000	65.831398  
7228.000000	65.752506  
7227.000000	65.720629  
7226.000000	65.728187  
7225.000000	65.762758  
7224.000000	65.809321  
7223.000000	65.852832  
7222.000000	65.880894  
7221.000000	65.886998  
7220.000000	65.870022  
7219.000000	65.833163  
7218.000000	65.780282  
7217.000000	65.714764  
7216.000000	65.636038  
7215.000000	65.537905  
7214.000000	65.411591  
7213.000000	65.251660  
7212.000000	65.057349  
7211.000000	64.834666  
7210.000000	64.597201  
7209.000000	64.363646  
7208.000000	64.156270  
7207.000000	63.991880  
7206.000000	63.886451  
7205.000000	63.849163  
7204.000000	63.887977  
7203.000000	64.005398  
7202.000000	64.205598  
7201.000000	64.492034  
7200.000000	64.864897  
7199.000000	65.316414  
7198.000000	65.828871  
7197.000000	66.372871  
7196.000000	66.907978  
7195.000000	67.387366  
7194.000000	67.766308  
7193.000000	68.009066  
7192.000000	68.100428  
7191.000000	68.044829  
7190.000000	67.865753  
7189.000000	67.598271  
7188.000000	67.285537  
7187.000000	66.967368  
7186.000000	66.676521  
7185.000000	66.432642  
7184.000000	66.247963  
7183.000000	66.122293  
7182.000000	66.050791  
7181.000000	66.020631  
7180.000000	66.018390  
7179.000000	66.024398  
7178.000000	66.016817  
7177.000000	65.968656  
7176.000000	65.851116  
7175.000000	65.638208  
7174.000000	65.312767  
7173.000000	64.872479  
7172.000000	64.333486  
7171.000000	63.731789  
7170.000000	63.120198  
7169.000000	62.560701  
7168.000000	62.115645  
7167.000000	61.839699  
7166.000000	61.769914  
7165.000000	61.915802  
7164.000000	62.257862  
7163.000000	62.750101  
7162.000000	63.329315  
7161.000000	63.919520  
7160.000000	64.452457  
7159.000000	64.876198  
7158.000000	65.165352  
7157.000000	65.323352  
7156.000000	65.372657  
7155.000000	65.344905  
7154.000000	65.267491  
7153.000000	65.160083  
7152.000000	65.024495  
7151.000000	64.849734  
7150.000000	64.620018  
7149.000000	64.328145  
7148.000000	63.984107  
7147.000000	63.620233  
7146.000000	63.287544  
7145.000000	63.045406  
7144.000000	62.945103  
7143.000000	63.014698  
7142.000000	63.248324  
7141.000000	63.604474  
7140.000000	64.012622  
7139.000000	64.388990  
7138.000000	64.656925  
7137.000000	64.764809  
7136.000000	64.692020  
7135.000000	64.457464  
7134.000000	64.109253  
7133.000000	63.718485  
7132.000000	63.360333  
7131.000000	63.101172  
7130.000000	62.986826  
7129.000000	63.033795  
7128.000000	63.234519  
7127.000000	63.554143  
7126.000000	63.943052  
7125.000000	64.343142  
7124.000000	64.700388  
7123.000000	64.970803  
7122.000000	65.124464  
7121.000000	65.150809  
7120.000000	65.056419  
7119.000000	64.863562  
7118.000000	64.604306  
7117.000000	64.314436  
7116.000000	64.027547  
7115.000000	63.772034  
7114.000000	63.568782  
7113.000000	63.430786  
7112.000000	63.364315  
7111.000000	63.370704  
7110.000000	63.448166  
7109.000000	63.591265  
7108.000000	63.792419  
7107.000000	64.037394  
7106.000000	64.309477  
7105.000000	64.589023  
7104.000000	64.856457  
7103.000000	65.094804  
7102.000000	65.288758  
7101.000000	65.426898  
7100.000000	65.499424  
7099.000000	65.503048  
7098.000000	65.434694  
7097.000000	65.293741  
7096.000000	65.081739  
7095.000000	64.806246  
7094.000000	64.480519  
7093.000000	64.125108  
7092.000000	63.767623  
7091.000000	63.440251  
7090.000000	63.175034  
7089.000000	62.998318  
7088.000000	62.922978  
7087.000000	62.945580  
7086.000000	63.046360  
7085.000000	63.194656  
7084.000000	63.351607  
7083.000000	63.482666  
7082.000000	63.563323  
7081.000000	63.587856  
7080.000000	63.566327  
7079.000000	63.524556  
7078.000000	63.495230  
7077.000000	63.509225  
7076.000000	63.586354  
7075.000000	63.730049  
7074.000000	63.924765  
7073.000000	64.143943  
7072.000000	64.355492  
7071.000000	64.537262  
7070.000000	64.684057  
7069.000000	64.810371  
7068.000000	64.946293  
7067.000000	65.124869  
7066.000000	65.369582  
7065.000000	65.681552  
7064.000000	66.035389  
7063.000000	66.376209  
7062.000000	66.630911  
7061.000000	66.728878  
7060.000000	66.619777  
7059.000000	66.284728  
7058.000000	65.743708  
7057.000000	65.055537  
7056.000000	64.305830  
7055.000000	63.584232  
7054.000000	62.971520  
7053.000000	62.523770  
7052.000000	62.268805  
7051.000000	62.207818  
7050.000000	62.319946  
7049.000000	62.571620  
7048.000000	62.922263  
7047.000000	63.332080  
7046.000000	63.761639  
7045.000000	64.164733  
7044.000000	64.501261  
7043.000000	64.735078  
7042.000000	64.845871  
7041.000000	64.826774  
7040.000000	64.698791  
7039.000000	64.507794  
7038.000000	64.318013  
7037.000000	64.199352  
7036.000000	64.211630  
7035.000000	64.392209  
7034.000000	64.745974  
7033.000000	65.246915  
7032.000000	65.847134  
7031.000000	66.490626  
7030.000000	67.128133  
7029.000000	67.725491  
7028.000000	68.271160  
7027.000000	68.765211  
7026.000000	69.215583  
7025.000000	69.617271  
7024.000000	69.950151  
7023.000000	70.169544  
7022.000000	70.224308  
7021.000000	70.059275  
7020.000000	69.642591  
7019.000000	68.969082  
7018.000000	68.078970  
7017.000000	67.043089  
7016.000000	65.955281  
7015.000000	64.913558  
7014.000000	64.001750  
7013.000000	63.282084  
7012.000000	62.787961  
7011.000000	62.525653  
7010.000000	62.478518  
7009.000000	62.612032  
7008.000000	62.881970  
7007.000000	63.235068  
7006.000000	63.616943  
7005.000000	63.979172  
7004.000000	64.283370  
7003.000000	64.503097  
7002.000000	64.622020  
7001.000000	64.632344  
7000.000000	64.530682  
6999.000000	64.318060  
6998.000000	63.998150  
6997.000000	63.581681  
6996.000000	63.086843  
6995.000000	62.541413  
6994.000000	61.984062  
