PE IR       SPECTRUM    SPECTRUM    ASCII       PEDS        1.60        
  -1
C-99EE~1.ASC
17/05/02
11:13:31.00
17/05/02
11:13:31.00
tln
$C-4040-8_t0005$<tbV0>[-7.5,-13.0,8.0,0.0,22,1,0]
370.000000
64









2002,4.07    
MIRTGS : RIGHTBACK : INTERNAL 2
MIR : ON : INTERNAL 2
OPTKBR

0.200000
8
8.000000
FILLER
RATIO
SPECTRUM
UNLOCKED 256

DOUBLE
64
COMBINED
1
0
0


1.000000
RATIO


1
0
TRUE
51149
0
LEFT NOT FITTED RIGHT NOT FITTED 0
NONE
NONE
15600
12.000000
4.427000
51148
TRUE
1 0 8 72 0 0 0 0 

15798.010000






#HDR
-1
-1
#GR
CM-1
%T
0.00002384185791015625
0.0
7800.000000
-1.000000
7431
8
77.096080
35.784649
#DATA
7800.000000	63.657617 
7799.000000	63.861942 
7798.000000	64.444923 
7797.000000	65.215063 
7796.000000	65.995597 
7795.000000	66.638994 
7794.000000	67.068958 
7793.000000	67.274093 
7792.000000	67.277908 
7791.000000	67.112255 
7790.000000	66.809225 
7789.000000	66.384768 
7788.000000	65.841269 
7787.000000	65.173387 
7786.000000	64.380478 
7785.000000	63.479161 
7784.000000	62.531137 
7783.000000	61.623120 
7782.000000	60.846948 
7781.000000	60.277676 
7780.000000	59.951090 
7779.000000	59.860324 
7778.000000	59.935331 
7777.000000	60.094165 
7776.000000	60.255455 
7775.000000	60.384392 
7774.000000	60.501766 
7773.000000	60.678696 
7772.000000	60.998606 
7771.000000	61.541938 
7770.000000	62.347388 
7769.000000	63.402318 
7768.000000	64.633536 
7767.000000	65.937972 
7766.000000	67.205452 
7765.000000	68.352746 
7764.000000	69.339513 
7763.000000	70.170593 
7762.000000	70.880556 
7761.000000	71.514368 
7760.000000	72.098207 
7759.000000	72.628355 
7758.000000	73.058748 
7757.000000	73.323798 
7756.000000	73.344492 
7755.000000	73.077178 
7754.000000	72.508120 
7753.000000	71.672201 
7752.000000	70.639586 
7751.000000	69.505405 
7750.000000	68.374419 
7749.000000	67.340278 
7748.000000	66.479587 
7747.000000	65.845394 
7746.000000	65.463662 
7745.000000	65.336227 
7744.000000	65.440726 
7743.000000	65.731668 
7742.000000	66.154742 
7741.000000	66.652250 
7740.000000	67.163825 
7739.000000	67.628574 
7738.000000	67.988204 
7737.000000	68.191957 
7736.000000	68.203711 
7735.000000	68.007946 
7734.000000	67.620944 
7733.000000	67.085623 
7732.000000	66.465544 
7731.000000	65.828728 
7730.000000	65.241336 
7729.000000	64.749598 
7728.000000	64.367747 
7727.000000	64.085459 
7726.000000	63.875174 
7725.000000	63.710165 
7724.000000	63.575625 
7723.000000	63.476204 
7722.000000	63.436841 
7721.000000	63.485288 
7720.000000	63.642430 
7719.000000	63.895273 
7718.000000	64.183068 
7717.000000	64.418077 
7716.000000	64.501118 
7715.000000	64.364981 
7714.000000	63.994359 
7713.000000	63.459253 
7712.000000	62.903356 
7711.000000	62.512612 
7710.000000	62.461757 
7709.000000	62.862420 
7708.000000	63.718914 
7707.000000	64.914059 
7706.000000	66.227006 
7705.000000	67.381906 
7704.000000	68.115854 
7703.000000	68.248224 
7702.000000	67.726016 
7701.000000	66.639184 
7700.000000	65.195202 
7699.000000	63.656568 
7698.000000	62.284374 
7697.000000	61.271333 
7696.000000	60.715222 
7695.000000	60.609698 
7694.000000	60.868358 
7693.000000	61.369013 
7692.000000	61.993074 
7691.000000	62.658524 
7690.000000	63.336825 
7689.000000	64.037084 
7688.000000	64.802646 
7687.000000	65.673041 
7686.000000	66.668987 
7685.000000	67.767763 
7684.000000	68.903779 
7683.000000	69.974207 
7682.000000	70.862627 
7681.000000	71.461915 
7680.000000	71.700143 
7679.000000	71.555447 
7678.000000	71.063518 
7677.000000	70.309829 
7676.000000	69.413447 
7675.000000	68.504166 
7674.000000	67.704248 
7673.000000	67.103242 
7672.000000	66.757869 
7671.000000	66.673827 
7670.000000	66.819906 
7669.000000	67.127490 
7668.000000	67.506837 
7667.000000	67.867064 
7666.000000	68.126869 
7665.000000	68.240189 
7664.000000	68.194890 
7663.000000	68.022918 
7662.000000	67.783141 
7661.000000	67.552328 
7660.000000	67.403459 
7659.000000	67.384123 
7658.000000	67.503571 
7657.000000	67.730855 
7656.000000	68.003487 
7655.000000	68.240284 
7654.000000	68.364334 
7653.000000	68.322610 
7652.000000	68.103027 
7651.000000	67.732810 
7650.000000	67.277574 
7649.000000	66.825389 
7648.000000	66.466712 
7647.000000	66.274499 
7646.000000	66.283607 
7645.000000	66.489744 
7644.000000	66.840434 
7643.000000	67.259621 
7642.000000	67.648243 
7641.000000	67.905664 
7640.000000	67.950463 
7639.000000	67.734289 
7638.000000	67.258834 
7637.000000	66.571235 
7636.000000	65.762972 
7635.000000	64.948463 
7634.000000	64.245915 
7633.000000	63.753223 
7632.000000	63.527822 
7631.000000	63.577532 
7630.000000	63.864636 
7629.000000	64.318919 
7628.000000	64.855122 
7627.000000	65.393471 
7626.000000	65.873932 
7625.000000	66.265368 
7624.000000	66.559982 
7623.000000	66.768932 
7622.000000	66.910266 
7621.000000	66.999673 
7620.000000	67.041277 
7619.000000	67.029380 
7618.000000	66.956686 
7617.000000	66.819310 
7616.000000	66.628646 
7615.000000	66.410541 
7614.000000	66.205835 
7613.000000	66.059827 
7612.000000	66.016030 
7611.000000	66.097426 
7610.000000	66.298675 
7609.000000	66.585135 
7608.000000	66.901206 
7607.000000	67.180037 
7606.000000	67.359757 
7605.000000	67.397379 
7604.000000	67.279076 
7603.000000	67.018914 
7602.000000	66.654396 
7601.000000	66.237688 
7600.000000	65.821933 
7599.000000	65.454626 
7598.000000	65.163230 
7597.000000	64.957475 
7596.000000	64.820313 
7595.000000	64.716768 
7594.000000	64.597630 
7593.000000	64.405465 
7592.000000	64.097070 
7591.000000	63.646984 
7590.000000	63.072514 
7589.000000	62.421703 
7588.000000	61.785316 
7587.000000	61.270427 
7586.000000	60.989904 
7585.000000	61.033320 
7584.000000	61.445569 
7583.000000	62.212514 
7582.000000	63.255548 
7581.000000	64.444804 
7580.000000	65.618896 
7579.000000	66.616463 
7578.000000	67.305970 
7577.000000	67.610144 
7576.000000	67.518925 
7575.000000	67.086529 
7574.000000	66.418910 
7573.000000	65.646600 
7572.000000	64.897274 
7571.000000	64.268016 
7570.000000	63.819742 
7569.000000	63.566422 
7568.000000	63.482213 
7567.000000	63.516736 
7566.000000	63.615989 
7565.000000	63.741040 
7564.000000	63.871765 
7563.000000	64.016938 
7562.000000	64.196276 
7561.000000	64.439439 
7560.000000	64.766907 
7559.000000	65.181207 
7558.000000	65.657758 
7557.000000	66.148185 
7556.000000	66.592526 
7555.000000	66.927790 
7554.000000	67.104458 
7553.000000	67.098236 
7552.000000	66.917943 
7551.000000	66.604256 
7550.000000	66.222095 
7549.000000	65.851140 
7548.000000	65.570449 
7547.000000	65.444779 
7546.000000	65.513277 
7545.000000	65.787076 
7544.000000	66.247296 
7543.000000	66.854166 
7542.000000	67.550849 
7541.000000	68.271374 
7540.000000	68.948268 
7539.000000	69.524288 
7538.000000	69.952702 
7537.000000	70.204949 
7536.000000	70.262694 
7535.000000	70.125436 
7534.000000	69.796061 
7533.000000	69.289636 
7532.000000	68.621110 
7531.000000	67.811775 
7530.000000	66.890072 
7529.000000	65.899205 
7528.000000	64.896059 
7527.000000	63.949346 
7526.000000	63.135361 
7525.000000	62.527751 
7524.000000	62.185239 
7523.000000	62.139248 
7522.000000	62.392807 
7521.000000	62.918257 
7520.000000	63.659167 
7519.000000	64.539027 
7518.000000	65.472793 
7517.000000	66.378641 
7516.000000	67.185282 
7515.000000	67.838859 
7514.000000	68.306636 
7513.000000	68.573093 
7512.000000	68.642210 
7511.000000	68.524551 
7510.000000	68.241500 
7509.000000	67.811918 
7508.000000	67.261743 
7507.000000	66.614484 
7506.000000	65.902948 
7505.000000	65.161991 
7504.000000	64.433097 
7503.000000	63.760137 
7502.000000	63.187050 
7501.000000	62.752413 
7500.000000	62.483644 
7499.000000	62.390828 
7498.000000	62.461686 
7497.000000	62.666201 
7496.000000	62.960553 
7495.000000	63.287901 
7494.000000	63.586902 
7493.000000	63.803648 
7492.000000	63.901329 
7491.000000	63.861870 
7490.000000	63.691902 
7489.000000	63.420391 
7488.000000	63.095068 
7487.000000	62.775015 
7486.000000	62.517333 
7485.000000	62.369513 
7484.000000	62.354207 
7483.000000	62.472677 
7482.000000	62.693667 
7481.000000	62.965083 
7480.000000	63.217282 
7479.000000	63.378167 
7478.000000	63.389372 
7477.000000	63.216018 
7476.000000	62.861609 
7475.000000	62.362122 
7474.000000	61.790537 
7473.000000	61.239027 
7472.000000	60.806965 
7471.000000	60.579109 
7470.000000	60.611724 
7469.000000	60.921072 
7468.000000	61.483621 
7467.000000	62.243008 
7466.000000	63.118362 
7465.000000	64.022660 
7464.000000	64.882397 
7463.000000	65.648484 
7462.000000	66.297006 
7461.000000	66.826057 
7460.000000	67.247986 
7459.000000	67.576146 
7458.000000	67.820453 
7457.000000	67.977428 
7456.000000	68.036818 
7455.000000	67.982721 
7454.000000	67.814326 
7453.000000	67.541289 
7452.000000	67.194390 
7451.000000	66.815447 
7450.000000	66.457486 
7449.000000	66.165041 
7448.000000	65.968322 
7447.000000	65.870261 
7446.000000	65.850257 
7445.000000	65.860533 
7444.000000	65.839457 
7443.000000	65.723180 
7442.000000	65.462589 
7441.000000	65.026831 
7440.000000	64.412021 
7439.000000	63.641285 
7438.000000	62.764000 
7437.000000	61.846995 
7436.000000	60.967731 
7435.000000	60.198307 
7434.000000	59.600329 
7433.000000	59.220147 
7432.000000	59.082722 
7431.000000	59.182596 
7430.000000	59.489870 
7429.000000	59.952783 
7428.000000	60.509347 
7427.000000	61.084866 
7426.000000	61.616516 
7425.000000	62.054276 
7424.000000	62.376904 
7423.000000	62.584781 
7422.000000	62.704563 
7421.000000	62.774729 
7420.000000	62.842273 
7419.000000	62.948346 
7418.000000	63.127779 
7417.000000	63.403511 
7416.000000	63.784694 
7415.000000	64.266538 
7414.000000	64.823484 
7413.000000	65.412592 
7412.000000	65.976142 
7411.000000	66.451621 
7410.000000	66.785335 
7409.000000	66.940712 
7408.000000	66.911196 
7407.000000	66.715073 
7406.000000	66.388821 
7405.000000	65.976786 
7404.000000	65.525937 
7403.000000	65.075063 
7402.000000	64.652729 
7401.000000	64.275097 
7400.000000	63.956618 
7399.000000	63.703107 
7398.000000	63.519716 
7397.000000	63.402557 
7396.000000	63.340115 
7395.000000	63.309955 
7394.000000	63.279938 
7393.000000	63.213801 
7392.000000	63.073921 
7391.000000	62.839555 
7390.000000	62.512421 
7389.000000	62.117624 
7388.000000	61.697816 
7387.000000	61.298751 
7386.000000	60.957622 
7385.000000	60.689520 
7384.000000	60.487055 
7383.000000	60.327816 
7382.000000	60.185480 
7381.000000	60.042476 
7380.000000	59.897875 
7379.000000	59.766745 
7378.000000	59.677672 
7377.000000	59.655499 
7376.000000	59.719586 
7375.000000	59.869074 
7374.000000	60.090374 
7373.000000	60.358214 
7372.000000	60.644745 
7371.000000	60.926938 
7370.000000	61.189198 
7369.000000	61.429786 
7368.000000	61.647939 
7367.000000	61.838722 
7366.000000	61.988806 
7365.000000	62.075972 
7364.000000	62.077379 
7363.000000	61.976885 
7362.000000	61.778616 
7361.000000	61.511540 
7360.000000	61.222982 
7359.000000	60.969948 
7358.000000	60.804986 
7357.000000	60.764765 
7356.000000	60.860633 
7355.000000	61.078000 
7354.000000	61.383819 
7353.000000	61.735033 
7352.000000	62.087869 
7351.000000	62.408375 
7350.000000	62.676572 
7349.000000	62.889003 
7348.000000	63.053774 
7347.000000	63.184976 
7346.000000	63.296031 
7345.000000	63.393068 
7344.000000	63.472342 
7343.000000	63.522577 
7342.000000	63.532662 
7341.000000	63.495850 
7340.000000	63.416767 
7339.000000	63.311696 
7338.000000	63.207197 
7337.000000	63.134503 
7336.000000	63.122534 
7335.000000	63.188886 
7334.000000	63.334512 
7333.000000	63.543772 
7332.000000	63.787889 
7331.000000	64.030122 
7330.000000	64.234924 
7329.000000	64.378643 
7328.000000	64.453744 
7327.000000	64.467620 
7326.000000	64.439392 
7325.000000	64.391326 
7324.000000	64.345049 
7323.000000	64.312410 
7322.000000	64.300084 
7321.000000	64.312291 
7320.000000	64.354109 
7319.000000	64.433884 
7318.000000	64.562296 
7317.000000	64.752030 
7316.000000	65.009379 
7315.000000	65.328264 
7314.000000	65.689277 
7313.000000	66.061210 
7312.000000	66.405463 
7311.000000	66.684913 
7310.000000	66.868638 
7309.000000	66.938567 
7308.000000	66.890788 
7307.000000	66.736030 
7306.000000	66.489028 
7305.000000	66.164541 
7304.000000	65.775036 
7303.000000	65.330672 
7302.000000	64.841747 
7301.000000	64.322423 
7300.000000	63.796830 
7299.000000	63.297104 
7298.000000	62.861013 
7297.000000	62.524080 
7296.000000	62.308287 
7295.000000	62.218666 
7294.000000	62.240624 
7293.000000	62.342667 
7292.000000	62.478852 
7291.000000	62.602114 
7290.000000	62.670540 
7289.000000	62.660408 
7288.000000	62.563443 
7287.000000	62.397217 
7286.000000	62.196016 
7285.000000	62.008523 
7284.000000	61.882519 
7283.000000	61.860895 
7282.000000	61.971211 
7281.000000	62.222194 
7280.000000	62.602162 
7279.000000	63.082194 
7278.000000	63.622140 
7277.000000	64.177918 
7276.000000	64.708256 
7275.000000	65.180587 
7274.000000	65.571594 
7273.000000	65.871453 
7272.000000	66.076207 
7271.000000	66.183972 
7270.000000	66.189742 
7269.000000	66.089749 
7268.000000	65.879487 
7267.000000	65.563678 
7266.000000	65.154528 
7265.000000	64.682626 
7264.000000	64.185976 
7263.000000	63.706946 
7262.000000	63.284039 
7261.000000	62.945318 
7260.000000	62.706112 
7259.000000	62.567305 
7258.000000	62.519693 
7257.000000	62.546896 
7256.000000	62.631535 
7255.000000	62.757420 
7254.000000	62.912225 
7253.000000	63.085985 
7252.000000	63.272571 
7251.000000	63.466501 
7250.000000	63.662862 
7249.000000	63.854074 
7248.000000	64.032077 
7247.000000	64.184904 
7246.000000	64.297914 
7245.000000	64.352679 
7244.000000	64.333152 
7243.000000	64.227056 
7242.000000	64.026594 
7241.000000	63.736534 
7240.000000	63.376760 
7239.000000	62.983608 
7238.000000	62.606430 
7237.000000	62.298965 
7236.000000	62.107801 
7235.000000	62.063694 
7234.000000	62.174940 
7233.000000	62.424468 
7232.000000	62.771344 
7231.000000	63.162016 
7230.000000	63.541078 
7229.000000	63.862347 
7228.000000	64.095306 
7227.000000	64.232563 
7226.000000	64.286947 
7225.000000	64.286971 
7224.000000	64.265465 
7223.000000	64.251947 
7222.000000	64.261579 
7221.000000	64.292526 
7220.000000	64.323616 
7219.000000	64.322972 
7218.000000	64.255619 
7217.000000	64.091920 
7216.000000	63.820743 
7215.000000	63.453364 
7214.000000	63.028645 
7213.000000	62.604451 
7212.000000	62.249445 
7211.000000	62.026214 
7210.000000	61.978316 
7209.000000	62.119984 
7208.000000	62.431359 
7207.000000	62.859964 
7206.000000	63.336038 
7205.000000	63.786554 
7204.000000	64.154291 
7203.000000	64.406585 
7202.000000	64.544463 
7201.000000	64.597105 
7200.000000	64.609217 
7199.000000	64.624929 
7198.000000	64.674520 
7197.000000	64.766812 
7196.000000	64.886856 
7195.000000	65.005278 
7194.000000	65.096902 
7193.000000	65.151667 
7192.000000	65.184354 
7191.000000	65.228819 
7190.000000	65.329885 
7189.000000	65.522861 
7188.000000	65.819907 
7187.000000	66.197395 
7186.000000	66.599559 
7185.000000	66.945695 
7184.000000	67.154979 
7183.000000	67.160916 
7182.000000	66.933250 
7181.000000	66.482782 
7180.000000	65.864467 
7179.000000	65.158629 
7178.000000	64.451766 
7177.000000	63.819146 
7176.000000	63.310480 
7175.000000	62.944793 
7174.000000	62.713980 
7173.000000	62.588477 
7172.000000	62.530303 
7171.000000	62.498092 
7170.000000	62.457442 
7169.000000	62.378430 
7168.000000	62.241530 
7167.000000	62.039709 
7166.000000	61.780309 
7165.000000	61.481404 
7164.000000	61.169123 
7163.000000	60.873985 
7162.000000	60.623168 
7161.000000	60.433340 
7160.000000	60.309410 
7159.000000	60.241937 
7158.000000	60.216069 
7157.000000	60.211634 
7156.000000	60.218191 
7155.000000	60.235238 
7154.000000	60.278344 
7153.000000	60.371184 
7152.000000	60.540556 
7151.000000	60.803008 
7150.000000	61.160206 
7149.000000	61.593246 
7148.000000	62.065577 
7147.000000	62.528181 
7146.000000	62.933921 
7145.000000	63.247895 
7144.000000	63.445949 
7143.000000	63.516807 
7142.000000	63.460731 
7141.000000	63.286662 
7140.000000	63.008022 
7139.000000	62.641763 
7138.000000	62.210440 
7137.000000	61.741995 
7136.000000	61.271739 
7135.000000	60.838508 
7134.000000	60.484361 
7133.000000	60.244345 
7132.000000	60.138201 
7131.000000	60.167503 
7130.000000	60.311675 
7129.000000	60.536670 
7128.000000	60.796594 
7127.000000	61.051058 
7126.000000	61.267542 
7125.000000	61.435103 
7124.000000	61.561298 
7123.000000	61.670351 
7122.000000	61.790227 
7121.000000	61.947584 
7120.000000	62.157607 
7119.000000	62.418961 
7118.000000	62.713050 
7117.000000	63.007020 
7116.000000	63.261508 
7115.000000	63.438320 
7114.000000	63.509654 
7113.000000	63.463616 
7112.000000	63.308405 
7111.000000	63.069391 
7110.000000	62.786960 
7109.000000	62.507653 
7108.000000	62.277579 
7107.000000	62.138175 
7106.000000	62.115812 
7105.000000	62.219142 
7104.000000	62.434267 
7103.000000	62.732219 
7102.000000	63.068199 
7101.000000	63.390588 
7100.000000	63.648438 
7099.000000	63.798761 
7098.000000	63.816070 
7097.000000	63.695096 
7096.000000	63.453865 
7095.000000	63.127827 
7094.000000	62.767148 
7093.000000	62.426948 
7092.000000	62.157511 
7091.000000	61.995482 
7090.000000	61.956667 
7089.000000	62.035036 
7088.000000	62.203931 
7087.000000	62.424826 
7086.000000	62.656354 
7085.000000	62.866449 
7084.000000	63.035225 
7083.000000	63.161420 
7082.000000	63.260245 
7081.000000	63.356637 
7080.000000	63.476395 
7079.000000	63.634181 
7078.000000	63.828587 
7077.000000	64.037942 
7076.000000	64.228510 
7075.000000	64.359569 
7074.000000	64.397311 
7073.000000	64.322996 
7072.000000	64.141297 
7071.000000	63.879489 
7070.000000	63.581538 
7069.000000	63.299489 
7068.000000	63.080763 
7067.000000	62.960577 
7066.000000	62.954998 
7065.000000	63.059949 
7064.000000	63.254165 
7063.000000	63.502597 
7062.000000	63.764142 
7061.000000	63.998579 
7060.000000	64.173460 
7059.000000	64.266562 
7058.000000	64.269685 
7057.000000	64.185237 
7056.000000	64.026665 
7055.000000	63.820099 
7054.000000	63.596439 
7053.000000	63.385844 
7052.000000	63.211202 
7051.000000	63.087201 
7050.000000	63.017010 
7049.000000	62.994432 
7048.000000	63.007593 
7047.000000	63.040471 
7046.000000	63.082313 
7045.000000	63.129353 
7044.000000	63.186860 
7043.000000	63.265323 
7042.000000	63.376069 
7041.000000	63.524174 
7040.000000	63.706970 
7039.000000	63.911509 
7038.000000	64.119911 
7037.000000	64.312505 
7036.000000	64.474511 
7035.000000	64.596271 
7034.000000	64.676594 
7033.000000	64.714789 
7032.000000	64.701581 
7031.000000	64.614653 
7030.000000	64.417099 
7029.000000	64.070510 
7028.000000	63.546252 
7027.000000	62.847876 
7026.000000	62.015581 
7025.000000	61.135935 
7024.000000	60.329222 
7023.000000	59.728884 
7022.000000	59.452867 
7021.000000	59.572672 
7020.000000	60.091662 
7019.000000	60.939002 
7018.000000	61.979269 
7017.000000	63.043498 
7016.000000	63.963985 
7015.000000	64.611458 
7014.000000	64.918231 
7013.000000	64.888978 
7012.000000	64.589405 
7011.000000	64.129209 
7010.000000	63.629555 
7009.000000	63.203907 
7008.000000	62.931871 
7007.000000	62.855887 
7006.000000	62.973165 
7005.000000	63.239431 
7004.000000	63.580322 
7003.000000	63.908457 
7002.000000	64.145088 
7001.000000	64.232683 
7000.000000	64.152002 
6999.000000	63.919997 
6998.000000	63.589167 
6997.000000	63.230729 
6996.000000	62.918686 
6995.000000	62.711739 
6994.000000	62.639403 
6993.000000	62.698817 
6992.000000	62.855768 
6991.000000	63.059186 
6990.000000	63.253140 
6989.000000	63.392567 
6988.000000	63.453745 
6987.000000	63.436555 
6986.000000	63.364124 
6985.000000	63.272905 
6984.000000	63.201284 
6983.000000	63.176774 
6982.000000	63.220906 
6981.000000	63.345527 
6980.000000	63.557076 
6979.000000	63.855385 
6978.000000	64.235305 
6977.000000	64.682197 
6976.000000	65.172410 
6975.000000	65.668582 
6974.000000	66.122198 
6973.000000	66.476559 
6972.000000	66.677832 
6971.000000	66.683888 
6970.000000	66.476726 
6969.000000	66.066670 
6968.000000	65.496754 
6967.000000	64.833140 
6966.000000	64.154291 
6965.000000	63.537669 
6964.000000	63.048100 
6963.000000	62.726402 
6962.000000	62.586903 
6961.000000	62.615704 
6960.000000	62.778973 
6959.000000	63.026714 
