PE IR       SPECTRUM    SPECTRUM    ASCII       PEDS        1.60        
  -1
C-9A6E~1.ASC
17/05/02
13:06:38.00
17/05/02
13:06:38.00
tln
$C-4040-8_t0026$<tbV0>[7.5,7.0,8.0,0.0,22,1,0]
370.000000
64









2002,4.07    
MIRTGS : RIGHTBACK : INTERNAL 2
MIR : ON : INTERNAL 2
OPTKBR

0.200000
8
8.000000
FILLER
RATIO
SPECTRUM
UNLOCKED 256

DOUBLE
64
COMBINED
1
0
0


1.000000
RATIO


1
0
TRUE
51149
0
LEFT NOT FITTED RIGHT NOT FITTED 0
NONE
NONE
15600
12.000000
4.427000
51148
TRUE
1 0 8 72 0 0 0 0 

15798.010000






#HDR
-1
-1
#GR
CM-1
%T
0.00002384185791015625
0.0
7800.000000
-1.000000
7431
8
79.033470
36.098194
#DATA
7800.000000	71.985912 
7799.000000	73.196625 
7798.000000	74.348306 
7797.000000	75.204825 
7796.000000	75.560450 
7795.000000	75.294494 
7794.000000	74.420142 
7793.000000	73.092579 
7792.000000	71.545839 
7791.000000	70.038533 
7790.000000	68.785810 
7789.000000	67.919635 
7788.000000	67.476129 
7787.000000	67.409515 
7786.000000	67.641878 
7785.000000	68.088674 
7784.000000	68.688726 
7783.000000	69.407510 
7782.000000	70.218181 
7781.000000	71.093559 
7780.000000	71.981406 
7779.000000	72.801661 
7778.000000	73.458099 
7777.000000	73.839688 
7776.000000	73.848772 
7775.000000	73.416709 
7774.000000	72.535467 
7773.000000	71.254873 
7772.000000	69.686770 
7771.000000	67.980575 
7770.000000	66.303467 
7769.000000	64.803600 
7768.000000	63.587498 
7767.000000	62.710404 
7766.000000	62.176322 
7765.000000	61.949539 
7764.000000	61.970710 
7763.000000	62.167477 
7762.000000	62.471079 
7761.000000	62.812447 
7760.000000	63.138628 
7759.000000	63.403630 
7758.000000	63.586425 
7757.000000	63.681364 
7756.000000	63.709330 
7755.000000	63.715219 
7754.000000	63.753318 
7753.000000	63.878226 
7752.000000	64.120388 
7751.000000	64.474749 
7750.000000	64.899873 
7749.000000	65.325808 
7748.000000	65.678811 
7747.000000	65.894699 
7746.000000	65.956592 
7745.000000	65.902018 
7744.000000	65.820908 
7743.000000	65.831851 
7742.000000	66.049742 
7741.000000	66.549944 
7740.000000	67.344260 
7739.000000	68.373584 
7738.000000	69.506645 
7737.000000	70.570921 
7736.000000	71.403145 
7735.000000	71.889925 
7734.000000	71.993565 
7733.000000	71.759057 
7732.000000	71.304273 
7731.000000	70.781373 
7730.000000	70.333814 
7729.000000	70.057463 
7728.000000	69.981837 
7727.000000	70.066070 
7726.000000	70.236539 
7725.000000	70.394945 
7724.000000	70.472741 
7723.000000	70.419478 
7722.000000	70.218062 
7721.000000	69.870781 
7720.000000	69.378948 
7719.000000	68.755865 
7718.000000	68.017911 
7717.000000	67.200326 
7716.000000	66.355800 
7715.000000	65.561842 
7714.000000	64.912247 
7713.000000	64.502787 
7712.000000	64.410567 
7711.000000	64.682531 
7710.000000	65.320229 
7709.000000	66.275382 
7708.000000	67.452812 
7707.000000	68.719959 
7706.000000	69.931101 
7705.000000	70.944809 
7704.000000	71.655654 
7703.000000	72.015333 
7702.000000	72.038340 
7701.000000	71.796202 
7700.000000	71.392822 
7699.000000	70.944285 
7698.000000	70.541954 
7697.000000	70.247006 
7696.000000	70.066213 
7695.000000	69.968795 
7694.000000	69.891309 
7693.000000	69.770216 
7692.000000	69.556498 
7691.000000	69.234061 
7690.000000	68.825268 
7689.000000	68.382596 
7688.000000	67.977714 
7687.000000	67.677998 
7686.000000	67.537188 
7685.000000	67.580342 
7684.000000	67.807722 
7683.000000	68.195009 
7682.000000	68.705558 
7681.000000	69.294238 
7680.000000	69.911146 
7679.000000	70.503497 
7678.000000	71.015930 
7677.000000	71.394777 
7676.000000	71.594595 
7675.000000	71.583867 
7674.000000	71.351504 
7673.000000	70.910692 
7672.000000	70.305609 
7671.000000	69.600653 
7670.000000	68.873763 
7669.000000	68.201637 
7668.000000	67.650294 
7667.000000	67.263412 
7666.000000	67.057657 
7665.000000	67.024731 
7664.000000	67.139315 
7663.000000	67.361831 
7662.000000	67.646384 
7661.000000	67.946052 
7660.000000	68.217563 
7659.000000	68.424844 
7658.000000	68.541455 
7657.000000	68.557643 
7656.000000	68.481111 
7655.000000	68.343019 
7654.000000	68.190813 
7653.000000	68.077588 
7652.000000	68.049120 
7651.000000	68.134522 
7650.000000	68.336701 
7649.000000	68.635344 
7648.000000	68.987131 
7647.000000	69.337463 
7646.000000	69.629049 
7645.000000	69.821786 
7644.000000	69.888257 
7643.000000	69.826626 
7642.000000	69.640350 
7641.000000	69.333720 
7640.000000	68.904376 
7639.000000	68.346190 
7638.000000	67.654466 
7637.000000	66.834712 
7636.000000	65.915966 
7635.000000	64.957785 
7634.000000	64.041376 
7633.000000	63.257336 
7632.000000	62.691044 
7631.000000	62.403607 
7630.000000	62.433123 
7629.000000	62.784481 
7628.000000	63.430523 
7627.000000	64.310145 
7626.000000	65.329861 
7625.000000	66.374397 
7624.000000	67.313218 
7623.000000	68.027544 
7622.000000	68.424367 
7621.000000	68.462657 
7620.000000	68.161988 
7619.000000	67.601847 
7618.000000	66.904783 
7617.000000	66.212058 
7616.000000	65.657997 
7615.000000	65.340900 
7614.000000	65.311264 
7613.000000	65.560436 
7612.000000	66.037750 
7611.000000	66.655230 
7610.000000	67.311453 
7609.000000	67.911982 
7608.000000	68.389129 
7607.000000	68.703889 
7606.000000	68.843722 
7605.000000	68.822932 
7604.000000	68.672823 
7603.000000	68.430352 
7602.000000	68.130779 
7601.000000	67.810654 
7600.000000	67.505764 
7599.000000	67.258358 
7598.000000	67.110967 
7597.000000	67.098951 
7596.000000	67.241525 
7595.000000	67.540240 
7594.000000	67.972826 
7593.000000	68.480968 
7592.000000	68.994450 
7591.000000	69.445061 
7590.000000	69.787859 
7589.000000	70.004987 
7588.000000	70.117688 
7587.000000	70.173668 
7586.000000	70.242023 
7585.000000	70.389604 
7584.000000	70.671057 
7583.000000	71.111440 
7582.000000	71.709346 
7581.000000	72.439074 
7580.000000	73.258733 
7579.000000	74.121451 
7578.000000	74.977207 
7577.000000	75.777244 
7576.000000	76.471114 
7575.000000	77.004837 
7574.000000	77.318406 
7573.000000	77.347517 
7572.000000	77.035641 
7571.000000	76.342511 
7570.000000	75.266051 
7569.000000	73.844933 
7568.000000	72.161960 
7567.000000	70.336604 
7566.000000	68.510389 
7565.000000	66.831111 
7564.000000	65.430879 
7563.000000	64.411759 
7562.000000	63.826704 
7561.000000	63.681817 
7560.000000	63.932037 
7559.000000	64.498853 
7558.000000	65.272307 
7557.000000	66.142320 
7556.000000	67.005705 
7555.000000	67.782354 
7554.000000	68.410634 
7553.000000	68.856287 
7552.000000	69.104433 
7551.000000	69.154334 
7550.000000	69.012498 
7549.000000	68.695712 
7548.000000	68.230795 
7547.000000	67.657208 
7546.000000	67.025661 
7545.000000	66.401886 
7544.000000	65.854430 
7543.000000	65.445804 
7542.000000	65.217208 
7541.000000	65.174603 
7540.000000	65.291905 
7539.000000	65.511131 
7538.000000	65.767765 
7537.000000	65.997242 
7536.000000	66.165685 
7535.000000	66.277933 
7534.000000	66.373062 
7533.000000	66.505765 
7532.000000	66.725301 
7531.000000	67.058372 
7530.000000	67.486000 
7529.000000	67.943406 
7528.000000	68.331980 
7527.000000	68.545293 
7526.000000	68.501615 
7525.000000	68.172168 
7524.000000	67.588424 
7523.000000	66.838145 
7522.000000	66.039657 
7521.000000	65.312910 
7520.000000	64.745306 
7519.000000	64.374923 
7518.000000	64.189624 
7517.000000	64.138960 
7516.000000	64.161300 
7515.000000	64.203834 
7514.000000	64.234614 
7513.000000	64.252638 
7512.000000	64.275813 
7511.000000	64.337110 
7510.000000	64.461851 
7509.000000	64.661192 
7508.000000	64.924550 
7507.000000	65.216851 
7506.000000	65.487432 
7505.000000	65.678858 
7504.000000	65.742111 
7503.000000	65.650153 
7502.000000	65.409374 
7501.000000	65.054106 
7500.000000	64.639163 
7499.000000	64.225840 
7498.000000	63.867306 
7497.000000	63.599991 
7496.000000	63.438558 
7495.000000	63.377594 
7494.000000	63.397479 
7493.000000	63.476872 
7492.000000	63.599228 
7491.000000	63.750243 
7490.000000	63.921356 
7489.000000	64.104413 
7488.000000	64.293909 
7487.000000	64.479470 
7486.000000	64.653134 
7485.000000	64.808201 
7484.000000	64.943909 
7483.000000	65.073537 
7482.000000	65.210700 
7481.000000	65.372657 
7480.000000	65.558123 
7479.000000	65.748262 
7478.000000	65.898966 
7477.000000	65.950250 
7476.000000	65.843152 
7475.000000	65.535330 
7474.000000	65.026807 
7473.000000	64.365768 
7472.000000	63.651251 
7471.000000	63.013410 
7470.000000	62.590575 
7469.000000	62.496232 
7468.000000	62.792515 
7467.000000	63.471794 
7466.000000	64.459919 
7465.000000	65.627598 
7464.000000	66.815328 
7463.000000	67.862534 
7462.000000	68.638086 
7461.000000	69.059896 
7460.000000	69.103527 
7459.000000	68.799328 
7458.000000	68.215203 
7457.000000	67.442512 
7456.000000	66.579365 
7455.000000	65.715909 
7454.000000	64.928913 
7453.000000	64.275765 
7452.000000	63.803339 
7451.000000	63.540410 
7450.000000	63.502693 
7449.000000	63.687181 
7448.000000	64.069151 
7447.000000	64.605855 
7446.000000	65.234398 
7445.000000	65.888619 
7444.000000	66.503858 
7443.000000	67.034387 
7442.000000	67.456483 
7441.000000	67.774748 
7440.000000	68.013858 
7439.000000	68.209457 
7438.000000	68.392133 
7437.000000	68.580436 
7436.000000	68.769717 
7435.000000	68.936181 
7434.000000	69.038081 
7433.000000	69.038248 
7432.000000	68.905687 
7431.000000	68.628597 
7430.000000	68.214464 
7429.000000	67.692422 
7428.000000	67.106962 
7427.000000	66.505408 
7426.000000	65.938591 
7425.000000	65.449118 
7424.000000	65.075755 
7423.000000	64.850068 
7422.000000	64.794683 
7421.000000	64.919281 
7420.000000	65.217709 
7419.000000	65.666937 
7418.000000	66.220569 
7417.000000	66.811037 
7416.000000	67.356848 
7415.000000	67.773747 
7414.000000	67.989659 
7413.000000	67.956948 
7412.000000	67.661952 
7411.000000	67.126178 
7410.000000	66.400957 
7409.000000	65.557050 
7408.000000	64.671611 
7407.000000	63.816118 
7406.000000	63.052105 
7405.000000	62.421607 
7404.000000	61.950349 
7403.000000	61.643028 
7402.000000	61.486554 
7401.000000	61.454415 
7400.000000	61.505079 
7399.000000	61.599254 
7398.000000	61.695051 
7397.000000	61.770367 
7396.000000	61.813879 
7395.000000	61.840987 
7394.000000	61.880517 
7393.000000	61.975193 
7392.000000	62.165975 
7391.000000	62.480163 
7390.000000	62.919235 
7389.000000	63.460135 
7388.000000	64.058303 
7387.000000	64.660167 
7386.000000	65.213537 
7385.000000	65.682601 
7384.000000	66.050124 
7383.000000	66.311788 
7382.000000	66.471028 
7381.000000	66.531276 
7380.000000	66.493988 
7379.000000	66.360998 
7378.000000	66.137027 
7377.000000	65.842437 
7376.000000	65.506601 
7375.000000	65.172004 
7374.000000	64.879608 
7373.000000	64.664292 
7372.000000	64.542818 
7371.000000	64.509820 
7370.000000	64.541459 
7369.000000	64.596939 
7368.000000	64.640903 
7367.000000	64.652228 
7366.000000	64.636158 
7365.000000	64.619851 
7364.000000	64.650869 
7363.000000	64.780879 
7362.000000	65.052103 
7361.000000	65.481233 
7360.000000	66.060543 
7359.000000	66.755294 
7358.000000	67.515444 
7357.000000	68.280577 
7356.000000	68.989324 
7355.000000	69.582986 
7354.000000	70.014190 
7353.000000	70.245647 
7352.000000	70.255994 
7351.000000	70.035839 
7350.000000	69.597411 
7349.000000	68.964838 
7348.000000	68.180131 
7347.000000	67.291331 
7346.000000	66.359043 
7345.000000	65.440177 
7344.000000	64.586186 
7343.000000	63.836216 
7342.000000	63.216185 
7341.000000	62.738990 
7340.000000	62.405061 
7339.000000	62.206649 
7338.000000	62.127017 
7337.000000	62.147092 
7336.000000	62.244462 
7335.000000	62.398004 
7334.000000	62.586402 
7333.000000	62.802743 
7332.000000	63.053226 
7331.000000	63.356280 
7330.000000	63.734412 
7329.000000	64.207744 
7328.000000	64.781832 
7327.000000	65.437507 
7326.000000	66.130423 
7325.000000	66.799211 
7324.000000	67.376542 
7323.000000	67.804980 
7322.000000	68.050289 
7321.000000	68.113231 
7320.000000	68.025922 
7319.000000	67.850255 
7318.000000	67.654347 
7317.000000	67.497324 
7316.000000	67.413163 
7315.000000	67.410516 
7314.000000	67.467498 
7313.000000	67.544960 
7312.000000	67.598104 
7311.000000	67.597246 
7310.000000	67.525553 
7309.000000	67.383909 
7308.000000	67.185640 
7307.000000	66.950464 
7306.000000	66.697382 
7305.000000	66.439986 
7304.000000	66.185808 
7303.000000	65.937495 
7302.000000	65.699315 
7301.000000	65.478897 
7300.000000	65.284943 
7299.000000	65.128254 
7298.000000	65.019488 
7297.000000	64.968323 
7296.000000	64.973282 
7295.000000	65.028548 
7294.000000	65.125489 
7293.000000	65.254688 
7292.000000	65.406656 
7291.000000	65.571880 
7290.000000	65.740370 
7289.000000	65.900492 
7288.000000	66.036987 
7287.000000	66.134858 
7286.000000	66.179490 
7285.000000	66.165614 
7284.000000	66.099834 
7283.000000	66.001844 
7282.000000	65.901160 
7281.000000	65.830087 
7280.000000	65.815472 
7279.000000	65.869164 
7278.000000	65.983319 
7277.000000	66.128540 
7276.000000	66.259574 
7275.000000	66.326904 
7274.000000	66.288638 
7273.000000	66.121149 
7272.000000	65.825986 
7271.000000	65.428614 
7270.000000	64.975690 
7269.000000	64.518976 
7268.000000	64.112401 
7267.000000	63.800168 
7266.000000	63.614249 
7265.000000	63.570356 
7264.000000	63.668632 
7263.000000	63.894319 
7262.000000	64.222574 
7261.000000	64.622426 
7260.000000	65.059447 
7259.000000	65.496468 
7258.000000	65.898108 
7257.000000	66.232943 
7256.000000	66.473174 
7255.000000	66.596436 
7254.000000	66.588568 
7253.000000	66.445803 
7252.000000	66.175651 
7251.000000	65.795850 
7250.000000	65.334653 
7249.000000	64.824533 
7248.000000	64.297652 
7247.000000	63.778352 
7246.000000	63.282060 
7245.000000	62.813043 
7244.000000	62.364363 
7243.000000	61.927103 
7242.000000	61.491131 
7241.000000	61.061811 
7240.000000	60.653853 
7239.000000	60.305213 
7238.000000	60.060000 
7237.000000	59.973001 
7236.000000	60.087347 
7235.000000	60.431671 
7234.000000	61.003088 
7233.000000	61.769700 
7232.000000	62.670612 
7231.000000	63.624238 
7230.000000	64.539408 
7229.000000	65.331840 
7228.000000	65.937519 
7227.000000	66.320228 
7226.000000	66.474413 
7225.000000	66.423249 
7224.000000	66.210985 
7223.000000	65.893816 
7222.000000	65.528869 
7221.000000	65.168380 
7220.000000	64.852023 
7219.000000	64.610910 
7218.000000	64.462924 
7217.000000	64.412975 
7216.000000	64.454936 
7215.000000	64.577746 
7214.000000	64.765667 
7213.000000	64.997625 
7212.000000	65.249633 
7211.000000	65.498852 
7210.000000	65.719628 
7209.000000	65.882134 
7208.000000	65.958285 
7207.000000	65.925002 
7206.000000	65.771651 
7205.000000	65.504360 
7204.000000	65.147161 
7203.000000	64.740800 
7202.000000	64.333343 
7201.000000	63.973069 
7200.000000	63.692784 
7199.000000	63.503885 
7198.000000	63.396811 
7197.000000	63.347029 
7196.000000	63.320279 
7195.000000	63.285779 
7194.000000	63.225769 
7193.000000	63.143706 
7192.000000	63.060450 
7191.000000	63.012385 
7190.000000	63.035750 
7189.000000	63.161778 
7188.000000	63.402342 
7187.000000	63.752102 
7186.000000	64.189410 
7185.000000	64.681506 
7184.000000	65.192294 
7183.000000	65.687036 
7182.000000	66.139698 
7181.000000	66.530561 
7180.000000	66.846656 
7179.000000	67.078447 
7178.000000	67.219209 
7177.000000	67.264342 
7176.000000	67.215347 
7175.000000	67.077922 
7174.000000	66.865038 
7173.000000	66.598272 
7172.000000	66.308641 
7171.000000	66.030859 
7170.000000	65.799641 
7169.000000	65.645575 
7168.000000	65.589714 
7167.000000	65.641188 
7166.000000	65.792942 
7165.000000	66.024255 
7164.000000	66.299152 
7163.000000	66.572356 
7162.000000	66.793227 
7161.000000	66.911315 
7160.000000	66.887617 
7159.000000	66.700911 
7158.000000	66.356158 
7157.000000	65.881299 
7156.000000	65.328764 
7155.000000	64.765977 
7154.000000	64.265847 
7153.000000	63.890862 
7152.000000	63.687324 
7151.000000	63.679075 
7150.000000	63.862514 
7149.000000	64.208126 
7148.000000	64.667129 
7147.000000	65.180659 
7146.000000	65.686845 
7145.000000	66.129469 
7144.000000	66.465234 
7143.000000	66.667747 
7142.000000	66.729354 
7141.000000	66.659021 
7140.000000	66.479778 
7139.000000	66.221642 
7138.000000	65.921616 
7137.000000	65.612912 
7136.000000	65.322351 
7135.000000	65.064430 
7134.000000	64.845943 
7133.000000	64.663624 
7132.000000	64.510083 
7131.000000	64.375734 
7130.000000	64.251899 
7129.000000	64.134240 
7128.000000	64.022207 
7127.000000	63.919568 
7126.000000	63.829469 
7125.000000	63.755202 
7124.000000	63.695955 
7123.000000	63.649177 
7122.000000	63.610267 
7121.000000	63.573622 
7120.000000	63.533496 
7119.000000	63.485479 
7118.000000	63.427376 
7117.000000	63.358259 
7116.000000	63.279819 
7115.000000	63.193440 
7114.000000	63.102936 
7113.000000	63.019418 
7112.000000	62.960362 
7111.000000	62.947368 
7110.000000	63.000583 
7109.000000	63.132858 
7108.000000	63.343548 
7107.000000	63.617563 
7106.000000	63.924074 
7105.000000	64.220046 
7104.000000	64.458942 
7103.000000	64.602947 
7102.000000	64.628362 
7101.000000	64.531016 
7100.000000	64.326620 
7099.000000	64.046955 
7098.000000	63.733482 
7097.000000	63.428854 
7096.000000	63.169431 
7095.000000	62.980079 
7094.000000	62.872290 
7093.000000	62.846016 
7092.000000	62.888908 
7091.000000	62.981081 
7090.000000	63.093304 
7089.000000	63.192796 
7088.000000	63.245487 
7087.000000	63.225245 
7086.000000	63.117671 
7085.000000	62.927961 
7084.000000	62.683224 
7083.000000	62.429475 
7082.000000	62.222099 
7081.000000	62.113142 
7080.000000	62.141847 
7079.000000	62.320327 
7078.000000	62.629508 
7077.000000	63.020420 
7076.000000	63.426446 
7075.000000	63.775348 
7074.000000	64.008641 
7073.000000	64.088582 
7072.000000	64.005827 
7071.000000	63.776159 
7070.000000	63.434314 
7069.000000	63.023066 
7068.000000	62.581706 
7067.000000	62.144279 
7066.000000	61.736559 
7065.000000	61.381220 
7064.000000	61.101150 
7063.000000	60.917496 
7062.000000	60.849523 
7061.000000	60.911035 
7060.000000	61.107993 
7059.000000	61.429786 
7058.000000	61.853647 
7057.000000	62.343907 
7056.000000	62.862944 
7055.000000	63.378334 
7054.000000	63.867640 
7053.000000	64.323377 
7052.000000	64.743542 
7051.000000	65.128445 
7050.000000	65.468072 
7049.000000	65.743994 
7048.000000	65.923738 
7047.000000	65.973329 
7046.000000	65.860795 
7045.000000	65.573358 
7044.000000	65.119385 
7043.000000	64.536356 
7042.000000	63.882398 
7041.000000	63.226270 
7040.000000	62.641644 
7039.000000	62.194585 
7038.000000	61.937427 
7037.000000	61.901021 
7036.000000	62.095403 
7035.000000	62.508225 
7034.000000	63.108444 
7033.000000	63.848590 
7032.000000	64.665150 
7031.000000	65.486001 
7030.000000	66.234183 
7029.000000	66.841506 
7028.000000	67.256855 
7027.000000	67.456865 
7026.000000	67.451977 
7025.000000	67.280316 
7024.000000	67.005944 
7023.000000	66.694641 
7022.000000	66.409420 
7021.000000	66.184043 
7020.000000	66.027903 
7019.000000	65.914416 
7018.000000	65.798878 
7017.000000	65.626311 
7016.000000	65.353012 
7015.000000	64.958119 
7014.000000	64.452457 
7013.000000	63.877320 
7012.000000	63.293313 
7011.000000	62.770819 
7010.000000	62.372565 
7009.000000	62.142467 
7008.000000	62.096405 
7007.000000	62.223625 
7006.000000	62.491273 
7005.000000	62.851548 
7004.000000	63.254356 
7003.000000	63.651895 
7002.000000	64.010953 
7001.000000	64.315104 
7000.000000	64.566326 
6999.000000	64.776325 
6998.000000	64.960694 
6997.000000	65.134549 
6996.000000	65.301871 
6995.000000	65.456795 
6994.000000	65.580701 
6993.000000	65.650224 
6992.000000	65.643978 
6991.000000	65.552496 
6990.000000	65.384745 
6989.000000	65.169572 
6988.000000	64.953064 
6987.000000	64.789223 
6986.000000	64.727401 
6985.000000	64.800238 
6984.000000	65.013575 
6983.000000	65.344309 
6982.000000	65.743589 
6981.000000	66.148304 
6980.000000	66.497063 
6979.000000	66.744780 
6978.000000	66.869831 
6977.000000	66.878771 
6976.000000	66.802644 
6975.000000	66.687250 
6974.000000	66.579985 
6973.000000	66.517639 
6972.000000	66.518545 
6971.000000	66.579246 
6970.000000	66.684603 
6969.000000	66.807460 
6968.000000	66.923213 
6967.000000	67.007994 
6966.000000	67.048144 
6965.000000	67.034196 
6964.000000	66.960000 
6963.000000	66.821908 
6962.000000	66.618227 
6961.000000	66.350650 
6960.000000	66.025590 
6959.000000	65.657401 
