PE IR       SPECTRUM    SPECTRUM    ASCII       PEDS        1.60        
  -1
C-1BEE~1.ASC
17/05/02
13:49:26.00
17/05/02
13:49:26.00
tln
$C-4040-8_t0035$<tbV0>[-7.5,12.0,8.0,0.0,22,1,0]
370.000000
64









2002,4.07    
MIRTGS : RIGHTBACK : INTERNAL 2
MIR : ON : INTERNAL 2
OPTKBR

0.200000
8
8.000000
FILLER
RATIO
SPECTRUM
UNLOCKED 256

DOUBLE
64
COMBINED
1
0
0


1.000000
RATIO


1
0
TRUE
51149
0
LEFT NOT FITTED RIGHT NOT FITTED 0
NONE
NONE
15600
12.000000
4.427000
51148
TRUE
1 0 8 72 0 0 0 0 

15798.010000






#HDR
-1
-1
#GR
CM-1
%T
0.00002384185791015625
0.0
7800.000000
-1.000000
7431
8
81.637406
37.728214
#DATA
7800.000000	65.598320 
7799.000000	67.641043 
7798.000000	69.187593 
7797.000000	70.162320 
7796.000000	70.568418 
7795.000000	70.452070 
7794.000000	69.901967 
7793.000000	69.028973 
7792.000000	67.949247 
7791.000000	66.777062 
7790.000000	65.650987 
7789.000000	64.718222 
7788.000000	64.121055 
7787.000000	63.962602 
7786.000000	64.291906 
7785.000000	65.071344 
7784.000000	66.170978 
7783.000000	67.385983 
7782.000000	68.458223 
7781.000000	69.148921 
7780.000000	69.292759 
7779.000000	68.837213 
7778.000000	67.872357 
7777.000000	66.577172 
7776.000000	65.163016 
7775.000000	63.820767 
7774.000000	62.667632 
7773.000000	61.744046 
7772.000000	61.021852 
7771.000000	60.447120 
7770.000000	59.977293 
7769.000000	59.623265 
7768.000000	59.460711 
7767.000000	59.607458 
7766.000000	60.183334 
7765.000000	61.291790 
7764.000000	62.977957 
7763.000000	65.207123 
7762.000000	67.856645 
7761.000000	70.733308 
7760.000000	73.602437 
7759.000000	76.230287 
7758.000000	78.421902 
7757.000000	80.057024 
7756.000000	81.098198 
7755.000000	81.591486 
7754.000000	81.637406 
7753.000000	81.380772 
7752.000000	80.953693 
7751.000000	80.478048 
7750.000000	80.014491 
7749.000000	79.589343 
7748.000000	79.174375 
7747.000000	78.733491 
7746.000000	78.222084 
7745.000000	77.618980 
7744.000000	76.933431 
7743.000000	76.212000 
7742.000000	75.521922 
7741.000000	74.932289 
7740.000000	74.497795 
7739.000000	74.240565 
7738.000000	74.158835 
7737.000000	74.224543 
7736.000000	74.390554 
7735.000000	74.592852 
7734.000000	74.764752 
7733.000000	74.835896 
7732.000000	74.730300 
7731.000000	74.375891 
7730.000000	73.718309 
7729.000000	72.735786 
7728.000000	71.436190 
7727.000000	69.881200 
7726.000000	68.183064 
7725.000000	66.500782 
7724.000000	65.010261 
7723.000000	63.882875 
7722.000000	63.250207 
7721.000000	63.178539 
7720.000000	63.655328 
7719.000000	64.582514 
7718.000000	65.790367 
7717.000000	67.068886 
7716.000000	68.207240 
7715.000000	69.022941 
7714.000000	69.387722 
7713.000000	69.250988 
7712.000000	68.639993 
7711.000000	67.647242 
7710.000000	66.405820 
7709.000000	65.069222 
7708.000000	63.782715 
7707.000000	62.662506 
7706.000000	61.784434 
7705.000000	61.182260 
7704.000000	60.858798 
7703.000000	60.797166 
7702.000000	60.979318 
7701.000000	61.377835 
7700.000000	61.976313 
7699.000000	62.756514 
7698.000000	63.702511 
7697.000000	64.777040 
7696.000000	65.931272 
7695.000000	67.089247 
7694.000000	68.173885 
7693.000000	69.111657 
7692.000000	69.858336 
7691.000000	70.405006 
7690.000000	70.786380 
7689.000000	71.077847 
7688.000000	71.360349 
7687.000000	71.699500 
7686.000000	72.122192 
7685.000000	72.608923 
7684.000000	73.103737 
7683.000000	73.528409 
7682.000000	73.809289 
7681.000000	73.889732 
7680.000000	73.739886 
7679.000000	73.353362 
7678.000000	72.746133 
7677.000000	71.943831 
7676.000000	70.974826 
7675.000000	69.865822 
7674.000000	68.651247 
7673.000000	67.370295 
7672.000000	66.072177 
7671.000000	64.816212 
7670.000000	63.666248 
7669.000000	62.690138 
7668.000000	61.941647 
7667.000000	61.465096 
7666.000000	61.270141 
7665.000000	61.354351 
7664.000000	61.695551 
7663.000000	62.261581 
7662.000000	63.004279 
7661.000000	63.868761 
7660.000000	64.790844 
7659.000000	65.699982 
7658.000000	66.521048 
7657.000000	67.186689 
7656.000000	67.643404 
7655.000000	67.866325 
7654.000000	67.858505 
7653.000000	67.648720 
7652.000000	67.281556 
7651.000000	66.808772 
7650.000000	66.279935 
7649.000000	65.739393 
7648.000000	65.225577 
7647.000000	64.770698 
7646.000000	64.407682 
7645.000000	64.174389 
7644.000000	64.108467 
7643.000000	64.243578 
7642.000000	64.594244 
7641.000000	65.140914 
7640.000000	65.833425 
7639.000000	66.587233 
7638.000000	67.310857 
7637.000000	67.917084 
7636.000000	68.354988 
7635.000000	68.617939 
7634.000000	68.748354 
7633.000000	68.822455 
7632.000000	68.931317 
7631.000000	69.153165 
7630.000000	69.535994 
7629.000000	70.080709 
7628.000000	70.745849 
7627.000000	71.449375 
7626.000000	72.088027 
7625.000000	72.550415 
7624.000000	72.743678 
7623.000000	72.603559 
7622.000000	72.105050 
7621.000000	71.265053 
7620.000000	70.142269 
7619.000000	68.826436 
7618.000000	67.425346 
7617.000000	66.049647 
7616.000000	64.807152 
7615.000000	63.780522 
7614.000000	63.022541 
7613.000000	62.546730 
7612.000000	62.329125 
7611.000000	62.318062 
7610.000000	62.441229 
7609.000000	62.629365 
7608.000000	62.819385 
7607.000000	62.982106 
7606.000000	63.117790 
7605.000000	63.260197 
7604.000000	63.458275 
7603.000000	63.765573 
7602.000000	64.219784 
7601.000000	64.831829 
7600.000000	65.578246 
7599.000000	66.406512 
7598.000000	67.244577 
7597.000000	68.017649 
7596.000000	68.662738 
7595.000000	69.144916 
7594.000000	69.459962 
7593.000000	69.626855 
7592.000000	69.683861 
7591.000000	69.683742 
7590.000000	69.674968 
7589.000000	69.696259 
7588.000000	69.764494 
7587.000000	69.877576 
7586.000000	70.017051 
7585.000000	70.162558 
7584.000000	70.297312 
7583.000000	70.413351 
7582.000000	70.521736 
7581.000000	70.650506 
7580.000000	70.837068 
7579.000000	71.114611 
7578.000000	71.507239 
7577.000000	72.019886 
7576.000000	72.635841 
7575.000000	73.315191 
7574.000000	74.003672 
7573.000000	74.635076 
7572.000000	75.148153 
7571.000000	75.483512 
7570.000000	75.594615 
7569.000000	75.439882 
7568.000000	74.993634 
7567.000000	74.240684 
7566.000000	73.183012 
7565.000000	71.845078 
7564.000000	70.286965 
7563.000000	68.599557 
7562.000000	66.900992 
7561.000000	65.322899 
7560.000000	63.988828 
7559.000000	63.001513 
7558.000000	62.416291 
7557.000000	62.250089 
7556.000000	62.471866 
7555.000000	63.025188 
7554.000000	63.828015 
7553.000000	64.804553 
7552.000000	65.888571 
7551.000000	67.024016 
7550.000000	68.155670 
7549.000000	69.226241 
7548.000000	70.169663 
7547.000000	70.909619 
7546.000000	71.367383 
7545.000000	71.487402 
7544.000000	71.245956 
7543.000000	70.671486 
7542.000000	69.834280 
7541.000000	68.838500 
7540.000000	67.800354 
7539.000000	66.827154 
7538.000000	66.004943 
7537.000000	65.390419 
7536.000000	65.010952 
7535.000000	64.877653 
7534.000000	64.979648 
7533.000000	65.287923 
7532.000000	65.756464 
7531.000000	66.328597 
7530.000000	66.931414 
7529.000000	67.474555 
7528.000000	67.868924 
7527.000000	68.040084 
7526.000000	67.936372 
7525.000000	67.537522 
7524.000000	66.861701 
7523.000000	65.963554 
7522.000000	64.923310 
7521.000000	63.834595 
7520.000000	62.784290 
7519.000000	61.842298 
7518.000000	61.061930 
7517.000000	60.476303 
7516.000000	60.098195 
7515.000000	59.923195 
7514.000000	59.932184 
7513.000000	60.097384 
7512.000000	60.371136 
7511.000000	60.707306 
7510.000000	61.052727 
7509.000000	61.373686 
7508.000000	61.647605 
7507.000000	61.881923 
7506.000000	62.096929 
7505.000000	62.334895 
7504.000000	62.642931 
7503.000000	63.065004 
7502.000000	63.628029 
7501.000000	64.332103 
7500.000000	65.149617 
7499.000000	66.021203 
7498.000000	66.867756 
7497.000000	67.602181 
7496.000000	68.148255 
7495.000000	68.452477 
7494.000000	68.493986 
7493.000000	68.290638 
7492.000000	67.891407 
7491.000000	67.363739 
7490.000000	66.775918 
7489.000000	66.190528 
7488.000000	65.649175 
7487.000000	65.168738 
7486.000000	64.745044 
7485.000000	64.366245 
7484.000000	64.022636 
7483.000000	63.713765 
7482.000000	63.455128 
7481.000000	63.271427 
7480.000000	63.193559 
7479.000000	63.241648 
7478.000000	63.422107 
7477.000000	63.711452 
7476.000000	64.072728 
7475.000000	64.459371 
7474.000000	64.830017 
7473.000000	65.153908 
7472.000000	65.422701 
7471.000000	65.649127 
7470.000000	65.857100 
7469.000000	66.069293 
7468.000000	66.296982 
7467.000000	66.532325 
7466.000000	66.745090 
7465.000000	66.889953 
7464.000000	66.923451 
7463.000000	66.817188 
7462.000000	66.568970 
7461.000000	66.208076 
7460.000000	65.788650 
7459.000000	65.382146 
7458.000000	65.063333 
7457.000000	64.894270 
7456.000000	64.908742 
7455.000000	65.105795 
7454.000000	65.461063 
7453.000000	65.918850 
7452.000000	66.404342 
7451.000000	66.835069 
7450.000000	67.136764 
7449.000000	67.256832 
7448.000000	67.171430 
7447.000000	66.892600 
7446.000000	66.462087 
7445.000000	65.946435 
7444.000000	65.423250 
7443.000000	64.963197 
7442.000000	64.616250 
7441.000000	64.401912 
7440.000000	64.308571 
7439.000000	64.294219 
7438.000000	64.301943 
7437.000000	64.274597 
7436.000000	64.176487 
7435.000000	63.993597 
7434.000000	63.750839 
7433.000000	63.502931 
7432.000000	63.332247 
7431.000000	63.318181 
7430.000000	63.529729 
7429.000000	64.006590 
7428.000000	64.748907 
7427.000000	65.716934 
7426.000000	66.830706 
7425.000000	67.987561 
7424.000000	69.071507 
7423.000000	69.977736 
7422.000000	70.620894 
7421.000000	70.947694 
7420.000000	70.944166 
7419.000000	70.636177 
7418.000000	70.085501 
7417.000000	69.379496 
7416.000000	68.618464 
7415.000000	67.901182 
7414.000000	67.301774 
7413.000000	66.858458 
7412.000000	66.570854 
7411.000000	66.402816 
7410.000000	66.290783 
7409.000000	66.161012 
7408.000000	65.946197 
7407.000000	65.603303 
7406.000000	65.120530 
7405.000000	64.522266 
7404.000000	63.852977 
7403.000000	63.175082 
7402.000000	62.546610 
7401.000000	62.020277 
7400.000000	61.627912 
7399.000000	61.387681 
7398.000000	61.302256 
7397.000000	61.366105 
7396.000000	61.565756 
7395.000000	61.884641 
7394.000000	62.300944 
7393.000000	62.787556 
7392.000000	63.303947 
7391.000000	63.812875 
7390.000000	64.280676 
7389.000000	64.686942 
7388.000000	65.024566 
7387.000000	65.299534 
7386.000000	65.523314 
7385.000000	65.709543 
7384.000000	65.863823 
7383.000000	65.973997 
7382.000000	66.011953 
7381.000000	65.942811 
7380.000000	65.738153 
7379.000000	65.390157 
7378.000000	64.922213 
7377.000000	64.389562 
7376.000000	63.873481 
7375.000000	63.466525 
7374.000000	63.250803 
7373.000000	63.276815 
7372.000000	63.551115 
7371.000000	64.034008 
7370.000000	64.646244 
7369.000000	65.287923 
7368.000000	65.858125 
7367.000000	66.274929 
7366.000000	66.492724 
7365.000000	66.505002 
7364.000000	66.348147 
7363.000000	66.087102 
7362.000000	65.802741 
7361.000000	65.570640 
7360.000000	65.449786 
7359.000000	65.468263 
7358.000000	65.623211 
7357.000000	65.878653 
7356.000000	66.173124 
7355.000000	66.428494 
7354.000000	66.567063 
7353.000000	66.523551 
7352.000000	66.256093 
7351.000000	65.754628 
7350.000000	65.043711 
7349.000000	64.177560 
7348.000000	63.228392 
7347.000000	62.275743 
7346.000000	61.395215 
7345.000000	60.646581 
7344.000000	60.067319 
7343.000000	59.670662 
7342.000000	59.448313 
7341.000000	59.376192 
7340.000000	59.419274 
7339.000000	59.541153 
7338.000000	59.703111 
7337.000000	59.880328 
7336.000000	60.059475 
7335.000000	60.242009 
7334.000000	60.436224 
7333.000000	60.659241 
7332.000000	60.928344 
7331.000000	61.257433 
7330.000000	61.650824 
7329.000000	62.100768 
7328.000000	62.586545 
7327.000000	63.078951 
7326.000000	63.544678 
7325.000000	63.952183 
7324.000000	64.278578 
7323.000000	64.516258 
7322.000000	64.672183 
7321.000000	64.766812 
7320.000000	64.825320 
7319.000000	64.878416 
7318.000000	64.944815 
7317.000000	65.030837 
7316.000000	65.122985 
7315.000000	65.199470 
7314.000000	65.228486 
7313.000000	65.178918 
7312.000000	65.032219 
7311.000000	64.791464 
7310.000000	64.482450 
7309.000000	64.149212 
7308.000000	63.846349 
7307.000000	63.626098 
7306.000000	63.524079 
7305.000000	63.550376 
7304.000000	63.684153 
7303.000000	63.880324 
7302.000000	64.082765 
7301.000000	64.241576 
7300.000000	64.322185 
7299.000000	64.318299 
7298.000000	64.255237 
7297.000000	64.181113 
7296.000000	64.149141 
7295.000000	64.201474 
7294.000000	64.357423 
7293.000000	64.603471 
7292.000000	64.895725 
7291.000000	65.171170 
7290.000000	65.366768 
7289.000000	65.436458 
7288.000000	65.363836 
7287.000000	65.170502 
7286.000000	64.909672 
7285.000000	64.655613 
7284.000000	64.482688 
7283.000000	64.448952 
7282.000000	64.580512 
7281.000000	64.868736 
7280.000000	65.273523 
7279.000000	65.729975 
7278.000000	66.162848 
7277.000000	66.502237 
7276.000000	66.695904 
7275.000000	66.712617 
7274.000000	66.546368 
7273.000000	66.211986 
7272.000000	65.743684 
7271.000000	65.189385 
7270.000000	64.604163 
7269.000000	64.046144 
7268.000000	63.565731 
7267.000000	63.206410 
7266.000000	62.990665 
7265.000000	62.920904 
7264.000000	62.974905 
7263.000000	63.108706 
7262.000000	63.269424 
7261.000000	63.399267 
7260.000000	63.460564 
7259.000000	63.437843 
7258.000000	63.351297 
7257.000000	63.246250 
7256.000000	63.186669 
7255.000000	63.234186 
7254.000000	63.433909 
7253.000000	63.799715 
7252.000000	64.307713 
7251.000000	64.899206 
7250.000000	65.494728 
7249.000000	66.010642 
7248.000000	66.379547 
7247.000000	66.562056 
7246.000000	66.551780 
7245.000000	66.372346 
7244.000000	66.069412 
7243.000000	65.697145 
7242.000000	65.306019 
7241.000000	64.933562 
7240.000000	64.603376 
7239.000000	64.323806 
7238.000000	64.100122 
7237.000000	63.932585 
7236.000000	63.819265 
7235.000000	63.761925 
7234.000000	63.759398 
7233.000000	63.818430 
7232.000000	63.946318 
7231.000000	64.154410 
7230.000000	64.449167 
7229.000000	64.831995 
7228.000000	65.293407 
7227.000000	65.809130 
7226.000000	66.339635 
7225.000000	66.834259 
7224.000000	67.237496 
7223.000000	67.498493 
7222.000000	67.579388 
7221.000000	67.461109 
7220.000000	67.147827 
7219.000000	66.668224 
7218.000000	66.071796 
7217.000000	65.423035 
7216.000000	64.790916 
7215.000000	64.242601 
7214.000000	63.829636 
7213.000000	63.584733 
7212.000000	63.512277 
7211.000000	63.594460 
7210.000000	63.788747 
7209.000000	64.035177 
7208.000000	64.268827 
7207.000000	64.427161 
7206.000000	64.468455 
7205.000000	64.375162 
7204.000000	64.160966 
7203.000000	63.863158 
7202.000000	63.534951 
7201.000000	63.230800 
7200.000000	62.994933 
7199.000000	62.852263 
7198.000000	62.806820 
7197.000000	62.845444 
7196.000000	62.945747 
7195.000000	63.086080 
7194.000000	63.252902 
7193.000000	63.445568 
7192.000000	63.671207 
7191.000000	63.941979 
7190.000000	64.266538 
7189.000000	64.644122 
7188.000000	65.060138 
7187.000000	65.485310 
7186.000000	65.881752 
7185.000000	66.206979 
7184.000000	66.429567 
7183.000000	66.527581 
7182.000000	66.494202 
7181.000000	66.337943 
7180.000000	66.082835 
7179.000000	65.763330 
7178.000000	65.418148 
7177.000000	65.088129 
7176.000000	64.811968 
7175.000000	64.622569 
7174.000000	64.544463 
7173.000000	64.590144 
7172.000000	64.758634 
7171.000000	65.036654 
7170.000000	65.400075 
7169.000000	65.814423 
7168.000000	66.239023 
7167.000000	66.632962 
7166.000000	66.959571 
7165.000000	67.189550 
7164.000000	67.304205 
7163.000000	67.299079 
7162.000000	67.182040 
7161.000000	66.971516 
7160.000000	66.693663 
7159.000000	66.380310 
7158.000000	66.065621 
7157.000000	65.781974 
7156.000000	65.559673 
7155.000000	65.426087 
7154.000000	65.401864 
7153.000000	65.497422 
7152.000000	65.711760 
7151.000000	66.032743 
7150.000000	66.433215 
7149.000000	66.874027 
7148.000000	67.303276 
7147.000000	67.662477 
7146.000000	67.894983 
7145.000000	67.955994 
7144.000000	67.818737 
7143.000000	67.480373 
7142.000000	66.964650 
7141.000000	66.318368 
7140.000000	65.604901 
7139.000000	64.893722 
7138.000000	64.248371 
7137.000000	63.717937 
7136.000000	63.335633 
7135.000000	63.113641 
7134.000000	63.045859 
7133.000000	63.109254 
7132.000000	63.267898 
7131.000000	63.479423 
7130.000000	63.696718 
7129.000000	63.879013 
7128.000000	63.989210 
7127.000000	64.007878 
7126.000000	63.929152 
7125.000000	63.768911 
7124.000000	63.556480 
7123.000000	63.335132 
7122.000000	63.152074 
7121.000000	63.050460 
7120.000000	63.060879 
7119.000000	63.192343 
7118.000000	63.430166 
7117.000000	63.735342 
7116.000000	64.052319 
7115.000000	64.317202 
7114.000000	64.472103 
7113.000000	64.475393 
7112.000000	64.313459 
7111.000000	64.002609 
7110.000000	63.589429 
7109.000000	63.138818 
7108.000000	62.724113 
7107.000000	62.414455 
7106.000000	62.260460 
7105.000000	62.284541 
7104.000000	62.478470 
7103.000000	62.810349 
7102.000000	63.229846 
7101.000000	63.679289 
7100.000000	64.104676 
7099.000000	64.462327 
7098.000000	64.726638 
7097.000000	64.889168 
7096.000000	64.956736 
7095.000000	64.944696 
7094.000000	64.871716 
7093.000000	64.754509 
7092.000000	64.607954 
7091.000000	64.445185 
7090.000000	64.279961 
7089.000000	64.127373 
7088.000000	64.003849 
7087.000000	63.924217 
7086.000000	63.895535 
7085.000000	63.915896 
7084.000000	63.969039 
7083.000000	64.032530 
7082.000000	64.083981 
7081.000000	64.109849 
7080.000000	64.110374 
7079.000000	64.099073 
7078.000000	64.097666 
7077.000000	64.127993 
7076.000000	64.204168 
7075.000000	64.325857 
7074.000000	64.474630 
7073.000000	64.620828 
7072.000000	64.731526 
7071.000000	64.781689 
7070.000000	64.762544 
7069.000000	64.685034 
7068.000000	64.578223 
7067.000000	64.478754 
7066.000000	64.420294 
7065.000000	64.422631 
7064.000000	64.485740 
7063.000000	64.589285 
7062.000000	64.698195 
7061.000000	64.774298 
7060.000000	64.786458 
7059.000000	64.718008 
7058.000000	64.571785 
7057.000000	64.364361 
7056.000000	64.125084 
7055.000000	63.889479 
7054.000000	63.692879 
7053.000000	63.562560 
7052.000000	63.514161 
7051.000000	63.549280 
7050.000000	63.658165 
7049.000000	63.822150 
7048.000000	64.021158 
7047.000000	64.235472 
7046.000000	64.453983 
7045.000000	64.670801 
7044.000000	64.890480 
7043.000000	65.120625 
7042.000000	65.373134 
7041.000000	65.656256 
7040.000000	65.975975 
7039.000000	66.332435 
7038.000000	66.718745 
7037.000000	67.120051 
7036.000000	67.510485 
7035.000000	67.854428 
7034.000000	68.108820 
7033.000000	68.228793 
7032.000000	68.174171 
7031.000000	67.919254 
7030.000000	67.460894 
7029.000000	66.825556 
7028.000000	66.067385 
7027.000000	65.265870 
7026.000000	64.514970 
7025.000000	63.908457 
7024.000000	63.523960 
7023.000000	63.407039 
7022.000000	63.564801 
7021.000000	63.960909 
7020.000000	64.521646 
7019.000000	65.151357 
7018.000000	65.744972 
7017.000000	66.217207 
7016.000000	66.514587 
7015.000000	66.626214 
7014.000000	66.576910 
7013.000000	66.420030 
7012.000000	66.219043 
7011.000000	66.028523 
7010.000000	65.880012 
7009.000000	65.779852 
7008.000000	65.712666 
7007.000000	65.650987 
7006.000000	65.569019 
7005.000000	65.453410 
7004.000000	65.311670 
7003.000000	65.169000 
7002.000000	65.065145 
7001.000000	65.040564 
7000.000000	65.126585 
6999.000000	65.337061 
6998.000000	65.660190 
6997.000000	66.058015 
6996.000000	66.472983 
6995.000000	66.844987 
6994.000000	67.118263 
6993.000000	67.252612 
6992.000000	67.230582 
6991.000000	67.062187 
6990.000000	66.776943 
6989.000000	66.417002 
6988.000000	66.025042 
6987.000000	65.636658 
6986.000000	65.274119 
6985.000000	64.948129 
6984.000000	64.655780 
6983.000000	64.387845 
6982.000000	64.135789 
6981.000000	63.899445 
6980.000000	63.685727 
6979.000000	63.511323 
6978.000000	63.398408 
6977.000000	63.372874 
6976.000000	63.452529 
6975.000000	63.647389 
6974.000000	63.955807 
6973.000000	64.365863 
6972.000000	64.854168 
6971.000000	65.390515 
6970.000000	65.939784 
6969.000000	66.467452 
6968.000000	66.942644 
6967.000000	67.341542 
6966.000000	67.649912 
6965.000000	67.862486 
6964.000000	67.985296 
6963.000000	68.028402 
6962.000000	68.007373 
6961.000000	67.934417 
6960.000000	67.821645 
6959.000000	67.673110 
