PE IR       SPECTRUM    SPECTRUM    ASCII       PEDS        1.60        
  -1
C-1A6E~1.ASC
17/05/02
12:12:38.00
17/05/02
12:12:38.00
tln
$C-4040-8_t0016$<tbV0>[-2.5,-3.0,8.0,0.0,22,1,0]
370.000000
64









2002,4.07    
MIRTGS : RIGHTBACK : INTERNAL 2
MIR : ON : INTERNAL 2
OPTKBR

0.200000
8
8.000000
FILLER
RATIO
SPECTRUM
UNLOCKED 256

DOUBLE
64
COMBINED
1
0
0


1.000000
RATIO


1
0
TRUE
51149
0
LEFT NOT FITTED RIGHT NOT FITTED 0
NONE
NONE
15600
12.000000
4.427000
51148
TRUE
1 0 8 72 0 0 0 0 

15798.010000






#HDR
-1
-1
#GR
CM-1
%T
0.00002384185791015625
0.0
7800.000000
-1.000000
7431
8
83.495807
38.030958
#DATA
7800.000000	75.049424 
7799.000000	74.347639 
7798.000000	73.450851 
7797.000000	72.508263 
7796.000000	71.689081 
7795.000000	71.146011 
7794.000000	70.973038 
7793.000000	71.183586 
7792.000000	71.714234 
7791.000000	72.445678 
7790.000000	73.234462 
7789.000000	73.951244 
7788.000000	74.517846 
7787.000000	74.916648 
7786.000000	75.179910 
7785.000000	75.364637 
7784.000000	75.527024 
7783.000000	75.690531 
7782.000000	75.824427 
7781.000000	75.856184 
7780.000000	75.707387 
7779.000000	75.315356 
7778.000000	74.667382 
7777.000000	73.810887 
7776.000000	72.853207 
7775.000000	71.940469 
7774.000000	71.218323 
7773.000000	70.807695 
7772.000000	70.776271 
7771.000000	71.122026 
7770.000000	71.776747 
7769.000000	72.613310 
7768.000000	73.476195 
7767.000000	74.202799 
7766.000000	74.655771 
7765.000000	74.750375 
7764.000000	74.466872 
7763.000000	73.854947 
7762.000000	73.014259 
7761.000000	72.065544 
7760.000000	71.118617 
7759.000000	70.255756 
7758.000000	69.512748 
7757.000000	68.884754 
7756.000000	68.334221 
7755.000000	67.818331 
7754.000000	67.305183 
7753.000000	66.777205 
7752.000000	66.253185 
7751.000000	65.772652 
7750.000000	65.400624 
7749.000000	65.202784 
7748.000000	65.228843 
7747.000000	65.496659 
7746.000000	65.969419 
7745.000000	66.557526 
7744.000000	67.126536 
7743.000000	67.523431 
7742.000000	67.615127 
7741.000000	67.321014 
7740.000000	66.641378 
7739.000000	65.661978 
7738.000000	64.535355 
7737.000000	63.449954 
7736.000000	62.586116 
7735.000000	62.083959 
7734.000000	62.022280 
7733.000000	62.414002 
7732.000000	63.213801 
7731.000000	64.339423 
7730.000000	65.689158 
7729.000000	67.167663 
7728.000000	68.688297 
7727.000000	70.187711 
7726.000000	71.620893 
7725.000000	72.951054 
7724.000000	74.143862 
7723.000000	75.150346 
7722.000000	75.912642 
7721.000000	76.363849 
7720.000000	76.454687 
7719.000000	76.160669 
7718.000000	75.508046 
7717.000000	74.569797 
7716.000000	73.471260 
7715.000000	72.355222 
7714.000000	71.361708 
7713.000000	70.599818 
7712.000000	70.132231 
7711.000000	69.975757 
7710.000000	70.105171 
7709.000000	70.469594 
7708.000000	71.001482 
7707.000000	71.627259 
7706.000000	72.269153 
7705.000000	72.843742 
7704.000000	73.265004 
7703.000000	73.448562 
7702.000000	73.323202 
7701.000000	72.840571 
7700.000000	71.990990 
7699.000000	70.817685 
7698.000000	69.411969 
7697.000000	67.902827 
7696.000000	66.438198 
7695.000000	65.167212 
7694.000000	64.206957 
7693.000000	63.620686 
7692.000000	63.413286 
7691.000000	63.533592 
7690.000000	63.894200 
7689.000000	64.388751 
7688.000000	64.924287 
7687.000000	65.433645 
7686.000000	65.888261 
7685.000000	66.289973 
7684.000000	66.651916 
7683.000000	66.977906 
7682.000000	67.255949 
7681.000000	67.450499 
7680.000000	67.507910 
7679.000000	67.369103 
7678.000000	66.996026 
7677.000000	66.382622 
7676.000000	65.567541 
7675.000000	64.628577 
7674.000000	63.665962 
7673.000000	62.787604 
7672.000000	62.088322 
7671.000000	61.634421 
7670.000000	61.450314 
7669.000000	61.521625 
7668.000000	61.797952 
7667.000000	62.213087 
7666.000000	62.697410 
7665.000000	63.195538 
7664.000000	63.663244 
7663.000000	64.086627 
7662.000000	64.471077 
7661.000000	64.842438 
7660.000000	65.229058 
7659.000000	65.660405 
7658.000000	66.154003 
7657.000000	66.711211 
7656.000000	67.312002 
7655.000000	67.918848 
7654.000000	68.479013 
7653.000000	68.935894 
7652.000000	69.233703 
7651.000000	69.334626 
7650.000000	69.217443 
7649.000000	68.879508 
7648.000000	68.335819 
7647.000000	67.622041 
7646.000000	66.789174 
7645.000000	65.897512 
7644.000000	65.015363 
7643.000000	64.213085 
7642.000000	63.559532 
7641.000000	63.113284 
7640.000000	62.917208 
7639.000000	62.989258 
7638.000000	63.320159 
7637.000000	63.868665 
7636.000000	64.570307 
7635.000000	65.340733 
7634.000000	66.096925 
7633.000000	66.767406 
7632.000000	67.303323 
7631.000000	67.681431 
7630.000000	67.907428 
7629.000000	68.011164 
7628.000000	68.033075 
7627.000000	68.017745 
7626.000000	68.016052 
7625.000000	68.075776 
7624.000000	68.240714 
7623.000000	68.537378 
7622.000000	68.980884 
7621.000000	69.555854 
7620.000000	70.219755 
7619.000000	70.898008 
7618.000000	71.498751 
7617.000000	71.925687 
7616.000000	72.099924 
7615.000000	71.977949 
7614.000000	71.557617 
7613.000000	70.892977 
7612.000000	70.085549 
7611.000000	69.269251 
7610.000000	68.585681 
7609.000000	68.152260 
7608.000000	68.043422 
7607.000000	68.260884 
7606.000000	68.737411 
7605.000000	69.343686 
7604.000000	69.919562 
7603.000000	70.315289 
7602.000000	70.425462 
7601.000000	70.207214 
7600.000000	69.683313 
7599.000000	68.927597 
7598.000000	68.040966 
7597.000000	67.115521 
7596.000000	66.220140 
7595.000000	65.394663 
7594.000000	64.654088 
7593.000000	64.005470 
7592.000000	63.457608 
7591.000000	63.029789 
7590.000000	62.753534 
7589.000000	62.660312 
7588.000000	62.775850 
7587.000000	63.097119 
7586.000000	63.595724 
7585.000000	64.208364 
7584.000000	64.855360 
7583.000000	65.450429 
7582.000000	65.921497 
7581.000000	66.223883 
7580.000000	66.343641 
7579.000000	66.295266 
7578.000000	66.114187 
7577.000000	65.844821 
7576.000000	65.527105 
7575.000000	65.187072 
7574.000000	64.836430 
7573.000000	64.473414 
7572.000000	64.089059 
7571.000000	63.676476 
7570.000000	63.234686 
7569.000000	62.780714 
7568.000000	62.342095 
7567.000000	61.967563 
7566.000000	61.710500 
7565.000000	61.632323 
7564.000000	61.782670 
7563.000000	62.194538 
7562.000000	62.872576 
7561.000000	63.785457 
7560.000000	64.863419 
7559.000000	66.006755 
7558.000000	67.097043 
7557.000000	68.022489 
7556.000000	68.697452 
7555.000000	69.078254 
7554.000000	69.171738 
7553.000000	69.021964 
7552.000000	68.697786 
7551.000000	68.271732 
7550.000000	67.805814 
7549.000000	67.343282 
7548.000000	66.907310 
7547.000000	66.511201 
7546.000000	66.164445 
7545.000000	65.877223 
7544.000000	65.662503 
7543.000000	65.536594 
7542.000000	65.512228 
7541.000000	65.588450 
7540.000000	65.747284 
7539.000000	65.951943 
7538.000000	66.152286 
7537.000000	66.292619 
7536.000000	66.324615 
7535.000000	66.214585 
7534.000000	65.956044 
7533.000000	65.570378 
7532.000000	65.107035 
7531.000000	64.627337 
7530.000000	64.202356 
7529.000000	63.897943 
7528.000000	63.764333 
7527.000000	63.826131 
7526.000000	64.079880 
7525.000000	64.496469 
7524.000000	65.023422 
7523.000000	65.595173 
7522.000000	66.148233 
7521.000000	66.633510 
7520.000000	67.023730 
7519.000000	67.316675 
7518.000000	67.532944 
7517.000000	67.705631 
7516.000000	67.873239 
7515.000000	68.061590 
7514.000000	68.281221 
7513.000000	68.513202 
7512.000000	68.724417 
7511.000000	68.861937 
7510.000000	68.870687 
7509.000000	68.703532 
7508.000000	68.336033 
7507.000000	67.777657 
7506.000000	67.073845 
7505.000000	66.303586 
7504.000000	65.561771 
7503.000000	64.947795 
7502.000000	64.545512 
7501.000000	64.407038 
7500.000000	64.543533 
7499.000000	64.919948 
7498.000000	65.462565 
7497.000000	66.072893 
7496.000000	66.647529 
7495.000000	67.093920 
7494.000000	67.346525 
7493.000000	67.373108 
7492.000000	67.178130 
7491.000000	66.796827 
7490.000000	66.288065 
7489.000000	65.721464 
7488.000000	65.167045 
7487.000000	64.691638 
7486.000000	64.343738 
7485.000000	64.159965 
7484.000000	64.146041 
7483.000000	64.281868 
7482.000000	64.516377 
7481.000000	64.777660 
7480.000000	64.986038 
7479.000000	65.063858 
7478.000000	64.961719 
7477.000000	64.663577 
7476.000000	64.201211 
7475.000000	63.643670 
7474.000000	63.088583 
7473.000000	62.637090 
7472.000000	62.374949 
7471.000000	62.352943 
7470.000000	62.574434 
7469.000000	62.996077 
7468.000000	63.540410 
7467.000000	64.116692 
7466.000000	64.639449 
7465.000000	65.049576 
7464.000000	65.324091 
7463.000000	65.479350 
7462.000000	65.557003 
7461.000000	65.612959 
7460.000000	65.697622 
7459.000000	65.845489 
7458.000000	66.070055 
7457.000000	66.362380 
7456.000000	66.699576 
7455.000000	67.050886 
7454.000000	67.397832 
7453.000000	67.725706 
7452.000000	68.030619 
7451.000000	68.304944 
7450.000000	68.542265 
7449.000000	68.716692 
7448.000000	68.788123 
7447.000000	68.702483 
7446.000000	68.408298 
7445.000000	67.871713 
7444.000000	67.094206 
7443.000000	66.119742 
7442.000000	65.034461 
7441.000000	63.953185 
7440.000000	62.999749 
7439.000000	62.280750 
7438.000000	61.865568 
7437.000000	61.778521 
7436.000000	61.995816 
7435.000000	62.447142 
7434.000000	63.035869 
7433.000000	63.656878 
7432.000000	64.223480 
7431.000000	64.665007 
7430.000000	64.955949 
7429.000000	65.105795 
7428.000000	65.164637 
7427.000000	65.201139 
7426.000000	65.288496 
7425.000000	65.486335 
7424.000000	65.820217 
7423.000000	66.284418 
7422.000000	66.828298 
7421.000000	67.374420 
7420.000000	67.828750 
7419.000000	68.108749 
7418.000000	68.154764 
7417.000000	67.945742 
7416.000000	67.501831 
7415.000000	66.879701 
7414.000000	66.155195 
7413.000000	65.405035 
7412.000000	64.692473 
7411.000000	64.054560 
7410.000000	63.497352 
7409.000000	63.001012 
7408.000000	62.536144 
7407.000000	62.076973 
7406.000000	61.607670 
7405.000000	61.136054 
7404.000000	60.682964 
7403.000000	60.290217 
7402.000000	59.999036 
7401.000000	59.854507 
7400.000000	59.876775 
7399.000000	60.077810 
7398.000000	60.454320 
7397.000000	60.993218 
7396.000000	61.669230 
7395.000000	62.447214 
7394.000000	63.282012 
7393.000000	64.118552 
7392.000000	64.894604 
7391.000000	65.547442 
7390.000000	66.021919 
7389.000000	66.279983 
7388.000000	66.308355 
7387.000000	66.122126 
7386.000000	65.763282 
7385.000000	65.296268 
7384.000000	64.796781 
7383.000000	64.337253 
7382.000000	63.974475 
7381.000000	63.750934 
7380.000000	63.683414 
7379.000000	63.763952 
7378.000000	63.958883 
7377.000000	64.222264 
7376.000000	64.498829 
7375.000000	64.730119 
7374.000000	64.867830 
7373.000000	64.873957 
7372.000000	64.737272 
7371.000000	64.469647 
7370.000000	64.111781 
7369.000000	63.723754 
7368.000000	63.374042 
7367.000000	63.127636 
7366.000000	63.026094 
7365.000000	63.079762 
7364.000000	63.262820 
7363.000000	63.522219 
7362.000000	63.788342 
7361.000000	63.994050 
7360.000000	64.097642 
7359.000000	64.094877 
7358.000000	64.021515 
7357.000000	63.943004 
7356.000000	63.936209 
7355.000000	64.064764 
7354.000000	64.361858 
7353.000000	64.815163 
7352.000000	65.368652 
7351.000000	65.932679 
7350.000000	66.410565 
7349.000000	66.718530 
7348.000000	66.810011 
7347.000000	66.681742 
7346.000000	66.372895 
7345.000000	65.951967 
7344.000000	65.498590 
7343.000000	65.083336 
7342.000000	64.750719 
7341.000000	64.516520 
7340.000000	64.373397 
7339.000000	64.298534 
7338.000000	64.269948 
7337.000000	64.270234 
7336.000000	64.292669 
7335.000000	64.341878 
7334.000000	64.429521 
7333.000000	64.572262 
7332.000000	64.783811 
7331.000000	65.072369 
7330.000000	65.434122 
7329.000000	65.854263 
7328.000000	66.303730 
7327.000000	66.744780 
7326.000000	67.131352 
7325.000000	67.417454 
7324.000000	67.561006 
7323.000000	67.536234 
7322.000000	67.333364 
7321.000000	66.965532 
7320.000000	66.461849 
7319.000000	65.866088 
7318.000000	65.226960 
7317.000000	64.592885 
7316.000000	64.006686 
7315.000000	63.499927 
7314.000000	63.098478 
7313.000000	62.822508 
7312.000000	62.689447 
7311.000000	62.712597 
7310.000000	62.895417 
7309.000000	63.226246 
7308.000000	63.673210 
7307.000000	64.183974 
7306.000000	64.694070 
7305.000000	65.138316 
7304.000000	65.465068 
7303.000000	65.648627 
7302.000000	65.698432 
7301.000000	65.655064 
7300.000000	65.582990 
7299.000000	65.548515 
7298.000000	65.603137 
7297.000000	65.765023 
7296.000000	66.015720 
7295.000000	66.303133 
7294.000000	66.562438 
7293.000000	66.730022 
7292.000000	66.768217 
7291.000000	66.668391 
7290.000000	66.454744 
7289.000000	66.173219 
7288.000000	65.877366 
7287.000000	65.612816 
7286.000000	65.404844 
7285.000000	65.255641 
7284.000000	65.149736 
7283.000000	65.058779 
7282.000000	64.954042 
7281.000000	64.817667 
7280.000000	64.650321 
7279.000000	64.471459 
7278.000000	64.314603 
7277.000000	64.218306 
7276.000000	64.215159 
7275.000000	64.322400 
7274.000000	64.536190 
7273.000000	64.830684 
7272.000000	65.163230 
7271.000000	65.487098 
7270.000000	65.759205 
7269.000000	65.947127 
7268.000000	66.035413 
7267.000000	66.027808 
7266.000000	65.942406 
7265.000000	65.805721 
7264.000000	65.644550 
7263.000000	65.481853 
7262.000000	65.330481 
7261.000000	65.194940 
7260.000000	65.071558 
7259.000000	64.954066 
7258.000000	64.838981 
7257.000000	64.729881 
7256.000000	64.638853 
7255.000000	64.583015 
7254.000000	64.585781 
7253.000000	64.669585 
7252.000000	64.853930 
7251.000000	65.147471 
7250.000000	65.546083 
7249.000000	66.027188 
7248.000000	66.551351 
7247.000000	67.062711 
7246.000000	67.498373 
7245.000000	67.795372 
7244.000000	67.902874 
7243.000000	67.790651 
7242.000000	67.458224 
7241.000000	66.934919 
7240.000000	66.276836 
7239.000000	65.557503 
7238.000000	64.855337 
7237.000000	64.243316 
7236.000000	63.779664 
7235.000000	63.501000 
7234.000000	63.419055 
7233.000000	63.524127 
7232.000000	63.789677 
7231.000000	64.177560 
7230.000000	64.642572 
7229.000000	65.138316 
7228.000000	65.619683 
7227.000000	66.045236 
7226.000000	66.377854 
7225.000000	66.591548 
7224.000000	66.672992 
7223.000000	66.624522 
7222.000000	66.463589 
7221.000000	66.222858 
7220.000000	65.944004 
7219.000000	65.674042 
7218.000000	65.454673 
7217.000000	65.317034 
7216.000000	65.274047 
7215.000000	65.321779 
7214.000000	65.438914 
7213.000000	65.594363 
7212.000000	65.752005 
7211.000000	65.880846 
7210.000000	65.957045 
7209.000000	65.963840 
7208.000000	65.896463 
7207.000000	65.761017 
7206.000000	65.571451 
7205.000000	65.345668 
7204.000000	65.101552 
7203.000000	64.856362 
7202.000000	64.618062 
7201.000000	64.387154 
7200.000000	64.153742 
7199.000000	63.903069 
7198.000000	63.624930 
7197.000000	63.321495 
7196.000000	63.007903 
7195.000000	62.713646 
7194.000000	62.480449 
7193.000000	62.353682 
7192.000000	62.366938 
7191.000000	62.535810 
7190.000000	62.847900 
7189.000000	63.270092 
7188.000000	63.750910 
7187.000000	64.238905 
7186.000000	64.690589 
7185.000000	65.083074 
7184.000000	65.417933 
7183.000000	65.712809 
7182.000000	65.991735 
7181.000000	66.270160 
7180.000000	66.546654 
7179.000000	66.798877 
7178.000000	66.992092 
7177.000000	67.085289 
7176.000000	67.049765 
7175.000000	66.871714 
7174.000000	66.561317 
7173.000000	66.147780 
7172.000000	65.675354 
7171.000000	65.186810 
7170.000000	64.715909 
7169.000000	64.281439 
7168.000000	63.888931 
7167.000000	63.535857 
7166.000000	63.221168 
7165.000000	62.950134 
7164.000000	62.740659 
7163.000000	62.619304 
7162.000000	62.617564 
7161.000000	62.756466 
7160.000000	63.041448 
7159.000000	63.454413 
7158.000000	63.953709 
7157.000000	64.479541 
7156.000000	64.962029 
7155.000000	65.335464 
7154.000000	65.548348 
7153.000000	65.572071 
7152.000000	65.407824 
7151.000000	65.084099 
7150.000000	64.654612 
7149.000000	64.186358 
7148.000000	63.751673 
7147.000000	63.415741 
7146.000000	63.226008 
7145.000000	63.205718 
7144.000000	63.344526 
7143.000000	63.601589 
7142.000000	63.911724 
7141.000000	64.199972 
7140.000000	64.393734 
7139.000000	64.441156 
7138.000000	64.319348 
7137.000000	64.042758 
7136.000000	63.655853 
7135.000000	63.227105 
7134.000000	62.829923 
7133.000000	62.531089 
7132.000000	62.377619 
7131.000000	62.389898 
7130.000000	62.561464 
7129.000000	62.862014 
7128.000000	63.249087 
7127.000000	63.673520 
7126.000000	64.087963 
7125.000000	64.453959 
7124.000000	64.742660 
7123.000000	64.940357 
7122.000000	65.042567 
7121.000000	65.061807 
7120.000000	65.021729 
7119.000000	64.958024 
7118.000000	64.911127 
7117.000000	64.914584 
7116.000000	64.985966 
7115.000000	65.122652 
7114.000000	65.299677 
7113.000000	65.471720 
7112.000000	65.583491 
7111.000000	65.583395 
7110.000000	65.437054 
7109.000000	65.139436 
7108.000000	64.715957 
7107.000000	64.216732 
7106.000000	63.705277 
7105.000000	63.242650 
7104.000000	62.876081 
7103.000000	62.627291 
7102.000000	62.495446 
7101.000000	62.461066 
7100.000000	62.496662 
7099.000000	62.576746 
7098.000000	62.683916 
7097.000000	62.809085 
7096.000000	62.951803 
7095.000000	63.110995 
7094.000000	63.286828 
7093.000000	63.473629 
7092.000000	63.664746 
7091.000000	63.851475 
7090.000000	64.028596 
7089.000000	64.194059 
7088.000000	64.348530 
7087.000000	64.491462 
7086.000000	64.617896 
7085.000000	64.715576 
7084.000000	64.764809 
7083.000000	64.742517 
7082.000000	64.632129 
7081.000000	64.427161 
7080.000000	64.138913 
7079.000000	63.792085 
7078.000000	63.421678 
7077.000000	63.064622 
7076.000000	62.750840 
7075.000000	62.501597 
7074.000000	62.321734 
7073.000000	62.211704 
7072.000000	62.168645 
7071.000000	62.196302 
7070.000000	62.303638 
7069.000000	62.506008 
7068.000000	62.817645 
7067.000000	63.241744 
7066.000000	63.761782 
7065.000000	64.337253 
7064.000000	64.905571 
7063.000000	65.394210 
7062.000000	65.733647 
7061.000000	65.872120 
7060.000000	65.785527 
7059.000000	65.482401 
7058.000000	65.000486 
7057.000000	64.397740 
7056.000000	63.740944 
7055.000000	63.093876 
7054.000000	62.508630 
7053.000000	62.024450 
7052.000000	61.664295 
7051.000000	61.437439 
7050.000000	61.342811 
7049.000000	61.370062 
7048.000000	61.506152 
7047.000000	61.731624 
7046.000000	62.028765 
7045.000000	62.372517 
7044.000000	62.742805 
7043.000000	63.119840 
7042.000000	63.489389 
7041.000000	63.840508 
7040.000000	64.162254 
7039.000000	64.442229 
7038.000000	64.661884 
7037.000000	64.798736 
7036.000000	64.828896 
7035.000000	64.734578 
7034.000000	64.510345 
7033.000000	64.170074 
7032.000000	63.750720 
7031.000000	63.309764 
7030.000000	62.915897 
7029.000000	62.636590 
7028.000000	62.527322 
7027.000000	62.615180 
7026.000000	62.897944 
7025.000000	63.334393 
7024.000000	63.849878 
7023.000000	64.349842 
7022.000000	64.739489 
7021.000000	64.943718 
7020.000000	64.920377 
7019.000000	64.671802 
7018.000000	64.240789 
7017.000000	63.701462 
7016.000000	63.140296 
7015.000000	62.638521 
7014.000000	62.254452 
7013.000000	62.019085 
7012.000000	61.936402 
7011.000000	61.985993 
7010.000000	62.133646 
7009.000000	62.334203 
7008.000000	62.542605 
7007.000000	62.714600 
7006.000000	62.816381 
7005.000000	62.827157 
7004.000000	62.746167 
7003.000000	62.591075 
7002.000000	62.397718 
7001.000000	62.213063 
7000.000000	62.085390 
6999.000000	62.057065 
6998.000000	62.150382 
6997.000000	62.365055 
6996.000000	62.672233 
6995.000000	63.023161 
6994.000000	63.355231 
6993.000000	63.608121 
6992.000000	63.733911 
6991.000000	63.705563 
6990.000000	63.524484 
6989.000000	63.218188 
6988.000000	62.835955 
6987.000000	62.435984 
6986.000000	62.078142 
6985.000000	61.811685 
6984.000000	61.671566 
6983.000000	61.674833 
6982.000000	61.815047 
6981.000000	62.065768 
6980.000000	62.386989 
6979.000000	62.733817 
6978.000000	63.062334 
6977.000000	63.338065 
6976.000000	63.540029 
6975.000000	63.661813 
6974.000000	63.709449 
6973.000000	63.695001 
6972.000000	63.633489 
6971.000000	63.534307 
6970.000000	63.402533 
6969.000000	63.234901 
6968.000000	63.027381 
6967.000000	62.775731 
6966.000000	62.483000 
6965.000000	62.160348 
6964.000000	61.828422 
6963.000000	61.514925 
6962.000000	61.248517 
6961.000000	61.055707 
6960.000000	60.952973 
6959.000000	60.948657 
