PE IR       SPECTRUM    SPECTRUM    ASCII       PEDS        1.60        
  -1
C-9AEE~1.ASC
17/05/02
13:01:56.00
17/05/02
13:01:56.00
tln
$C-4040-8_t0025$<tbV0>[12.5,7.0,8.0,0.0,22,1,0]
370.000000
64









2002,4.07    
MIRTGS : RIGHTBACK : INTERNAL 2
MIR : ON : INTERNAL 2
OPTKBR

0.200000
8
8.000000
FILLER
RATIO
SPECTRUM
UNLOCKED 256

DOUBLE
64
COMBINED
1
0
0


1.000000
RATIO


1
0
TRUE
51149
0
LEFT NOT FITTED RIGHT NOT FITTED 0
NONE
NONE
15600
12.000000
4.427000
51148
TRUE
1 0 8 72 0 0 0 0 

15798.010000






#HDR
-1
-1
#GR
CM-1
%T
0.00002384185791015625
0.0
7800.000000
-1.000000
7431
8
79.564881
22.636389
#DATA
7800.000000	78.243732 
7799.000000	78.581166 
7798.000000	78.032827 
7797.000000	76.715564 
7796.000000	74.849843 
7795.000000	72.719502 
7794.000000	70.610737 
7793.000000	68.764328 
7792.000000	67.336773 
7791.000000	66.392302 
7790.000000	65.930938 
7789.000000	65.911388 
7788.000000	66.273236 
7787.000000	66.954779 
7786.000000	67.892909 
7785.000000	69.022917 
7784.000000	70.252752 
7783.000000	71.473813 
7782.000000	72.550368 
7781.000000	73.354768 
7780.000000	73.775744 
7779.000000	73.760771 
7778.000000	73.346209 
7777.000000	72.635412 
7776.000000	71.792578 
7775.000000	70.979714 
7774.000000	70.333790 
7773.000000	69.907426 
7772.000000	69.671654 
7771.000000	69.510364 
7770.000000	69.263291 
7769.000000	68.777370 
7768.000000	67.961597 
7767.000000	66.821813 
7766.000000	65.469932 
7765.000000	64.099526 
7764.000000	62.939977 
7763.000000	62.205004 
7762.000000	62.039828 
7761.000000	62.483596 
7760.000000	63.461208 
7759.000000	64.810967 
7758.000000	66.318511 
7757.000000	67.761516 
7756.000000	68.959116 
7755.000000	69.786572 
7754.000000	70.209646 
7753.000000	70.276284 
7752.000000	70.098114 
7751.000000	69.807386 
7750.000000	69.526624 
7749.000000	69.344973 
7748.000000	69.296193 
7747.000000	69.363188 
7746.000000	69.497346 
7745.000000	69.653558 
7744.000000	69.803261 
7743.000000	69.952225 
7742.000000	70.134115 
7741.000000	70.397806 
7740.000000	70.787358 
7739.000000	71.321296 
7738.000000	71.989417 
7737.000000	72.748017 
7736.000000	73.539280 
7735.000000	74.297809 
7734.000000	74.960875 
7733.000000	75.471401 
7732.000000	75.798940 
7731.000000	75.925111 
7730.000000	75.835490 
7729.000000	75.514984 
7728.000000	74.961972 
7727.000000	74.180483 
7726.000000	73.198175 
7725.000000	72.053337 
7724.000000	70.816588 
7723.000000	69.555401 
7722.000000	68.335962 
7721.000000	67.196273 
7720.000000	66.146945 
7719.000000	65.168070 
7718.000000	64.221215 
7717.000000	63.266515 
7716.000000	62.277674 
7715.000000	61.257672 
7714.000000	60.240983 
7713.000000	59.290575 
7712.000000	58.482527 
7711.000000	57.909560 
7710.000000	57.663631 
7709.000000	57.817649 
7708.000000	58.413505 
7707.000000	59.452414 
7706.000000	60.896873 
7705.000000	62.656116 
7704.000000	64.613890 
7703.000000	66.642689 
7702.000000	68.631458 
7701.000000	70.488548 
7700.000000	72.160434 
7699.000000	73.628807 
7698.000000	74.902081 
7697.000000	76.010799 
7696.000000	76.978445 
7695.000000	77.821850 
7694.000000	78.527235 
7693.000000	79.080462 
7692.000000	79.439735 
7691.000000	79.564881 
7690.000000	79.419779 
7689.000000	79.004144 
7688.000000	78.342723 
7687.000000	77.492880 
7686.000000	76.536893 
7685.000000	75.572061 
7684.000000	74.686861 
7683.000000	73.944735 
7682.000000	73.374795 
7681.000000	72.966599 
7680.000000	72.672963 
7679.000000	72.424435 
7678.000000	72.143387 
7677.000000	71.768999 
7676.000000	71.269822 
7675.000000	70.658087 
7674.000000	69.973683 
7673.000000	69.286489 
7672.000000	68.674850 
7671.000000	68.212366 
7670.000000	67.937588 
7669.000000	67.860770 
7668.000000	67.967605 
7667.000000	68.218922 
7666.000000	68.558311 
7665.000000	68.925142 
7664.000000	69.265723 
7663.000000	69.537568 
7662.000000	69.706988 
7661.000000	69.764184 
7660.000000	69.719696 
7659.000000	69.602227 
7658.000000	69.449830 
7657.000000	69.299983 
7656.000000	69.180798 
7655.000000	69.107031 
7654.000000	69.079971 
7653.000000	69.086790 
7652.000000	69.111037 
7651.000000	69.143557 
7650.000000	69.189071 
7649.000000	69.265365 
7648.000000	69.399785 
7647.000000	69.618940 
7646.000000	69.938611 
7645.000000	70.354080 
7644.000000	70.835900 
7643.000000	71.338772 
7642.000000	71.800613 
7641.000000	72.157406 
7640.000000	72.351431 
7639.000000	72.353458 
7638.000000	72.153401 
7637.000000	71.765255 
7636.000000	71.216940 
7635.000000	70.546913 
7634.000000	69.795966 
7633.000000	69.004893 
7632.000000	68.215918 
7631.000000	67.473077 
7630.000000	66.827678 
7629.000000	66.332721 
7628.000000	66.037654 
7627.000000	65.972900 
7626.000000	66.130757 
7625.000000	66.461873 
7624.000000	66.870045 
7623.000000	67.239618 
7622.000000	67.454957 
7621.000000	67.440867 
7620.000000	67.175269 
7619.000000	66.709041 
7618.000000	66.149878 
7617.000000	65.643072 
7616.000000	65.328598 
7615.000000	65.311479 
7614.000000	65.637850 
7613.000000	66.277790 
7612.000000	67.136597 
7611.000000	68.072223 
7610.000000	68.932914 
7609.000000	69.588041 
7608.000000	69.956111 
7607.000000	70.021486 
7606.000000	69.829392 
7605.000000	69.478464 
7604.000000	69.091916 
7603.000000	68.788456 
7602.000000	68.652296 
7601.000000	68.724966 
7600.000000	68.995642 
7599.000000	69.409346 
7598.000000	69.880700 
7597.000000	70.315980 
7596.000000	70.634269 
7595.000000	70.786786 
7594.000000	70.763039 
7593.000000	70.584917 
7592.000000	70.297598 
7591.000000	69.958424 
7590.000000	69.615459 
7589.000000	69.296479 
7588.000000	69.003605 
7587.000000	68.719768 
7586.000000	68.419742 
7585.000000	68.084502 
7584.000000	67.716360 
7583.000000	67.340373 
7582.000000	67.011404 
7581.000000	66.797327 
7580.000000	66.771984 
7579.000000	66.992378 
7578.000000	67.480468 
7577.000000	68.208742 
7576.000000	69.100046 
7575.000000	70.036149 
7574.000000	70.875644 
7573.000000	71.478629 
7572.000000	71.735310 
7571.000000	71.582937 
7570.000000	71.022963 
7569.000000	70.110964 
7568.000000	68.940353 
7567.000000	67.622184 
7566.000000	66.264414 
7565.000000	64.960122 
7564.000000	63.783836 
7563.000000	62.789869 
7562.000000	62.019515 
7561.000000	61.500978 
7560.000000	61.246919 
7559.000000	61.258888 
7558.000000	61.515069 
7557.000000	61.981558 
7556.000000	62.602972 
7555.000000	63.315868 
7554.000000	64.047789 
7553.000000	64.728689 
7552.000000	65.294051 
7551.000000	65.694952 
7550.000000	65.901589 
7549.000000	65.908789 
7548.000000	65.735793 
7547.000000	65.425848 
7546.000000	65.038394 
7545.000000	64.644742 
7544.000000	64.312958 
7543.000000	64.098000 
7542.000000	64.029431 
7541.000000	64.111590 
7540.000000	64.321279 
7539.000000	64.612412 
7538.000000	64.931011 
7537.000000	65.225100 
7536.000000	65.460491 
7535.000000	65.628409 
7534.000000	65.741658 
7533.000000	65.820455 
7532.000000	65.889191 
7531.000000	65.967988 
7530.000000	66.063547 
7529.000000	66.165852 
7528.000000	66.255950 
7527.000000	66.315579 
7526.000000	66.332411 
7525.000000	66.307592 
7524.000000	66.251802 
7523.000000	66.182208 
7522.000000	66.116023 
7521.000000	66.063642 
7520.000000	66.020250 
7519.000000	65.964913 
7518.000000	65.868663 
7517.000000	65.699934 
7516.000000	65.435910 
7515.000000	65.067982 
7514.000000	64.603328 
7513.000000	64.068651 
7512.000000	63.500356 
7511.000000	62.948894 
7510.000000	62.463331 
7509.000000	62.095713 
7508.000000	61.890101 
7507.000000	61.880898 
7506.000000	62.082695 
7505.000000	62.489748 
7504.000000	63.071227 
7503.000000	63.776063 
7502.000000	64.538431 
7501.000000	65.283370 
7500.000000	65.935611 
7499.000000	66.429209 
7498.000000	66.716051 
7497.000000	66.772532 
7496.000000	66.602110 
7495.000000	66.238451 
7494.000000	65.738391 
7493.000000	65.174794 
7492.000000	64.621686 
7491.000000	64.140415 
7490.000000	63.769483 
7489.000000	63.520312 
7488.000000	63.382458 
7487.000000	63.328528 
7486.000000	63.333368 
7485.000000	63.378024 
7484.000000	63.466572 
7483.000000	63.620829 
7482.000000	63.876581 
7481.000000	64.267945 
7480.000000	64.809989 
7479.000000	65.482711 
7478.000000	66.228938 
7477.000000	66.962575 
7476.000000	67.582869 
7475.000000	67.999267 
7474.000000	68.149685 
7473.000000	68.019747 
7472.000000	67.638516 
7471.000000	67.073512 
7470.000000	66.410636 
7469.000000	65.735721 
7468.000000	65.122961 
7467.000000	64.623713 
7466.000000	64.265775 
7465.000000	64.053320 
7464.000000	63.972735 
7463.000000	63.997817 
7462.000000	64.095830 
7461.000000	64.233827 
7460.000000	64.373850 
7459.000000	64.486336 
7458.000000	64.544105 
7457.000000	64.538073 
7456.000000	64.473176 
7455.000000	64.374566 
7454.000000	64.277791 
7453.000000	64.225292 
7452.000000	64.257168 
7451.000000	64.399147 
7450.000000	64.653992 
7449.000000	65.001583 
7448.000000	65.403842 
7447.000000	65.811967 
7446.000000	66.178154 
7445.000000	66.463994 
7444.000000	66.648364 
7443.000000	66.726541 
7442.000000	66.709041 
7441.000000	66.616797 
7440.000000	66.476488 
7439.000000	66.317844 
7438.000000	66.169905 
7437.000000	66.061234 
7436.000000	66.014313 
7435.000000	66.050124 
7434.000000	66.176009 
7433.000000	66.384983 
7432.000000	66.647696 
7431.000000	66.915941 
7430.000000	67.128539 
7429.000000	67.222690 
7428.000000	67.150592 
7427.000000	66.889357 
7426.000000	66.453051 
7425.000000	65.891313 
7424.000000	65.282464 
7423.000000	64.716076 
7422.000000	64.275670 
7421.000000	64.021587 
7420.000000	63.977909 
7419.000000	64.128756 
7418.000000	64.426136 
7417.000000	64.804363 
7416.000000	65.192341 
7415.000000	65.528440 
7414.000000	65.770173 
7413.000000	65.898346 
7412.000000	65.912508 
7411.000000	65.825796 
7410.000000	65.656590 
7409.000000	65.423583 
7408.000000	65.145874 
7407.000000	64.840388 
7406.000000	64.525246 
7405.000000	64.218187 
7404.000000	63.941907 
7403.000000	63.717746 
7402.000000	63.561916 
7401.000000	63.482379 
7400.000000	63.477563 
7399.000000	63.534808 
7398.000000	63.631510 
7397.000000	63.738417 
7396.000000	63.826584 
7395.000000	63.868021 
7394.000000	63.839387 
7393.000000	63.725209 
7392.000000	63.519787 
7391.000000	63.228964 
7390.000000	62.868452 
7389.000000	62.468647 
7388.000000	62.070536 
7387.000000	61.725378 
7386.000000	61.485838 
7385.000000	61.396288 
7384.000000	61.482191 
7383.000000	61.740970 
7382.000000	62.142658 
7381.000000	62.627553 
7380.000000	63.126349 
7379.000000	63.574361 
7378.000000	63.931989 
7377.000000	64.189529 
7376.000000	64.371538 
7375.000000	64.525008 
7374.000000	64.704895 
7373.000000	64.953780 
7372.000000	65.289759 
7371.000000	65.703082 
7370.000000	66.154980 
7369.000000	66.593861 
7368.000000	66.963076 
7367.000000	67.221665 
7366.000000	67.347216 
7365.000000	67.343688 
7364.000000	67.233514 
7363.000000	67.050600 
7362.000000	66.830921 
7361.000000	66.604590 
7360.000000	66.393613 
7359.000000	66.209244 
7358.000000	66.059589 
7357.000000	65.948009 
7356.000000	65.870046 
7355.000000	65.812659 
7354.000000	65.755844 
7353.000000	65.674281 
7352.000000	65.543055 
7351.000000	65.340995 
7350.000000	65.055942 
7349.000000	64.686036 
7348.000000	64.242959 
7347.000000	63.747334 
7346.000000	63.221597 
7345.000000	62.690615 
7344.000000	62.178635 
7343.000000	61.707997 
7342.000000	61.296820 
7341.000000	60.959649 
7340.000000	60.705757 
7339.000000	60.539174 
7338.000000	60.454916 
7337.000000	60.444903 
7336.000000	60.497498 
7335.000000	60.601091 
7334.000000	60.743665 
7333.000000	60.924744 
7332.000000	61.152505 
7331.000000	61.442947 
7330.000000	61.809778 
7329.000000	62.254023 
7328.000000	62.754917 
7327.000000	63.270092 
7326.000000	63.738465 
7325.000000	64.089822 
7324.000000	64.261364 
7323.000000	64.218831 
7322.000000	63.963484 
7321.000000	63.532471 
7320.000000	62.994575 
7319.000000	62.438631 
7318.000000	61.953759 
7317.000000	61.611461 
7316.000000	61.451792 
7315.000000	61.484718 
7314.000000	61.680912 
7313.000000	61.983346 
7312.000000	62.317490 
7311.000000	62.611556 
7310.000000	62.802314 
7309.000000	62.845444 
7308.000000	62.721920 
7307.000000	62.438201 
7306.000000	62.026476 
7305.000000	61.538314 
7304.000000	61.038303 
7303.000000	60.594367 
7302.000000	60.270833 
7301.000000	60.119152 
7300.000000	60.167407 
7299.000000	60.419011 
7298.000000	60.855126 
7297.000000	61.438918 
7296.000000	62.115168 
7295.000000	62.825417 
7294.000000	63.511633 
7293.000000	64.130735 
7292.000000	64.652395 
7291.000000	65.069341 
7290.000000	65.391039 
7289.000000	65.642786 
7288.000000	65.859103 
7287.000000	66.071605 
7286.000000	66.303753 
7285.000000	66.561865 
7284.000000	66.839671 
7283.000000	67.113971 
7282.000000	67.354631 
7281.000000	67.530846 
7280.000000	67.621040 
7279.000000	67.618680 
7278.000000	67.532920 
7277.000000	67.384028 
7276.000000	67.194318 
7275.000000	66.977334 
7274.000000	66.733098 
7273.000000	66.447687 
7272.000000	66.102504 
7271.000000	65.682816 
7270.000000	65.192937 
7269.000000	64.662528 
7268.000000	64.147305 
7267.000000	63.721513 
7266.000000	63.457846 
7265.000000	63.405871 
7264.000000	63.577795 
7263.000000	63.939929 
7262.000000	64.419341 
7261.000000	64.915084 
7260.000000	65.327930 
7259.000000	65.582394 
7258.000000	65.645337 
7257.000000	65.531754 
7256.000000	65.293288 
7255.000000	64.999771 
7254.000000	64.717197 
7253.000000	64.488792 
7252.000000	64.329814 
7251.000000	64.228534 
7250.000000	64.160394 
7249.000000	64.100193 
7248.000000	64.036560 
7247.000000	63.975000 
7246.000000	63.934087 
7245.000000	63.936495 
7244.000000	63.994550 
7243.000000	64.104819 
7242.000000	64.240503 
7241.000000	64.363622 
7240.000000	64.430022 
7239.000000	64.412760 
7238.000000	64.309859 
7237.000000	64.154291 
7236.000000	64.004850 
7235.000000	63.936996 
7234.000000	64.021086 
7233.000000	64.304161 
7232.000000	64.793181 
7231.000000	65.452694 
7230.000000	66.210985 
7229.000000	66.976428 
7228.000000	67.659449 
7227.000000	68.188452 
7226.000000	68.523740 
7225.000000	68.659973 
7224.000000	68.621540 
7223.000000	68.450307 
7222.000000	68.191766 
7221.000000	67.885088 
7220.000000	67.555212 
7219.000000	67.217421 
7218.000000	66.877818 
7217.000000	66.544032 
7216.000000	66.227388 
7215.000000	65.947151 
7214.000000	65.728235 
7213.000000	65.593457 
7212.000000	65.561366 
7211.000000	65.635323 
7210.000000	65.807342 
7209.000000	66.054177 
7208.000000	66.346263 
7207.000000	66.650533 
7206.000000	66.938495 
7205.000000	67.190194 
7204.000000	67.394113 
7203.000000	67.545342 
7202.000000	67.643570 
7201.000000	67.690467 
7200.000000	67.685365 
7199.000000	67.624568 
7198.000000	67.503571 
7197.000000	67.319536 
7196.000000	67.072582 
7195.000000	66.768598 
7194.000000	66.421341 
7193.000000	66.053032 
7192.000000	65.689539 
7191.000000	65.360403 
7190.000000	65.093374 
7189.000000	64.913916 
7188.000000	64.838814 
7187.000000	64.877367 
7186.000000	65.027141 
7185.000000	65.276837 
7184.000000	65.606307 
7183.000000	65.988731 
7182.000000	66.391491 
7181.000000	66.779470 
7180.000000	67.119765 
7179.000000	67.381072 
7178.000000	67.536592 
7177.000000	67.567396 
7176.000000	67.465972 
7175.000000	67.239475 
7174.000000	66.910791 
7173.000000	66.517972 
7172.000000	66.109490 
7171.000000	65.738606 
7170.000000	65.453386 
7169.000000	65.286469 
7168.000000	65.246534 
7167.000000	65.316176 
7166.000000	65.454316 
7165.000000	65.601062 
7164.000000	65.694355 
7163.000000	65.682864 
7162.000000	65.543127 
7161.000000	65.281152 
7160.000000	64.937973 
7159.000000	64.573192 
7158.000000	64.259028 
7157.000000	64.058613 
7156.000000	64.017844 
7155.000000	64.154338 
7154.000000	64.456605 
7153.000000	64.888858 
7152.000000	65.398573 
7151.000000	65.929007 
7150.000000	66.427588 
7149.000000	66.853404 
7148.000000	67.181372 
7147.000000	67.401361 
7146.000000	67.513942 
7145.000000	67.524695 
7144.000000	67.436408 
7143.000000	67.245864 
7142.000000	66.945528 
7141.000000	66.527581 
7140.000000	65.989184 
7139.000000	65.340018 
7138.000000	64.608311 
7137.000000	63.842368 
7136.000000	63.103389 
7135.000000	62.459492 
7134.000000	61.972832 
7133.000000	61.689949 
7132.000000	61.628293 
7131.000000	61.776781 
7130.000000	62.093925 
7129.000000	62.520551 
7128.000000	62.986564 
7127.000000	63.429236 
7126.000000	63.796854 
7125.000000	64.064145 
7124.000000	64.229345 
7123.000000	64.312458 
7122.000000	64.342212 
7121.000000	64.350938 
7120.000000	64.365315 
7119.000000	64.397740 
7118.000000	64.444923 
7117.000000	64.490580 
7116.000000	64.512395 
7115.000000	64.487409 
7114.000000	64.401435 
7113.000000	64.250540 
7112.000000	64.048147 
7111.000000	63.821506 
7110.000000	63.613057 
7109.000000	63.470506 
7108.000000	63.440799 
7107.000000	63.564205 
7106.000000	63.859844 
7105.000000	64.321017 
7104.000000	64.906883 
7103.000000	65.555500 
7102.000000	66.180801 
7101.000000	66.688966 
7100.000000	66.992664 
7099.000000	67.030048 
7098.000000	66.775918 
7097.000000	66.249394 
7096.000000	65.508961 
7095.000000	64.642453 
7094.000000	63.749623 
7093.000000	62.925934 
7092.000000	62.244224 
7091.000000	61.745929 
7090.000000	61.442661 
7089.000000	61.321973 
7088.000000	61.354804 
7087.000000	61.506056 
7086.000000	61.738586 
7085.000000	62.021446 
7084.000000	62.322783 
7083.000000	62.618899 
7082.000000	62.888121 
7081.000000	63.119244 
7080.000000	63.306760 
7079.000000	63.455748 
7078.000000	63.579225 
7077.000000	63.694596 
7076.000000	63.823366 
7075.000000	63.979363 
7074.000000	64.167165 
7073.000000	64.375996 
7072.000000	64.585161 
7071.000000	64.764666 
7070.000000	64.886808 
7069.000000	64.927649 
7068.000000	64.876556 
7067.000000	64.732670 
7066.000000	64.505624 
7065.000000	64.212560 
7064.000000	63.875889 
7063.000000	63.519263 
7062.000000	63.165402 
7061.000000	62.839961 
7060.000000	62.568235 
7059.000000	62.369704 
7058.000000	62.255811 
7057.000000	62.225937 
7056.000000	62.269878 
7055.000000	62.367177 
7054.000000	62.496471 
7053.000000	62.632870 
7052.000000	62.762117 
7051.000000	62.882447 
7050.000000	63.006234 
7049.000000	63.152909 
7048.000000	63.342046 
7047.000000	63.583970 
7046.000000	63.873815 
7045.000000	64.187955 
7044.000000	64.491438 
7043.000000	64.747858 
7042.000000	64.927387 
7041.000000	65.016126 
7040.000000	65.018296 
7039.000000	64.956116 
7038.000000	64.861035 
7037.000000	64.765357 
7036.000000	64.697623 
7035.000000	64.675688 
7034.000000	64.707541 
7033.000000	64.788866 
7032.000000	64.902663 
7031.000000	65.021824 
7030.000000	65.117645 
7029.000000	65.163731 
7028.000000	65.135979 
7027.000000	65.022063 
7026.000000	64.822840 
7025.000000	64.557099 
7024.000000	64.259862 
7023.000000	63.974928 
7022.000000	63.748693 
7021.000000	63.614726 
7020.000000	63.590216 
7019.000000	63.663530 
7018.000000	63.797998 
7017.000000	63.937163 
7016.000000	64.020109 
7015.000000	63.993620 
7014.000000	63.826608 
7013.000000	63.514423 
7012.000000	63.079142 
7011.000000	62.565803 
7010.000000	62.032079 
7009.000000	61.541438 
7008.000000	61.153221 
7007.000000	60.916972 
7006.000000	60.867071 
7005.000000	61.023592 
7004.000000	61.388063 
7003.000000	61.943554 
7002.000000	62.651610 
7001.000000	63.452386 
7000.000000	64.269018 
6999.000000	65.014481 
6998.000000	65.605545 
6997.000000	65.974497 
6996.000000	66.082954 
6995.000000	65.931820 
6994.000000	65.558624 
6993.000000	65.029478 
6992.000000	64.428853 
6991.000000	63.845109 
6990.000000	63.357973 
6989.000000	63.028860 
6988.000000	62.894487 
6987.000000	62.967586 
6986.000000	63.236165 
6985.000000	63.670468 
6984.000000	64.221572 
6983.000000	64.828205 
6982.000000	65.421676 
6981.000000	65.934967 
6980.000000	66.308140 
6979.000000	66.499447 
6978.000000	66.493129 
6977.000000	66.304349 
6976.000000	65.980052 
6975.000000	65.589618 
6974.000000	65.211749 
6973.000000	64.918589 
6972.000000	64.763259 
6971.000000	64.770102 
6970.000000	64.938473 
6969.000000	65.240120 
6968.000000	65.631437 
6967.000000	66.057729 
6966.000000	66.468596 
6965.000000	66.817927 
6964.000000	67.068505 
6963.000000	67.193818 
6962.000000	67.178559 
6961.000000	67.019033 
6960.000000	66.724920 
6959.000000	66.313147 
