PE IR       SPECTRUM    SPECTRUM    ASCII       PEDS        1.60        
  -1
C-1AEF~1.ASC
17/05/02
12:17:20.00
17/05/02
12:17:20.00
tln
$C-4040-8_t0017$<tbV0>[-7.5,-3.0,8.0,0.0,22,1,0]
370.000000
64









2002,4.07    
MIRTGS : RIGHTBACK : INTERNAL 2
MIR : ON : INTERNAL 2
OPTKBR

0.200000
8
8.000000
FILLER
RATIO
SPECTRUM
UNLOCKED 256

DOUBLE
64
COMBINED
1
0
0


1.000000
RATIO


1
0
TRUE
51149
0
LEFT NOT FITTED RIGHT NOT FITTED 0
NONE
NONE
15600
12.000000
4.427000
51148
TRUE
1 0 8 72 0 0 0 0 

15798.010000






#HDR
-1
-1
#GR
CM-1
%T
0.00002384185791015625
0.0
7800.000000
-1.000000
7431
8
85.746288
46.251058
#DATA
7800.000000	73.489522 
7799.000000	73.712635 
7798.000000	73.628258 
7797.000000	73.297739 
7796.000000	72.829127 
7795.000000	72.351717 
7794.000000	71.990180 
7793.000000	71.834373 
7792.000000	71.913456 
7791.000000	72.184276 
7790.000000	72.543716 
7789.000000	72.845125 
7788.000000	72.924208 
7787.000000	72.635316 
7786.000000	71.879506 
7785.000000	70.636248 
7784.000000	68.964719 
7783.000000	67.008543 
7782.000000	64.965844 
7781.000000	63.060474 
7780.000000	61.502766 
7779.000000	60.445547 
7778.000000	59.961724 
7777.000000	60.025143 
7776.000000	60.517072 
7775.000000	61.260581 
7774.000000	62.045621 
7773.000000	62.702441 
7772.000000	63.121891 
7771.000000	63.298225 
7770.000000	63.305234 
7769.000000	63.289785 
7768.000000	63.416028 
7767.000000	63.821482 
7766.000000	64.568901 
7765.000000	65.634775 
7764.000000	66.907000 
7763.000000	68.215966 
7762.000000	69.369029 
7761.000000	70.184683 
7760.000000	70.536136 
7759.000000	70.368814 
7758.000000	69.723987 
7757.000000	68.727469 
7756.000000	67.572736 
7755.000000	66.481733 
7754.000000	65.662980 
7753.000000	65.271520 
7752.000000	65.382051 
7751.000000	65.987324 
7750.000000	67.001557 
7749.000000	68.286395 
7748.000000	69.681572 
7747.000000	71.047449 
7746.000000	72.268390 
7745.000000	73.259162 
7744.000000	73.967814 
7743.000000	74.364042 
7742.000000	74.445629 
7741.000000	74.232625 
7740.000000	73.767495 
7739.000000	73.111367 
7738.000000	72.340774 
7737.000000	71.538782 
7736.000000	70.785284 
7735.000000	70.142126 
7734.000000	69.647693 
7733.000000	69.305777 
7732.000000	69.085001 
7731.000000	68.925642 
7730.000000	68.752336 
7729.000000	68.498587 
7728.000000	68.106985 
7727.000000	67.567515 
7726.000000	66.912102 
7725.000000	66.229772 
7724.000000	65.632605 
7723.000000	65.249681 
7722.000000	65.192651 
7721.000000	65.528512 
7720.000000	66.259384 
7719.000000	67.312765 
7718.000000	68.554639 
7717.000000	69.809222 
7716.000000	70.891690 
7715.000000	71.654057 
7714.000000	72.015070 
7713.000000	71.973466 
7712.000000	71.601700 
7711.000000	71.020269 
7710.000000	70.363402 
7709.000000	69.750189 
7708.000000	69.258117 
7707.000000	68.916034 
7706.000000	68.703126 
7705.000000	68.583250 
7704.000000	68.507909 
7703.000000	68.435573 
7702.000000	68.331766 
7701.000000	68.174958 
7700.000000	67.949604 
7699.000000	67.636775 
7698.000000	67.218947 
7697.000000	66.674709 
7696.000000	65.996527 
7695.000000	65.197086 
7694.000000	64.317488 
7693.000000	63.424801 
7692.000000	62.603521 
7691.000000	61.938047 
7690.000000	61.497521 
7689.000000	61.315894 
7688.000000	61.394333 
7687.000000	61.699032 
7686.000000	62.177491 
7685.000000	62.769961 
7684.000000	63.422942 
7683.000000	64.097118 
7682.000000	64.769196 
7681.000000	65.428972 
7680.000000	66.071796 
7679.000000	66.689825 
7678.000000	67.271447 
7677.000000	67.792701 
7676.000000	68.222498 
7675.000000	68.520522 
7674.000000	68.658828 
7673.000000	68.614768 
7672.000000	68.386960 
7671.000000	67.985796 
7670.000000	67.442154 
7669.000000	66.794228 
7668.000000	66.086030 
7667.000000	65.361857 
7666.000000	64.663743 
7665.000000	64.032673 
7664.000000	63.501787 
7663.000000	63.110756 
7662.000000	62.897944 
7661.000000	62.912130 
7660.000000	63.199496 
7659.000000	63.799571 
7658.000000	64.727163 
7657.000000	65.956163 
7656.000000	67.410945 
7655.000000	68.965697 
7654.000000	70.460772 
7653.000000	71.736192 
7652.000000	72.658181 
7651.000000	73.148417 
7650.000000	73.192715 
7649.000000	72.845005 
7648.000000	72.205519 
7647.000000	71.400284 
7646.000000	70.549464 
7645.000000	69.755721 
7644.000000	69.081854 
7643.000000	68.561196 
7642.000000	68.192291 
7641.000000	67.959523 
7640.000000	67.838549 
7639.000000	67.810082 
7638.000000	67.861819 
7637.000000	67.982673 
7636.000000	68.166637 
7635.000000	68.401765 
7634.000000	68.672895 
7633.000000	68.956136 
7632.000000	69.223880 
7631.000000	69.446539 
7630.000000	69.598627 
7629.000000	69.663095 
7628.000000	69.629311 
7627.000000	69.495797 
7626.000000	69.277334 
7625.000000	69.001102 
7624.000000	68.700742 
7623.000000	68.409347 
7622.000000	68.161201 
7621.000000	67.979001 
7620.000000	67.866373 
7619.000000	67.810583 
7618.000000	67.786097 
7617.000000	67.767071 
7616.000000	67.731165 
7615.000000	67.674994 
7614.000000	67.609810 
7613.000000	67.568063 
7612.000000	67.594027 
7611.000000	67.728757 
7610.000000	67.995142 
7609.000000	68.385410 
7608.000000	68.861413 
7607.000000	69.349384 
7606.000000	69.755125 
7605.000000	69.982767 
7604.000000	69.957876 
7603.000000	69.646120 
7602.000000	69.062209 
7601.000000	68.267631 
7600.000000	67.355322 
7599.000000	66.427087 
7598.000000	65.571546 
7597.000000	64.846086 
7596.000000	64.272117 
7595.000000	63.841700 
7594.000000	63.528299 
7593.000000	63.305926 
7592.000000	63.156795 
7591.000000	63.068532 
7590.000000	63.042593 
7589.000000	63.074803 
7588.000000	63.168287 
7587.000000	63.314914 
7586.000000	63.511157 
7585.000000	63.747406 
7584.000000	64.022350 
7583.000000	64.340305 
7582.000000	64.709043 
7581.000000	65.134382 
7580.000000	65.611267 
7579.000000	66.119456 
7578.000000	66.620945 
7577.000000	67.064833 
7576.000000	67.395782 
7575.000000	67.566537 
7574.000000	67.551159 
7573.000000	67.353343 
7572.000000	67.005014 
7571.000000	66.563749 
7570.000000	66.101646 
7569.000000	65.695095 
7568.000000	65.411114 
7567.000000	65.297293 
7566.000000	65.381383 
7565.000000	65.660977 
7564.000000	66.108608 
7563.000000	66.669440 
7562.000000	67.275118 
7561.000000	67.846488 
7560.000000	68.302845 
7559.000000	68.578147 
7558.000000	68.627977 
7557.000000	68.444395 
7556.000000	68.055343 
7555.000000	67.524361 
7554.000000	66.939449 
7553.000000	66.394186 
7552.000000	65.970420 
7551.000000	65.722060 
7550.000000	65.666985 
7549.000000	65.793013 
7548.000000	66.064429 
7547.000000	66.432118 
7546.000000	66.842555 
7545.000000	67.245960 
7544.000000	67.600083 
7543.000000	67.862272 
7542.000000	67.998361 
7541.000000	67.984461 
7540.000000	67.815804 
7539.000000	67.506742 
7538.000000	67.095613 
7537.000000	66.640043 
7536.000000	66.210603 
7535.000000	65.881109 
7534.000000	65.713238 
7533.000000	65.745210 
7532.000000	65.983271 
7531.000000	66.399240 
7530.000000	66.938805 
7529.000000	67.533659 
7528.000000	68.114638 
7527.000000	68.623661 
7526.000000	69.023251 
7525.000000	69.298839 
7524.000000	69.454240 
7523.000000	69.503331 
7522.000000	69.460368 
7521.000000	69.331169 
7520.000000	69.114542 
7519.000000	68.800830 
7518.000000	68.372988 
7517.000000	67.815566 
7516.000000	67.125558 
7515.000000	66.322207 
7514.000000	65.451073 
7513.000000	64.582633 
7512.000000	63.799643 
7511.000000	63.185214 
7510.000000	62.803959 
7509.000000	62.691259 
7508.000000	62.837004 
7507.000000	63.196849 
7506.000000	63.700652 
7505.000000	64.267158 
7504.000000	64.815855 
7503.000000	65.281987 
7502.000000	65.621566 
7501.000000	65.814280 
7500.000000	65.857386 
7499.000000	65.764236 
7498.000000	65.556049 
7497.000000	65.263819 
7496.000000	64.924812 
7495.000000	64.584279 
7494.000000	64.291453 
7493.000000	64.098119 
7492.000000	64.049148 
7491.000000	64.170861 
7490.000000	64.463305 
7489.000000	64.899134 
7488.000000	65.424466 
7487.000000	65.969538 
7486.000000	66.455769 
7485.000000	66.818666 
7484.000000	67.005300 
7483.000000	66.981601 
7482.000000	66.730976 
7481.000000	66.258525 
7480.000000	65.586400 
7479.000000	64.747977 
7478.000000	63.794946 
7477.000000	62.794709 
7476.000000	61.830687 
7475.000000	60.994696 
7474.000000	60.376095 
7473.000000	60.045242 
7472.000000	60.045337 
7471.000000	60.382390 
7470.000000	61.020088 
7469.000000	61.882138 
7468.000000	62.872695 
7467.000000	63.891267 
7466.000000	64.848589 
7465.000000	65.677928 
7464.000000	66.338729 
7463.000000	66.816473 
7462.000000	67.114019 
7461.000000	67.247724 
7460.000000	67.241001 
7459.000000	67.122888 
7458.000000	66.933226 
7457.000000	66.716027 
7456.000000	66.524982 
7455.000000	66.407847 
7454.000000	66.412043 
7453.000000	66.559815 
7452.000000	66.846823 
7451.000000	67.234015 
7450.000000	67.657685 
7449.000000	68.037843 
7448.000000	68.296360 
7447.000000	68.374705 
7446.000000	68.249821 
7445.000000	67.933011 
7444.000000	67.465782 
7443.000000	66.909241 
7442.000000	66.329765 
7441.000000	65.784215 
7440.000000	65.310001 
7439.000000	64.924049 
7438.000000	64.624547 
7437.000000	64.396810 
7436.000000	64.224028 
7435.000000	64.086699 
7434.000000	63.977551 
7433.000000	63.901925 
7432.000000	63.884067 
7431.000000	63.945746 
7430.000000	64.114189 
7429.000000	64.411401 
7428.000000	64.848995 
7427.000000	65.419483 
7426.000000	66.093516 
7425.000000	66.823863 
7424.000000	67.546391 
7423.000000	68.191838 
7422.000000	68.693804 
7421.000000	69.000720 
7420.000000	69.086146 
7419.000000	68.955755 
7418.000000	68.645095 
7417.000000	68.213272 
7416.000000	67.736959 
7415.000000	67.297577 
7414.000000	66.970872 
7413.000000	66.813254 
7412.000000	66.858673 
7411.000000	67.108750 
7410.000000	67.529702 
7409.000000	68.052887 
7408.000000	68.587708 
7407.000000	69.033122 
7406.000000	69.294357 
7405.000000	69.300436 
7404.000000	69.015717 
7403.000000	68.449187 
7402.000000	67.650532 
7401.000000	66.704964 
7400.000000	65.714764 
7399.000000	64.786720 
7398.000000	64.014458 
7397.000000	63.467311 
7396.000000	63.179492 
7395.000000	63.155388 
7394.000000	63.374233 
7393.000000	63.796925 
7392.000000	64.370036 
7391.000000	65.040373 
7390.000000	65.757727 
7389.000000	66.478157 
7388.000000	67.161178 
7387.000000	67.775154 
7386.000000	68.293690 
7385.000000	68.699812 
7384.000000	68.982553 
7383.000000	69.135117 
7382.000000	69.153356 
7381.000000	69.043922 
7380.000000	68.820452 
7379.000000	68.506312 
7378.000000	68.131113 
7377.000000	67.732477 
7376.000000	67.348432 
7375.000000	67.020916 
7374.000000	66.780591 
7373.000000	66.644620 
7372.000000	66.609025 
7371.000000	66.650366 
7370.000000	66.730284 
7369.000000	66.802501 
7368.000000	66.826963 
7367.000000	66.777229 
7366.000000	66.648864 
7365.000000	66.458773 
7364.000000	66.237950 
7363.000000	66.020894 
7362.000000	65.837454 
7361.000000	65.705084 
7360.000000	65.633678 
7359.000000	65.627527 
7358.000000	65.692806 
7357.000000	65.838027 
7356.000000	66.077589 
7355.000000	66.420269 
7354.000000	66.864204 
7353.000000	67.381834 
7352.000000	67.915272 
7351.000000	68.380331 
7350.000000	68.679881 
7349.000000	68.727159 
7348.000000	68.472623 
7347.000000	67.915058 
7346.000000	67.113494 
7345.000000	66.166734 
7344.000000	65.195775 
7343.000000	64.312171 
7342.000000	63.592815 
7341.000000	63.071632 
7340.000000	62.740707 
7339.000000	62.562918 
7338.000000	62.491583 
7337.000000	62.485480 
7336.000000	62.520551 
7335.000000	62.593817 
7334.000000	62.717628 
7333.000000	62.914109 
7332.000000	63.202905 
7331.000000	63.594770 
7330.000000	64.084601 
7329.000000	64.654111 
7328.000000	65.270805 
7327.000000	65.897417 
7326.000000	66.490054 
7325.000000	67.008852 
7324.000000	67.412805 
7323.000000	67.667627 
7322.000000	67.741751 
7321.000000	67.618131 
7320.000000	67.288875 
7319.000000	66.767144 
7318.000000	66.078925 
7317.000000	65.266275 
7316.000000	64.382410 
7315.000000	63.488554 
7314.000000	62.650847 
7313.000000	61.931729 
7312.000000	61.390209 
7311.000000	61.075305 
7310.000000	61.016631 
7309.000000	61.215734 
7308.000000	61.646699 
7307.000000	62.256264 
7306.000000	62.969923 
7305.000000	63.701391 
7304.000000	64.364528 
7303.000000	64.885354 
7302.000000	65.212965 
7301.000000	65.324473 
7300.000000	65.226554 
7299.000000	64.948916 
7298.000000	64.537286 
7297.000000	64.042401 
7296.000000	63.515400 
7295.000000	62.998819 
7294.000000	62.530040 
7293.000000	62.134575 
7292.000000	61.831927 
7291.000000	61.631846 
7290.000000	61.534976 
7289.000000	61.535882 
7288.000000	61.617469 
7287.000000	61.764383 
7286.000000	61.959671 
7285.000000	62.194800 
7284.000000	62.465929 
7283.000000	62.773394 
7282.000000	63.114333 
7281.000000	63.481688 
7280.000000	63.860726 
7279.000000	64.227414 
7278.000000	64.552092 
7277.000000	64.807891 
7276.000000	64.977860 
7275.000000	65.062379 
7274.000000	65.080142 
7273.000000	65.064954 
7272.000000	65.057539 
7271.000000	65.099430 
7270.000000	65.218663 
7269.000000	65.424418 
7268.000000	65.700197 
7267.000000	66.013455 
7266.000000	66.315054 
7265.000000	66.558456 
7264.000000	66.699314 
7263.000000	66.707253 
7262.000000	66.567587 
7261.000000	66.284179 
7260.000000	65.879082 
7259.000000	65.387201 
7258.000000	64.856338 
7257.000000	64.340162 
7256.000000	63.893818 
7255.000000	63.566446 
7254.000000	63.395833 
7253.000000	63.402938 
7252.000000	63.589024 
7251.000000	63.934707 
7250.000000	64.399838 
7249.000000	64.928269 
7248.000000	65.454840 
7247.000000	65.914869 
7246.000000	66.251230 
7245.000000	66.423940 
7244.000000	66.417360 
7243.000000	66.239619 
7242.000000	65.920972 
7241.000000	65.503883 
7240.000000	65.037965 
7239.000000	64.567422 
7238.000000	64.126062 
7237.000000	63.734769 
7236.000000	63.405895 
7235.000000	63.145327 
7234.000000	62.955880 
7233.000000	62.843537 
7232.000000	62.816476 
7231.000000	62.885236 
7230.000000	63.055014 
7229.000000	63.324785 
7228.000000	63.680505 
7227.000000	64.097642 
7226.000000	64.541554 
7225.000000	64.973306 
7224.000000	65.355205 
7223.000000	65.659689 
7222.000000	65.872383 
7221.000000	65.993857 
7220.000000	66.035056 
7219.000000	66.016626 
7218.000000	65.957045 
7217.000000	65.871357 
7216.000000	65.760779 
7215.000000	65.618538 
7214.000000	65.426564 
7213.000000	65.166497 
7212.000000	64.823865 
7211.000000	64.398097 
7210.000000	63.905668 
7209.000000	63.376331 
7208.000000	62.855505 
7207.000000	62.396693 
7206.000000	62.050652 
7205.000000	61.851954 
7204.000000	61.814689 
7203.000000	61.928606 
7202.000000	62.159800 
7201.000000	62.457680 
7200.000000	62.763571 
7199.000000	63.021707 
7198.000000	63.195514 
7197.000000	63.274502 
7196.000000	63.272094 
7195.000000	63.220596 
7194.000000	63.166475 
7193.000000	63.155174 
7192.000000	63.216567 
7191.000000	63.356781 
7190.000000	63.559150 
7189.000000	63.789105 
7188.000000	64.002609 
7187.000000	64.163899 
7186.000000	64.252614 
7185.000000	64.278483 
7184.000000	64.275670 
7183.000000	64.301323 
7182.000000	64.417719 
7181.000000	64.677381 
7180.000000	65.110015 
7179.000000	65.705275 
7178.000000	66.413712 
7177.000000	67.150306 
7176.000000	67.817306 
7175.000000	68.314313 
7174.000000	68.561744 
7173.000000	68.514227 
7172.000000	68.170905 
7171.000000	67.566466 
7170.000000	66.762566 
7169.000000	65.834403 
7168.000000	64.856934 
7167.000000	63.896679 
7166.000000	63.004922 
7165.000000	62.218427 
7164.000000	61.560654 
7163.000000	61.047124 
7162.000000	60.688376 
7161.000000	60.485315 
7160.000000	60.435390 
7159.000000	60.522890 
7158.000000	60.728025 
7157.000000	61.015605 
7156.000000	61.350798 
7155.000000	61.693310 
7154.000000	62.013411 
7153.000000	62.288475 
7152.000000	62.512969 
7151.000000	62.692451 
7150.000000	62.844848 
7149.000000	62.990999 
7148.000000	63.153648 
7147.000000	63.350987 
7146.000000	63.592600 
7145.000000	63.876581 
7144.000000	64.191031 
7143.000000	64.515447 
7142.000000	64.822173 
7141.000000	65.080356 
7140.000000	65.260529 
7139.000000	65.339207 
7138.000000	65.304398 
7137.000000	65.159130 
7136.000000	64.917039 
7135.000000	64.607477 
7134.000000	64.271926 
7133.000000	63.962721 
7132.000000	63.734459 
7131.000000	63.637757 
7130.000000	63.711810 
7129.000000	63.973927 
7128.000000	64.416885 
7127.000000	65.003681 
7126.000000	65.672540 
7125.000000	66.345596 
7124.000000	66.943311 
7123.000000	67.395949 
7122.000000	67.654776 
7121.000000	67.700695 
7120.000000	67.545890 
7119.000000	67.227458 
7118.000000	66.798043 
7117.000000	66.314363 
7116.000000	65.826535 
7115.000000	65.372109 
7114.000000	64.972329 
7113.000000	64.634275 
7112.000000	64.353513 
7111.000000	64.122104 
7110.000000	63.931322 
7109.000000	63.773179 
7108.000000	63.642239 
7107.000000	63.530063 
7106.000000	63.429260 
7105.000000	63.329434 
7104.000000	63.222908 
7103.000000	63.101887 
7102.000000	62.964844 
7101.000000	62.816214 
7100.000000	62.666511 
7099.000000	62.530207 
7098.000000	62.420320 
7097.000000	62.343406 
7096.000000	62.298607 
7095.000000	62.276983 
7094.000000	62.264990 
7093.000000	62.247896 
7092.000000	62.216997 
7091.000000	62.172675 
7090.000000	62.128090 
7089.000000	62.106823 
7088.000000	62.137413 
7087.000000	62.245941 
7086.000000	62.449312 
7085.000000	62.748670 
7084.000000	63.129401 
7083.000000	63.559341 
7082.000000	63.996028 
7081.000000	64.389896 
7080.000000	64.694404 
7079.000000	64.871501 
7078.000000	64.898300 
7077.000000	64.771938 
7076.000000	64.506411 
7075.000000	64.138078 
7074.000000	63.717198 
7073.000000	63.308429 
7072.000000	62.979483 
7071.000000	62.795257 
7070.000000	62.807631 
7069.000000	63.045215 
7068.000000	63.508534 
7067.000000	64.163756 
7066.000000	64.947199 
7065.000000	65.772080 
7064.000000	66.542291 
7063.000000	67.169761 
7062.000000	67.588353 
7061.000000	67.765569 
7060.000000	67.702937 
7059.000000	67.432665 
7058.000000	67.003607 
7057.000000	66.473436 
7056.000000	65.890836 
7055.000000	65.291261 
7054.000000	64.690256 
7053.000000	64.095735 
7052.000000	63.508582 
7051.000000	62.933659 
7050.000000	62.384033 
7049.000000	61.879825 
7048.000000	61.451005 
7047.000000	61.128544 
7046.000000	60.939311 
7045.000000	60.890936 
7044.000000	60.974717 
7043.000000	61.160945 
7042.000000	61.406898 
7041.000000	61.662054 
7040.000000	61.879229 
7039.000000	62.021517 
7038.000000	62.068891 
7037.000000	62.019467 
7036.000000	61.887359 
7035.000000	61.698651 
7034.000000	61.484074 
7033.000000	61.275768 
7032.000000	61.106514 
7031.000000	61.007571 
7030.000000	61.007332 
7029.000000	61.127519 
7028.000000	61.381077 
7027.000000	61.764955 
7026.000000	62.262892 
7025.000000	62.836933 
7024.000000	63.428854 
7023.000000	63.966798 
7022.000000	64.378094 
7021.000000	64.602041 
7020.000000	64.601612 
7019.000000	64.374303 
7018.000000	63.955831 
7017.000000	63.412547 
7016.000000	62.828469 
7015.000000	62.290406 
7014.000000	61.872625 
7013.000000	61.624431 
7012.000000	61.565399 
7011.000000	61.683654 
7010.000000	61.943840 
7009.000000	62.291336 
7008.000000	62.666773 
7007.000000	63.013029 
7006.000000	63.289666 
7005.000000	63.481068 
7004.000000	63.599228 
7003.000000	63.678741 
7002.000000	63.764286 
7001.000000	63.898181 
7000.000000	64.103078 
6999.000000	64.377379 
6998.000000	64.688611 
6997.000000	64.986443 
6996.000000	65.209174 
6995.000000	65.306067 
6994.000000	65.244293 
6993.000000	65.020942 
6992.000000	64.661216 
6991.000000	64.212226 
6990.000000	63.734030 
6989.000000	63.285827 
6988.000000	62.917113 
6987.000000	62.658572 
6986.000000	62.523484 
6985.000000	62.509632 
6984.000000	62.604451 
6983.000000	62.790203 
6982.000000	63.043832 
6981.000000	63.339042 
6980.000000	63.645029 
6979.000000	63.928604 
6978.000000	64.155983 
6977.000000	64.298295 
6976.000000	64.335536 
6975.000000	64.262509 
6974.000000	64.091658 
6973.000000	63.852167 
6972.000000	63.585495 
6971.000000	63.337683 
6970.000000	63.151192 
6969.000000	63.057017 
6968.000000	63.070106 
6967.000000	63.186883 
6966.000000	63.390684 
6965.000000	63.651371 
6964.000000	63.933277 
6963.000000	64.198184 
6962.000000	64.411854 
6961.000000	64.546847 
6960.000000	64.584803 
6959.000000	64.519166 
