PE IR       SPECTRUM    SPECTRUM    ASCII       PEDS        1.60        
  -1
C-1E64~1.ASC
17/03/27
22:05:15.00
17/03/27
22:05:15.00
tln
$C-4040-8_t0092$<tbV0>[5.2,7.8,8.0,0.0,27,1,0]
370.000000
64









2002,4.07    
MIRTGS : RIGHTBACK : INTERNAL 2
MIR : ON : INTERNAL 2
OPTKBR

0.200000
8
8.000000
FILLER
RATIO
SPECTRUM
UNLOCKED 256

DOUBLE
64
COMBINED
1
0
0


1.000000
RATIO


1
0
TRUE
51149
0
LEFT NOT FITTED RIGHT NOT FITTED 0
NONE
NONE
15600
12.000000
4.427000
51148
TRUE
1 0 8 72 0 0 0 0 

15798.010000






#HDR
-1
-1
#GR
CM-1
%T
0.00002384185791015625
0.0
5000.000000
-1.000000
4631
8
84.239530
10.724949
#DATA
5000.000000	65.225291 
4999.000000	65.144252 
4998.000000	65.031838 
4997.000000	64.900064 
4996.000000	64.765834 
4995.000000	64.647150 
4994.000000	64.561319 
4993.000000	64.521121 
4992.000000	64.533352 
4991.000000	64.597749 
4990.000000	64.707136 
4989.000000	64.848685 
4988.000000	65.006089 
4987.000000	65.162134 
4986.000000	65.300774 
4985.000000	65.409016 
4984.000000	65.478849 
4983.000000	65.507555 
4982.000000	65.497303 
4981.000000	65.453672 
4980.000000	65.383505 
4979.000000	65.292978 
4978.000000	65.187335 
4977.000000	65.069842 
4976.000000	64.942812 
4975.000000	64.808630 
4974.000000	64.670729 
4973.000000	64.535212 
4972.000000	64.410781 
4971.000000	64.308357 
4970.000000	64.237856 
4969.000000	64.207625 
4968.000000	64.220905 
4967.000000	64.276170 
4966.000000	64.365506 
4965.000000	64.477014 
4964.000000	64.596128 
4963.000000	64.708805 
4962.000000	64.803147 
4961.000000	64.871644 
4960.000000	64.911580 
4959.000000	64.924955 
4958.000000	64.916849 
4957.000000	64.895796 
4956.000000	64.871740 
4955.000000	64.855051 
4954.000000	64.854216 
4953.000000	64.875221 
4952.000000	64.919161 
4951.000000	64.982938 
4950.000000	65.058088 
4949.000000	65.131902 
4948.000000	65.189623 
4947.000000	65.217614 
4946.000000	65.206980 
4945.000000	65.154862 
4944.000000	65.066456 
4943.000000	64.955019 
4942.000000	64.838075 
4941.000000	64.734077 
4940.000000	64.657330 
4939.000000	64.615797 
4938.000000	64.607834 
4937.000000	64.623928 
4936.000000	64.648485 
4935.000000	64.664292 
4934.000000	64.657306 
4933.000000	64.620161 
4932.000000	64.553952 
4931.000000	64.467191 
4930.000000	64.374899 
4929.000000	64.294672 
4928.000000	64.242362 
4927.000000	64.228415 
4926.000000	64.256191 
4925.000000	64.321947 
4924.000000	64.416098 
4923.000000	64.525890 
4922.000000	64.638423 
4921.000000	64.743494 
4920.000000	64.834642 
4919.000000	64.909768 
4918.000000	64.969205 
4917.000000	65.014863 
4916.000000	65.048646 
4915.000000	65.070843 
4914.000000	65.080785 
4913.000000	65.076327 
4912.000000	65.056204 
4911.000000	65.019607 
4910.000000	64.967942 
4909.000000	64.904594 
4908.000000	64.835572 
4907.000000	64.767289 
4906.000000	64.705562 
4905.000000	64.654827 
4904.000000	64.617466 
4903.000000	64.593672 
4902.000000	64.581894 
4901.000000	64.578866 
4900.000000	64.580821 
4899.000000	64.583396 
4898.000000	64.583396 
4897.000000	64.578580 
4896.000000	64.569783 
4895.000000	64.560961 
4894.000000	64.558792 
4893.000000	64.571714 
4892.000000	64.606714 
4891.000000	64.667987 
4890.000000	64.753746 
4889.000000	64.855265 
4888.000000	64.958357 
4887.000000	65.046358 
4886.000000	65.104317 
4885.000000	65.122652 
4884.000000	65.100502 
4883.000000	65.046215 
4882.000000	64.975738 
4881.000000	64.909362 
4880.000000	64.865589 
4879.000000	64.856481 
4878.000000	64.884853 
4877.000000	64.944100 
4876.000000	65.020585 
4875.000000	65.097761 
4874.000000	65.161252 
4873.000000	65.202689 
4872.000000	65.220761 
4871.000000	65.220642 
4870.000000	65.210986 
4869.000000	65.200686 
4868.000000	65.196132 
4867.000000	65.198850 
4866.000000	65.205883 
4865.000000	65.210175 
4864.000000	65.203785 
4863.000000	65.180158 
4862.000000	65.136337 
4861.000000	65.074944 
4860.000000	65.003466 
4859.000000	64.933538 
4858.000000	64.877533 
4857.000000	64.846754 
4856.000000	64.848685 
4855.000000	64.885330 
4854.000000	64.952802 
4853.000000	65.042018 
4852.000000	65.140628 
4851.000000	65.235304 
4850.000000	65.314412 
4849.000000	65.369772 
4848.000000	65.397477 
4847.000000	65.398526 
4846.000000	65.377402 
4845.000000	65.340137 
4844.000000	65.292429 
4843.000000	65.238642 
4842.000000	65.181064 
4841.000000	65.121197 
4840.000000	65.059852 
4839.000000	64.999055 
4838.000000	64.941620 
4837.000000	64.891028 
4836.000000	64.850854 
4835.000000	64.823269 
4834.000000	64.809560 
4833.000000	64.808583 
4832.000000	64.818286 
4831.000000	64.835429 
4830.000000	64.857578 
4829.000000	64.883112 
4828.000000	64.912366 
4827.000000	64.946508 
4826.000000	64.987635 
4825.000000	65.037178 
4824.000000	65.095400 
4823.000000	65.160274 
4822.000000	65.228366 
4821.000000	65.295100 
4820.000000	65.355610 
4819.000000	65.405631 
4818.000000	65.442466 
4817.000000	65.465641 
4816.000000	65.476417 
4815.000000	65.477705 
4814.000000	65.473604 
4813.000000	65.468311 
4812.000000	65.466070 
4811.000000	65.469741 
4810.000000	65.480566 
4809.000000	65.497612 
4808.000000	65.518665 
4807.000000	65.540242 
4806.000000	65.558934 
4805.000000	65.571546 
4804.000000	65.576314 
4803.000000	65.572261 
4802.000000	65.559744 
4801.000000	65.539288 
4800.000000	65.511417 
4799.000000	65.476346 
4798.000000	65.433931 
4797.000000	65.383911 
4796.000000	65.326690 
4795.000000	65.264105 
4794.000000	65.199708 
4793.000000	65.138554 
4792.000000	65.086364 
4791.000000	65.048432 
4790.000000	65.028405 
4789.000000	65.026712 
4788.000000	65.040731 
4787.000000	65.065312 
4786.000000	65.094041 
4785.000000	65.120291 
4784.000000	65.138697 
4783.000000	65.146064 
4782.000000	65.141725 
4781.000000	65.126848 
4780.000000	65.104293 
4779.000000	65.077185 
4778.000000	65.048742 
4777.000000	65.021347 
4776.000000	64.996767 
4775.000000	64.976191 
4774.000000	64.960551 
4773.000000	64.950609 
4772.000000	64.947271 
4771.000000	64.951443 
4770.000000	64.963912 
4769.000000	64.984774 
4768.000000	65.013480 
4767.000000	65.048551 
4766.000000	65.088105 
4765.000000	65.129661 
4764.000000	65.170311 
4763.000000	65.206766 
4762.000000	65.236330 
4761.000000	65.256834 
4760.000000	65.266823 
4759.000000	65.265655 
4758.000000	65.254139 
4757.000000	65.234136 
4756.000000	65.208387 
4755.000000	65.179824 
4754.000000	65.151906 
4753.000000	65.127229 
4752.000000	65.107774 
4751.000000	65.093994 
4750.000000	65.085434 
4749.000000	65.080285 
4748.000000	65.076184 
4747.000000	65.070509 
4746.000000	65.060997 
4745.000000	65.046215 
4744.000000	65.025758 
4743.000000	65.000891 
4742.000000	64.974045 
4741.000000	64.949393 
4740.000000	64.931917 
4739.000000	64.926838 
4738.000000	64.938235 
4737.000000	64.968633 
4736.000000	65.018248 
4735.000000	65.084195 
4734.000000	65.161085 
4733.000000	65.242004 
4732.000000	65.320181 
4731.000000	65.389585 
4730.000000	65.446567 
4729.000000	65.490221 
4728.000000	65.521883 
4727.000000	65.544915 
4726.000000	65.562677 
4725.000000	65.577554 
4724.000000	65.590095 
4723.000000	65.599346 
4722.000000	65.603184 
4721.000000	65.599822 
4720.000000	65.588665 
4719.000000	65.571522 
4718.000000	65.551662 
4717.000000	65.533423 
4716.000000	65.520405 
4715.000000	65.514421 
4714.000000	65.514278 
4713.000000	65.515923 
4712.000000	65.513348 
4711.000000	65.500164 
4710.000000	65.471744 
4709.000000	65.426659 
4708.000000	65.367269 
4707.000000	65.299534 
4706.000000	65.231847 
4705.000000	65.173387 
4704.000000	65.131568 
4703.000000	65.110707 
4702.000000	65.111637 
4701.000000	65.131545 
4700.000000	65.164661 
4699.000000	65.203785 
4698.000000	65.241909 
4697.000000	65.273237 
4696.000000	65.293502 
4695.000000	65.300869 
4694.000000	65.295433 
4693.000000	65.279388 
4692.000000	65.255928 
4691.000000	65.229225 
4690.000000	65.203642 
4689.000000	65.183234 
4688.000000	65.171313 
4687.000000	65.169191 
4686.000000	65.176105 
4685.000000	65.189123 
4684.000000	65.203857 
4683.000000	65.214872 
4682.000000	65.217280 
4681.000000	65.207839 
4680.000000	65.186238 
4679.000000	65.155243 
4678.000000	65.120482 
4677.000000	65.089154 
4676.000000	65.068316 
4675.000000	65.062761 
4674.000000	65.074110 
4673.000000	65.100240 
4672.000000	65.136170 
4671.000000	65.175390 
4670.000000	65.211367 
4669.000000	65.239119 
4668.000000	65.256142 
4667.000000	65.262722 
4666.000000	65.261530 
4665.000000	65.255928 
4664.000000	65.250325 
4663.000000	65.248894 
4662.000000	65.255355 
4661.000000	65.272331 
4660.000000	65.301108 
4659.000000	65.341305 
4658.000000	65.390801 
4657.000000	65.445971 
4656.000000	65.501213 
4655.000000	65.550351 
4654.000000	65.587258 
4653.000000	65.607857 
4652.000000	65.611195 
4651.000000	65.599536 
4650.000000	65.579175 
4649.000000	65.557670 
4648.000000	65.542340 
4647.000000	65.537452 
4646.000000	65.543532 
4645.000000	65.556550 
4644.000000	65.569996 
4643.000000	65.575599 
4642.000000	65.566396 
4641.000000	65.538024 
4640.000000	65.490460 
4639.000000	65.427374 
4638.000000	65.354609 
4637.000000	65.280199 
4636.000000	65.212178 
4635.000000	65.157580 
4634.000000	65.120983 
4633.000000	65.104651 
4632.000000	65.108489 
4631.000000	65.130472 
4630.000000	65.167546 
4629.000000	65.215539 
4628.000000	65.270376 
4627.000000	65.328049 
4626.000000	65.385699 
4625.000000	65.441846 
4624.000000	65.495777 
4623.000000	65.548205 
4622.000000	65.598678 
4621.000000	65.645503 
4620.000000	65.684080 
4619.000000	65.708255 
4618.000000	65.710258 
4617.000000	65.683674 
4616.000000	65.624189 
4615.000000	65.532636 
4614.000000	65.413856 
4613.000000	65.276956 
4612.000000	65.133213 
4611.000000	64.994120 
4610.000000	64.869952 
4609.000000	64.768314 
4608.000000	64.693927 
4607.000000	64.648675 
4606.000000	64.632534 
4605.000000	64.644312 
4604.000000	64.682221 
4603.000000	64.744281 
4602.000000	64.827609 
4601.000000	64.928698 
4600.000000	65.042233 
4599.000000	65.161800 
4598.000000	65.280771 
4597.000000	65.392827 
4596.000000	65.492677 
4595.000000	65.576076 
4594.000000	65.640974 
4593.000000	65.686249 
4592.000000	65.712380 
4591.000000	65.719771 
4590.000000	65.709877 
4589.000000	65.683984 
4588.000000	65.645313 
4587.000000	65.597295 
4586.000000	65.544486 
4585.000000	65.491676 
4584.000000	65.444183 
4583.000000	65.406203 
4582.000000	65.380620 
4581.000000	65.368890 
4580.000000	65.370798 
4579.000000	65.384793 
4578.000000	65.408492 
4577.000000	65.438961 
4576.000000	65.472745 
4575.000000	65.506076 
4574.000000	65.534806 
4573.000000	65.553760 
4572.000000	65.557718 
4571.000000	65.542650 
4570.000000	65.507149 
4569.000000	65.451788 
4568.000000	65.381240 
4567.000000	65.304732 
4566.000000	65.234375 
4565.000000	65.182542 
4564.000000	65.159344 
4563.000000	65.170836 
4562.000000	65.216803 
4561.000000	65.291070 
4560.000000	65.382242 
4559.000000	65.475893 
4558.000000	65.557646 
4557.000000	65.616583 
4556.000000	65.645694 
4555.000000	65.642666 
4554.000000	65.609550 
4553.000000	65.551757 
4552.000000	65.475511 
4551.000000	65.386247 
4550.000000	65.289068 
4549.000000	65.187907 
4548.000000	65.085959 
4547.000000	64.985013 
4546.000000	64.886379 
4545.000000	64.789700 
4544.000000	64.692735 
4543.000000	64.591979 
4542.000000	64.481592 
4541.000000	64.357995 
4540.000000	64.220333 
4539.000000	64.074993 
4538.000000	63.933038 
4537.000000	63.812136 
4536.000000	63.731312 
4535.000000	63.708853 
4534.000000	63.755369 
4533.000000	63.872718 
4532.000000	64.050722 
4531.000000	64.270734 
4530.000000	64.507317 
4529.000000	64.736032 
4528.000000	64.937424 
4527.000000	65.101408 
4526.000000	65.227389 
4525.000000	65.323066 
4524.000000	65.399956 
4523.000000	65.469145 
4522.000000	65.536522 
4521.000000	65.601396 
4520.000000	65.655303 
4519.000000	65.687322 
4518.000000	65.685343 
4517.000000	65.640735 
4516.000000	65.549921 
4515.000000	65.417313 
4514.000000	65.253710 
4513.000000	65.074038 
4512.000000	64.895081 
4511.000000	64.732694 
4510.000000	64.599227 
4509.000000	64.501953 
4508.000000	64.442706 
4507.000000	64.418840 
4506.000000	64.424395 
4505.000000	64.451122 
4504.000000	64.490580 
4503.000000	64.534187 
4502.000000	64.575815 
4501.000000	64.611148 
4500.000000	64.638400 
4499.000000	64.656710 
4498.000000	64.667725 
4497.000000	64.674305 
4496.000000	64.678788 
4495.000000	64.682102 
4494.000000	64.684176 
4493.000000	64.683866 
4492.000000	64.678621 
4491.000000	64.665865 
4490.000000	64.644122 
4489.000000	64.613866 
4488.000000	64.577841 
4487.000000	64.540815 
4486.000000	64.508485 
4485.000000	64.486145 
4484.000000	64.477634 
4483.000000	64.484405 
4482.000000	64.504671 
4481.000000	64.534163 
4480.000000	64.567780 
4479.000000	64.599967 
4478.000000	64.625573 
4477.000000	64.641118 
4476.000000	64.645409 
4475.000000	64.638614 
4474.000000	64.621829 
4473.000000	64.596271 
4472.000000	64.563035 
4471.000000	64.522433 
4470.000000	64.474415 
4469.000000	64.418816 
4468.000000	64.355731 
4467.000000	64.285635 
4466.000000	64.209961 
4465.000000	64.130783 
4464.000000	64.051508 
4463.000000	63.976645 
4462.000000	63.911533 
4461.000000	63.861775 
4460.000000	63.831996 
4459.000000	63.824248 
4458.000000	63.837838 
4457.000000	63.868260 
4456.000000	63.909173 
4455.000000	63.953042 
4454.000000	63.993573 
4453.000000	64.026832 
4452.000000	64.051747 
4451.000000	64.069080 
4450.000000	64.081454 
4449.000000	64.091849 
4448.000000	64.103174 
4447.000000	64.117336 
4446.000000	64.135336 
4445.000000	64.157485 
4444.000000	64.182186 
4443.000000	64.206266 
4442.000000	64.226460 
4441.000000	64.240622 
4440.000000	64.247369 
4439.000000	64.247035 
4438.000000	64.242649 
4437.000000	64.238715 
4436.000000	64.239621 
4435.000000	64.248085 
4434.000000	64.264130 
4433.000000	64.285063 
4432.000000	64.306521 
4431.000000	64.323878 
4430.000000	64.333033 
4429.000000	64.333128 
4428.000000	64.327621 
4427.000000	64.323258 
4426.000000	64.328551 
4425.000000	64.350676 
4424.000000	64.392018 
4423.000000	64.450979 
4422.000000	64.521956 
4421.000000	64.597916 
4420.000000	64.669513 
4419.000000	64.736676 
4418.000000	64.811849 
4417.000000	64.906501 
4416.000000	65.026187 
4415.000000	65.178394 
4414.000000	65.367746 
4413.000000	65.592908 
4412.000000	65.844368 
4411.000000	66.098475 
4410.000000	66.322684 
4409.000000	66.492009 
4408.000000	66.587305 
4407.000000	66.602015 
4406.000000	66.535854 
4405.000000	66.391468 
4404.000000	66.176152 
4403.000000	65.887403 
4402.000000	65.535640 
4401.000000	65.160012 
4400.000000	64.812874 
4399.000000	64.562773 
4398.000000	64.461851 
4397.000000	64.509844 
4396.000000	64.692187 
4395.000000	64.946389 
4394.000000	65.282750 
4393.000000	65.789675 
4392.000000	66.644191 
4391.000000	68.070888 
4390.000000	70.207810 
4389.000000	73.034715 
4388.000000	76.299071 
4387.000000	79.546284 
4386.000000	82.244706 
4385.000000	83.902668 
4384.000000	84.239530 
4383.000000	83.226728 
4382.000000	81.079936 
4381.000000	78.190708 
4380.000000	74.999785 
4379.000000	71.912860 
4378.000000	69.237112 
4377.000000	67.130565 
4376.000000	65.655803 
4375.000000	64.752769 
4374.000000	64.309525 
4373.000000	64.177680 
4372.000000	64.202833 
4371.000000	64.269280 
4370.000000	64.294338 
4369.000000	64.254331 
4368.000000	64.147067 
4367.000000	64.005851 
4366.000000	63.863444 
4365.000000	63.755083 
4364.000000	63.699126 
4363.000000	63.706016 
4362.000000	63.776755 
4361.000000	63.900160 
4360.000000	64.056563 
4359.000000	64.223790 
4358.000000	64.382028 
4357.000000	64.512753 
4356.000000	64.603781 
4355.000000	64.654684 
4354.000000	64.674687 
4353.000000	64.672970 
4352.000000	64.660739 
4351.000000	64.649200 
4350.000000	64.647245 
4349.000000	64.669632 
4348.000000	64.723682 
4347.000000	64.800596 
4346.000000	64.883947 
4345.000000	64.960265 
4344.000000	65.015172 
4343.000000	65.034723 
4342.000000	65.012955 
4341.000000	64.954400 
4340.000000	64.870929 
4339.000000	64.779138 
4338.000000	64.694976 
4337.000000	64.629411 
4336.000000	64.587688 
4335.000000	64.569091 
4334.000000	64.569187 
4333.000000	64.582824 
4332.000000	64.606523 
4331.000000	64.640378 
4330.000000	64.687275 
4329.000000	64.751791 
4328.000000	64.837980 
4327.000000	64.946699 
4326.000000	65.072965 
4325.000000	65.206003 
4324.000000	65.331220 
4323.000000	65.432310 
4322.000000	65.495252 
4321.000000	65.510749 
4320.000000	65.477633 
4319.000000	65.401625 
4318.000000	65.295481 
4317.000000	65.174388 
4316.000000	65.053534 
4315.000000	64.943933 
4314.000000	64.851832 
4313.000000	64.776682 
4312.000000	64.713668 
4311.000000	64.654850 
4310.000000	64.592909 
4309.000000	64.522600 
4308.000000	64.442777 
4307.000000	64.356708 
4306.000000	64.271497 
4305.000000	64.195871 
4304.000000	64.138317 
4303.000000	64.104938 
4302.000000	64.098215 
4301.000000	64.116358 
4300.000000	64.153480 
4299.000000	64.200615 
4298.000000	64.247441 
4297.000000	64.283776 
4296.000000	64.302229 
4295.000000	64.298200 
4294.000000	64.272475 
4293.000000	64.229750 
4292.000000	64.178657 
4291.000000	64.129161 
4290.000000	64.090943 
4289.000000	64.071178 
4288.000000	64.073371 
4287.000000	64.096784 
4286.000000	64.137268 
4285.000000	64.188575 
4284.000000	64.244699 
4283.000000	64.301276 
4282.000000	64.356565 
4281.000000	64.411306 
4280.000000	64.467453 
4279.000000	64.526748 
4278.000000	64.588594 
4277.000000	64.649724 
4276.000000	64.704680 
4275.000000	64.747500 
4274.000000	64.773678 
4273.000000	64.781999 
4272.000000	64.776515 
4271.000000	64.764904 
4270.000000	64.756894 
4269.000000	64.760875 
4268.000000	64.781856 
4267.000000	64.819693 
4266.000000	64.869761 
4265.000000	64.923405 
4264.000000	64.971327 
4263.000000	65.004944 
4262.000000	65.019464 
4261.000000	65.013265 
4260.000000	64.988303 
4259.000000	64.947938 
4258.000000	64.895629 
4257.000000	64.833831 
4256.000000	64.763712 
4255.000000	64.686036 
4254.000000	64.602351 
4253.000000	64.516544 
4252.000000	64.435338 
4251.000000	64.367389 
4250.000000	64.321947 
4249.000000	64.306092 
4248.000000	64.323067 
4247.000000	64.370942 
4246.000000	64.443063 
4245.000000	64.528584 
4244.000000	64.615082 
4243.000000	64.691114 
4242.000000	64.748120 
4241.000000	64.781451 
4240.000000	64.790606 
4239.000000	64.778399 
4238.000000	64.749407 
4237.000000	64.708757 
4236.000000	64.660286 
4235.000000	64.606308 
4234.000000	64.547848 
4233.000000	64.485764 
4232.000000	64.422035 
4231.000000	64.360857 
4230.000000	64.308357 
4229.000000	64.271688 
4228.000000	64.257812 
4227.000000	64.271712 
4226.000000	64.314985 
4225.000000	64.385056 
4224.000000	64.475440 
4223.000000	64.576625 
4222.000000	64.677739 
4221.000000	64.768433 
4220.000000	64.840650 
4219.000000	64.889454 
4218.000000	64.913010 
4217.000000	64.912486 
4216.000000	64.891052 
4215.000000	64.853429 
4214.000000	64.805364 
4213.000000	64.753031 
4212.000000	64.703655 
4211.000000	64.663410 
4210.000000	64.638376 
4209.000000	64.631199 
4208.000000	64.641094 
4207.000000	64.663124 
4206.000000	64.689183 
4205.000000	64.709830 
4204.000000	64.716315 
4203.000000	64.703893 
4202.000000	64.672899 
4201.000000	64.629077 
4200.000000	64.581799 
4199.000000	64.541220 
4198.000000	64.514827 
4197.000000	64.504146 
4196.000000	64.503765 
4195.000000	64.502549 
4194.000000	64.487028 
4193.000000	64.445710 
4192.000000	64.373016 
4191.000000	64.271736 
4190.000000	64.153218 
4189.000000	64.033889 
4188.000000	63.932514 
4187.000000	63.863754 
4186.000000	63.836884 
4185.000000	63.852715 
4184.000000	63.905644 
4183.000000	63.985252 
4182.000000	64.079856 
4181.000000	64.179325 
4180.000000	64.276432 
4179.000000	64.367222 
4178.000000	64.449596 
4177.000000	64.521193 
4176.000000	64.579081 
4175.000000	64.618968 
4174.000000	64.637470 
4173.000000	64.633464 
4172.000000	64.610004 
4171.000000	64.574432 
4170.000000	64.536786 
4169.000000	64.507722 
4168.000000	64.495730 
4167.000000	64.505743 
4166.000000	64.538121 
4165.000000	64.589214 
4164.000000	64.653658 
4163.000000	64.725446 
4162.000000	64.799523 
4161.000000	64.871978 
4160.000000	64.939904 
4159.000000	65.000844 
