PE IR       SPECTRUM    SPECTRUM    ASCII       PEDS        1.60        
  -1
C-1B6F~1.ASC
17/03/27
17:16:13.00
17/03/27
17:16:13.00
tln
$C-4040-8_t0034$<tbV0>[13.0,-5.2,8.0,0.0,27,1,0]
370.000000
64









2002,4.07    
MIRTGS : RIGHTBACK : INTERNAL 2
MIR : ON : INTERNAL 2
OPTKBR

0.200000
8
8.000000
FILLER
RATIO
SPECTRUM
UNLOCKED 256

DOUBLE
64
COMBINED
1
0
0


1.000000
RATIO


1
0
TRUE
51149
0
LEFT NOT FITTED RIGHT NOT FITTED 0
NONE
NONE
15600
12.000000
4.427000
51148
TRUE
1 0 8 72 0 0 0 0 

15798.010000






#HDR
-1
-1
#GR
CM-1
%T
0.00002384185791015625
0.0
5000.000000
-1.000000
4631
8
93.914079
47.927784
#DATA
5000.000000	64.453864 
4999.000000	64.371776 
4998.000000	64.318919 
4997.000000	64.305114 
4996.000000	64.334487 
4995.000000	64.404463 
4994.000000	64.505887 
4993.000000	64.624500 
4992.000000	64.743375 
4991.000000	64.845848 
4990.000000	64.918398 
4989.000000	64.952778 
4988.000000	64.946889 
4987.000000	64.904308 
4986.000000	64.833259 
4985.000000	64.744400 
4984.000000	64.649271 
4983.000000	64.558386 
4982.000000	64.480018 
4981.000000	64.419460 
4980.000000	64.378643 
4979.000000	64.356708 
4978.000000	64.350199 
4977.000000	64.354920 
4976.000000	64.366650 
4975.000000	64.382910 
4974.000000	64.402818 
4973.000000	64.427447 
4972.000000	64.458227 
4971.000000	64.496636 
4970.000000	64.543247 
4969.000000	64.596867 
4968.000000	64.653897 
4967.000000	64.709067 
4966.000000	64.756798 
4965.000000	64.792060 
4964.000000	64.811968 
4963.000000	64.816117 
4962.000000	64.806723 
4961.000000	64.787817 
4960.000000	64.764451 
4959.000000	64.740657 
4958.000000	64.718508 
4957.000000	64.697551 
4956.000000	64.675021 
4955.000000	64.646887 
4954.000000	64.609313 
4953.000000	64.559292 
4952.000000	64.496612 
4951.000000	64.424037 
4950.000000	64.348506 
4949.000000	64.279556 
4948.000000	64.228844 
4947.000000	64.207315 
4946.000000	64.223027 
4945.000000	64.279580 
4944.000000	64.373946 
4943.000000	64.496755 
4942.000000	64.633107 
4941.000000	64.765191 
4940.000000	64.875316 
4939.000000	64.949107 
4938.000000	64.978528 
4937.000000	64.962792 
4936.000000	64.908838 
4935.000000	64.829373 
4934.000000	64.739942 
4933.000000	64.655661 
4932.000000	64.588308 
4931.000000	64.544844 
4930.000000	64.526605 
4929.000000	64.529919 
4928.000000	64.548206 
4927.000000	64.574074 
4926.000000	64.600539 
4925.000000	64.622449 
4924.000000	64.636373 
4923.000000	64.640760 
4922.000000	64.635062 
4921.000000	64.619588 
4920.000000	64.594650 
4919.000000	64.561343 
4918.000000	64.521765 
4917.000000	64.479398 
4916.000000	64.438605 
4915.000000	64.404606 
4914.000000	64.382791 
4913.000000	64.377665 
4912.000000	64.391136 
4911.000000	64.423036 
4910.000000	64.470791 
4909.000000	64.530348 
4908.000000	64.596390 
4907.000000	64.663958 
4906.000000	64.728879 
4905.000000	64.788198 
4904.000000	64.840245 
4903.000000	64.883542 
4902.000000	64.916419 
4901.000000	64.937663 
4900.000000	64.946389 
4899.000000	64.941978 
4898.000000	64.924144 
4897.000000	64.894604 
4896.000000	64.855599 
4895.000000	64.810085 
4894.000000	64.759802 
4893.000000	64.705324 
4892.000000	64.645338 
4891.000000	64.577198 
4890.000000	64.498066 
4889.000000	64.405775 
4888.000000	64.301204 
4887.000000	64.188909 
4886.000000	64.077568 
4885.000000	63.977766 
4884.000000	63.901448 
4883.000000	63.858342 
4882.000000	63.854813 
4881.000000	63.891077 
4880.000000	63.962793 
4879.000000	64.060926 
4878.000000	64.174914 
4877.000000	64.294195 
4876.000000	64.411544 
4875.000000	64.523625 
4874.000000	64.630770 
4873.000000	64.735364 
4872.000000	64.840102 
4871.000000	64.945697 
4870.000000	65.049886 
4869.000000	65.146565 
4868.000000	65.227627 
4867.000000	65.283513 
4866.000000	65.307354 
4865.000000	65.294551 
4864.000000	65.244793 
4863.000000	65.161156 
4862.000000	65.050649 
4861.000000	64.922308 
4860.000000	64.785432 
4859.000000	64.649462 
4858.000000	64.523553 
4857.000000	64.416146 
4856.000000	64.334297 
4855.000000	64.283514 
4854.000000	64.267563 
4853.000000	64.286661 
4852.000000	64.336824 
4851.000000	64.409995 
4850.000000	64.494585 
4849.000000	64.577889 
4848.000000	64.648056 
4847.000000	64.696168 
4846.000000	64.717578 
4845.000000	64.712738 
4844.000000	64.686679 
4843.000000	64.646458 
4842.000000	64.599990 
4841.000000	64.554715 
4840.000000	64.516282 
4839.000000	64.488101 
4838.000000	64.471578 
4837.000000	64.467048 
4836.000000	64.474511 
4835.000000	64.493560 
4834.000000	64.524197 
4833.000000	64.566063 
4832.000000	64.618849 
4831.000000	64.681029 
4830.000000	64.750552 
4829.000000	64.823985 
4828.000000	64.897608 
4827.000000	64.968132 
4826.000000	65.032196 
4825.000000	65.086579 
4824.000000	65.128707 
4823.000000	65.157127 
4822.000000	65.171408 
4821.000000	65.172338 
4820.000000	65.161776 
4819.000000	65.142273 
4818.000000	65.116620 
4817.000000	65.087151 
4816.000000	65.055489 
4815.000000	65.022325 
4814.000000	64.988327 
4813.000000	64.954161 
4812.000000	64.921021 
4811.000000	64.890503 
4810.000000	64.864468 
4809.000000	64.844512 
4808.000000	64.831209 
4807.000000	64.824318 
4806.000000	64.822196 
4805.000000	64.822936 
4804.000000	64.824175 
4803.000000	64.824867 
4802.000000	64.825510 
4801.000000	64.828133 
4800.000000	64.835643 
4799.000000	64.850473 
4798.000000	64.873480 
4797.000000	64.903044 
4796.000000	64.934992 
4795.000000	64.963722 
4794.000000	64.983749 
4793.000000	64.991164 
4792.000000	64.984679 
4791.000000	64.965867 
4790.000000	64.938616 
4789.000000	64.907908 
4788.000000	64.878201 
4787.000000	64.852190 
4786.000000	64.830160 
4785.000000	64.810514 
4784.000000	64.790511 
4783.000000	64.767408 
4782.000000	64.739394 
4781.000000	64.706754 
4780.000000	64.671707 
4779.000000	64.637136 
4778.000000	64.606904 
4777.000000	64.583730 
4776.000000	64.569950 
4775.000000	64.566278 
4774.000000	64.573073 
4773.000000	64.589929 
4772.000000	64.616131 
4771.000000	64.650559 
4770.000000	64.691638 
4769.000000	64.737272 
4768.000000	64.785027 
4767.000000	64.832282 
4766.000000	64.876651 
4765.000000	64.916348 
4764.000000	64.950323 
4763.000000	64.978361 
4762.000000	65.000891 
4761.000000	65.018534 
4760.000000	65.032124 
4759.000000	65.042066 
4758.000000	65.048432 
4757.000000	65.051078 
4756.000000	65.049910 
4755.000000	65.045261 
4754.000000	65.038275 
4753.000000	65.030622 
4752.000000	65.024328 
4751.000000	65.021538 
4750.000000	65.023994 
4749.000000	65.032839 
4748.000000	65.048289 
4747.000000	65.069842 
4746.000000	65.096402 
4745.000000	65.126490 
4744.000000	65.158295 
4743.000000	65.189814 
4742.000000	65.219044 
4741.000000	65.244221 
4740.000000	65.263795 
4739.000000	65.276765 
4738.000000	65.282487 
4737.000000	65.280747 
4736.000000	65.271472 
4735.000000	65.254783 
4734.000000	65.230774 
4733.000000	65.199613 
4732.000000	65.161561 
4731.000000	65.116906 
4730.000000	65.066528 
4729.000000	65.012192 
4728.000000	64.956474 
4727.000000	64.902973 
4726.000000	64.856052 
4725.000000	64.819979 
4724.000000	64.798331 
4723.000000	64.792847 
4722.000000	64.803075 
4721.000000	64.826035 
4720.000000	64.856648 
4719.000000	64.888072 
4718.000000	64.913702 
4717.000000	64.928174 
4716.000000	64.929056 
4715.000000	64.917063 
4714.000000	64.896392 
4713.000000	64.873695 
4712.000000	64.856529 
4711.000000	64.851379 
4710.000000	64.861941 
4709.000000	64.888024 
4708.000000	64.925694 
4707.000000	64.968204 
4706.000000	65.007901 
4705.000000	65.038394 
4704.000000	65.056133 
4703.000000	65.061616 
4702.000000	65.058922 
4701.000000	65.054464 
4700.000000	65.055084 
4699.000000	65.065717 
4698.000000	65.087628 
4697.000000	65.117835 
4696.000000	65.150427 
4695.000000	65.177392 
4694.000000	65.191245 
4693.000000	65.187048 
4692.000000	65.164113 
4691.000000	65.126347 
4690.000000	65.081262 
4689.000000	65.038299 
4688.000000	65.006399 
4687.000000	64.992356 
4686.000000	64.999198 
4685.000000	65.025997 
4684.000000	65.068316 
4683.000000	65.119719 
4682.000000	65.172958 
4681.000000	65.221452 
4680.000000	65.260004 
4679.000000	65.284943 
4678.000000	65.294480 
4677.000000	65.287971 
4676.000000	65.266418 
4675.000000	65.232253 
4674.000000	65.189647 
4673.000000	65.144228 
4672.000000	65.102148 
4671.000000	65.069794 
4670.000000	65.051770 
4669.000000	65.050506 
4668.000000	65.065217 
4667.000000	65.091848 
4666.000000	65.124225 
4665.000000	65.155124 
4664.000000	65.178346 
4663.000000	65.190076 
4662.000000	65.189576 
4661.000000	65.179109 
4660.000000	65.162873 
4659.000000	65.145540 
4658.000000	65.130448 
4657.000000	65.118646 
4656.000000	65.109014 
4655.000000	65.098714 
4654.000000	65.084600 
4653.000000	65.064287 
4652.000000	65.037322 
4651.000000	65.005612 
4650.000000	64.972829 
4649.000000	64.944005 
4648.000000	64.923858 
4647.000000	64.916181 
4646.000000	64.922404 
4645.000000	64.941525 
4644.000000	64.970231 
4643.000000	65.003752 
4642.000000	65.036988 
4641.000000	65.065860 
4640.000000	65.087676 
4639.000000	65.101933 
4638.000000	65.110087 
4637.000000	65.114641 
4636.000000	65.118122 
4635.000000	65.121793 
4634.000000	65.125226 
4633.000000	65.125703 
4632.000000	65.119433 
4631.000000	65.101933 
4630.000000	65.070056 
4629.000000	65.023517 
4628.000000	64.965891 
4627.000000	64.904165 
4626.000000	64.847826 
4625.000000	64.806747 
4624.000000	64.789009 
4623.000000	64.798521 
4622.000000	64.834642 
4621.000000	64.891958 
4620.000000	64.961791 
4619.000000	65.034151 
4618.000000	65.100073 
4617.000000	65.153574 
4616.000000	65.192317 
4615.000000	65.217399 
4614.000000	65.232300 
4613.000000	65.241384 
4612.000000	65.247941 
4611.000000	65.253329 
4610.000000	65.256452 
4609.000000	65.254759 
4608.000000	65.244984 
4607.000000	65.225100 
4606.000000	65.194296 
4605.000000	65.153551 
4604.000000	65.105700 
4603.000000	65.054750 
4602.000000	65.005087 
4601.000000	64.960551 
4600.000000	64.924144 
4599.000000	64.897370 
4598.000000	64.880514 
4597.000000	64.872455 
4596.000000	64.871454 
4595.000000	64.874839 
4594.000000	64.879751 
4593.000000	64.882969 
4592.000000	64.881396 
4591.000000	64.872169 
4590.000000	64.852929 
4589.000000	64.822459 
4588.000000	64.780259 
4587.000000	64.727854 
4586.000000	64.668297 
4585.000000	64.606714 
4584.000000	64.549231 
4583.000000	64.503049 
4582.000000	64.474821 
4581.000000	64.469981 
4580.000000	64.491295 
4579.000000	64.538073 
4578.000000	64.605689 
4577.000000	64.685940 
4576.000000	64.768266 
4575.000000	64.841747 
4574.000000	64.897036 
4573.000000	64.928102 
4572.000000	64.933300 
4571.000000	64.915156 
4570.000000	64.879250 
4569.000000	64.833617 
4568.000000	64.786148 
4567.000000	64.742875 
4566.000000	64.706945 
4565.000000	64.678978 
4564.000000	64.657354 
4563.000000	64.639806 
4562.000000	64.624643 
4561.000000	64.611673 
4560.000000	64.602780 
4559.000000	64.601016 
4558.000000	64.610004 
4557.000000	64.632201 
4556.000000	64.667868 
4555.000000	64.714193 
4554.000000	64.765572 
4553.000000	64.814519 
4552.000000	64.852476 
4551.000000	64.871430 
4550.000000	64.865994 
4549.000000	64.834785 
4548.000000	64.781594 
4547.000000	64.714932 
4546.000000	64.646482 
4545.000000	64.588928 
4544.000000	64.553689 
4543.000000	64.548301 
4542.000000	64.574432 
4541.000000	64.627528 
4540.000000	64.698243 
4539.000000	64.774513 
4538.000000	64.843726 
4537.000000	64.896154 
4536.000000	64.926075 
4535.000000	64.933300 
4534.000000	64.921808 
4533.000000	64.899349 
4532.000000	64.874434 
4531.000000	64.855384 
4530.000000	64.847898 
4529.000000	64.855480 
4528.000000	64.879369 
4527.000000	64.918708 
4526.000000	64.971303 
4525.000000	65.033125 
4524.000000	65.098667 
4523.000000	65.160918 
4522.000000	65.212035 
4521.000000	65.244102 
4520.000000	65.250658 
4519.000000	65.228152 
4518.000000	65.177130 
4517.000000	65.102171 
4516.000000	65.011334 
4515.000000	64.915394 
4514.000000	64.824962 
4513.000000	64.748692 
4512.000000	64.691233 
4511.000000	64.653348 
4510.000000	64.631628 
4509.000000	64.620375 
4508.000000	64.612388 
4507.000000	64.600992 
4506.000000	64.581131 
4505.000000	64.550137 
4504.000000	64.507961 
4503.000000	64.455366 
4502.000000	64.396166 
4501.000000	64.335560 
4500.000000	64.280295 
4499.000000	64.236927 
4498.000000	64.211606 
4497.000000	64.208817 
4496.000000	64.229869 
4495.000000	64.272689 
4494.000000	64.332365 
4493.000000	64.402103 
4492.000000	64.474463 
4491.000000	64.542984 
4490.000000	64.603018 
4489.000000	64.652752 
4488.000000	64.693188 
4487.000000	64.727306 
4486.000000	64.758658 
4485.000000	64.789724 
4484.000000	64.822053 
4483.000000	64.853954 
4482.000000	64.881992 
4481.000000	64.900159 
4480.000000	64.903402 
4479.000000	64.886283 
4478.000000	64.845252 
4477.000000	64.778494 
4476.000000	64.687442 
4475.000000	64.575457 
4474.000000	64.448046 
4473.000000	64.311909 
4472.000000	64.174246 
4471.000000	64.041519 
4470.000000	63.919329 
4469.000000	63.812398 
4468.000000	63.724970 
4467.000000	63.661074 
4466.000000	63.624906 
4465.000000	63.620090 
4464.000000	63.649344 
4463.000000	63.713049 
4462.000000	63.808083 
4461.000000	63.926482 
4460.000000	64.056134 
4459.000000	64.181876 
4458.000000	64.288520 
4457.000000	64.362835 
4456.000000	64.397168 
4455.000000	64.391326 
4454.000000	64.352178 
4453.000000	64.292955 
4452.000000	64.228630 
4451.000000	64.172768 
4450.000000	64.133644 
4449.000000	64.113354 
4448.000000	64.107751 
4447.000000	64.109206 
4446.000000	64.109683 
4445.000000	64.104032 
4444.000000	64.091658 
4443.000000	64.076972 
4442.000000	64.067530 
4441.000000	64.071297 
4440.000000	64.093399 
4439.000000	64.134049 
4438.000000	64.188194 
4437.000000	64.246702 
4436.000000	64.298582 
4435.000000	64.333868 
4434.000000	64.346861 
4433.000000	64.336943 
4432.000000	64.308047 
4431.000000	64.267635 
4430.000000	64.223623 
4429.000000	64.183568 
4428.000000	64.153337 
4427.000000	64.136171 
4426.000000	64.133739 
4425.000000	64.144659 
4424.000000	64.166307 
4423.000000	64.193582 
4422.000000	64.219951 
4421.000000	64.238071 
4420.000000	64.240980 
4419.000000	64.223432 
4418.000000	64.183259 
4417.000000	64.120149 
4416.000000	64.036059 
4415.000000	63.935208 
4414.000000	63.824272 
4413.000000	63.714814 
4412.000000	63.621187 
4411.000000	63.557291 
4410.000000	63.533544 
4409.000000	63.553118 
4408.000000	63.611865 
4407.000000	63.698673 
4406.000000	63.799214 
4405.000000	63.897657 
4404.000000	63.982081 
4403.000000	64.045429 
4402.000000	64.087867 
4401.000000	64.118957 
4400.000000	64.149236 
4399.000000	64.184498 
4398.000000	64.224052 
4397.000000	64.256525 
4396.000000	64.269852 
4395.000000	64.256381 
4394.000000	64.219021 
4393.000000	64.171433 
4392.000000	64.140939 
4391.000000	64.165139 
4390.000000	64.260935 
4389.000000	64.415979 
4388.000000	64.587593 
4387.000000	64.713835 
4386.000000	64.726305 
4385.000000	64.576625 
4384.000000	64.259457 
4383.000000	63.820791 
4382.000000	63.360714 
4381.000000	62.999725 
4380.000000	62.850189 
4379.000000	62.970161 
4378.000000	63.345956 
4377.000000	63.881897 
4376.000000	64.414596 
4375.000000	64.763903 
4374.000000	64.778327 
4373.000000	64.390468 
4372.000000	63.628935 
4371.000000	62.638163 
4370.000000	61.632943 
4369.000000	60.869526 
4368.000000	60.565328 
4367.000000	60.880970 
4366.000000	61.877727 
4365.000000	63.520884 
4364.000000	65.687632 
4363.000000	68.197464 
4362.000000	70.843553 
4361.000000	73.418307 
4360.000000	75.735116 
4359.000000	77.637505 
4358.000000	79.005050 
4357.000000	79.759454 
4356.000000	79.863071 
4355.000000	79.331040 
4354.000000	78.221201 
4353.000000	76.657128 
4352.000000	74.792218 
4351.000000	72.814083 
4350.000000	70.896840 
4349.000000	69.200181 
4348.000000	67.827796 
4347.000000	66.828608 
4346.000000	66.189098 
4345.000000	65.848088 
4344.000000	65.717554 
4343.000000	65.702939 
4342.000000	65.726256 
4341.000000	65.726661 
4340.000000	65.679836 
4339.000000	65.584015 
4338.000000	65.458416 
4337.000000	65.322589 
4336.000000	65.195298 
4335.000000	65.084338 
4334.000000	64.987659 
4333.000000	64.894461 
4332.000000	64.798879 
4331.000000	64.702463 
4330.000000	64.608407 
4329.000000	64.522600 
4328.000000	64.456272 
4327.000000	64.420366 
4326.000000	64.415383 
4325.000000	64.435219 
4324.000000	64.467597 
4323.000000	64.499402 
4322.000000	64.523553 
4321.000000	64.538025 
4320.000000	64.541363 
4319.000000	64.536261 
4318.000000	64.531803 
4317.000000	64.534950 
4316.000000	64.543843 
4315.000000	64.553380 
4314.000000	64.558529 
4313.000000	64.552593 
4312.000000	64.529395 
4311.000000	64.486169 
4310.000000	64.424777 
4309.000000	64.351201 
4308.000000	64.274525 
4307.000000	64.204883 
4306.000000	64.151453 
4305.000000	64.120411 
4304.000000	64.113759 
4303.000000	64.130067 
4302.000000	64.164876 
4301.000000	64.211821 
4300.000000	64.264035 
4299.000000	64.315056 
4298.000000	64.360380 
4297.000000	64.397525 
4296.000000	64.426398 
4295.000000	64.448857 
4294.000000	64.467096 
4293.000000	64.482164 
4292.000000	64.493417 
4291.000000	64.498639 
4290.000000	64.494895 
4289.000000	64.479875 
4288.000000	64.453458 
4287.000000	64.418458 
4286.000000	64.380502 
4285.000000	64.347028 
4284.000000	64.325785 
4283.000000	64.322948 
4282.000000	64.341497 
4281.000000	64.379978 
4280.000000	64.432787 
4279.000000	64.490914 
4278.000000	64.542913 
4277.000000	64.577293 
4276.000000	64.584302 
4275.000000	64.558553 
4274.000000	64.499497 
4273.000000	64.412808 
4272.000000	64.308786 
4271.000000	64.201688 
4270.000000	64.107275 
4269.000000	64.039826 
4268.000000	64.009928 
4267.000000	64.021968 
4266.000000	64.073848 
4265.000000	64.156818 
4264.000000	64.257168 
4263.000000	64.359402 
4262.000000	64.448642 
4261.000000	64.514493 
4260.000000	64.551830 
4259.000000	64.562511 
4258.000000	64.553332 
4257.000000	64.534687 
4256.000000	64.517235 
4255.000000	64.509868 
4254.000000	64.517283 
4253.000000	64.539718 
4252.000000	64.572882 
4251.000000	64.609169 
4250.000000	64.639711 
4249.000000	64.656543 
4248.000000	64.654541 
4247.000000	64.632296 
4246.000000	64.592576 
4245.000000	64.540958 
4244.000000	64.485239 
4243.000000	64.433026 
4242.000000	64.390921 
4241.000000	64.363336 
4240.000000	64.352440 
4239.000000	64.357852 
4238.000000	64.377737 
4237.000000	64.409852 
4236.000000	64.451599 
4235.000000	64.500236 
4234.000000	64.552950 
4233.000000	64.606547 
4232.000000	64.657402 
4231.000000	64.701366 
4230.000000	64.734363 
4229.000000	64.752554 
4228.000000	64.753866 
4227.000000	64.738607 
4226.000000	64.709854 
4225.000000	64.672803 
4224.000000	64.634156 
4223.000000	64.600515 
4222.000000	64.577221 
4221.000000	64.567446 
4220.000000	64.571666 
4219.000000	64.587831 
4218.000000	64.611959 
4217.000000	64.639472 
4216.000000	64.666175 
4215.000000	64.689517 
4214.000000	64.708328 
4213.000000	64.723587 
4212.000000	64.737439 
4211.000000	64.753031 
4210.000000	64.773488 
4209.000000	64.801001 
4208.000000	64.836478 
4207.000000	64.878726 
4206.000000	64.925384 
4205.000000	64.972186 
4204.000000	65.014386 
4203.000000	65.046858 
4202.000000	65.065169 
4201.000000	65.067172 
4200.000000	65.053510 
4199.000000	65.027475 
4198.000000	64.994144 
4197.000000	64.959621 
4196.000000	64.929366 
4195.000000	64.907288 
4194.000000	64.894294 
4193.000000	64.888453 
4192.000000	64.885210 
4191.000000	64.879131 
4190.000000	64.865159 
4189.000000	64.839529 
4188.000000	64.801406 
4187.000000	64.752459 
4186.000000	64.697504 
4185.000000	64.642572 
4184.000000	64.594817 
4183.000000	64.560389 
4182.000000	64.543819 
4181.000000	64.547181 
4180.000000	64.569139 
4179.000000	64.605927 
4178.000000	64.650058 
4177.000000	64.692068 
4176.000000	64.721250 
4175.000000	64.727830 
4174.000000	64.704990 
4173.000000	64.650559 
4172.000000	64.568209 
4171.000000	64.466977 
4170.000000	64.360666 
4169.000000	64.264845 
4168.000000	64.194107 
4167.000000	64.158987 
4166.000000	64.163637 
4165.000000	64.205169 
4164.000000	64.274382 
4163.000000	64.358305 
4162.000000	64.442920 
4161.000000	64.516758 
4160.000000	64.572262 
4159.000000	64.608097 
