PE IR       SPECTRUM    SPECTRUM    ASCII       PEDS        1.60        
  -1
C-9C6F~1.ASC
17/03/27
19:42:13.00
17/03/27
19:42:13.00
tln
$C-4040-8_t0064$<tbV0>[-7.8,0.0,8.0,0.0,27,1,0]
370.000000
64









2002,4.07    
MIRTGS : RIGHTBACK : INTERNAL 2
MIR : ON : INTERNAL 2
OPTKBR

0.200000
8
8.000000
FILLER
RATIO
SPECTRUM
UNLOCKED 256

DOUBLE
64
COMBINED
1
0
0


1.000000
RATIO


1
0
TRUE
51149
0
LEFT NOT FITTED RIGHT NOT FITTED 0
NONE
NONE
15600
12.000000
4.427000
51148
TRUE
1 0 8 72 0 0 0 0 

15798.010000






#HDR
-1
-1
#GR
CM-1
%T
0.00002384185791015625
0.0
5000.000000
-1.000000
4631
8
86.143970
54.368042
#DATA
5000.000000	64.573979 
4999.000000	64.612340 
4998.000000	64.653921 
4997.000000	64.692735 
4996.000000	64.725565 
4995.000000	64.752173 
4994.000000	64.775252 
4993.000000	64.799070 
4992.000000	64.827942 
4991.000000	64.864659 
4990.000000	64.908957 
4989.000000	64.957022 
4988.000000	65.002608 
4987.000000	65.038871 
4986.000000	65.059542 
4985.000000	65.060901 
4984.000000	65.042424 
4983.000000	65.006995 
4982.000000	64.959907 
4981.000000	64.907765 
4980.000000	64.856767 
4979.000000	64.811563 
4978.000000	64.775204 
4977.000000	64.749145 
4976.000000	64.733457 
4975.000000	64.727663 
4974.000000	64.731574 
4973.000000	64.744806 
4972.000000	64.766335 
4971.000000	64.794039 
4970.000000	64.824295 
4969.000000	64.852190 
4968.000000	64.872002 
4967.000000	64.877915 
4966.000000	64.865422 
4965.000000	64.832353 
4964.000000	64.780092 
4963.000000	64.713001 
4962.000000	64.637470 
4961.000000	64.561128 
4960.000000	64.491558 
4959.000000	64.434909 
4958.000000	64.394998 
4957.000000	64.372777 
4956.000000	64.366674 
4955.000000	64.373254 
4954.000000	64.388465 
4953.000000	64.408349 
4952.000000	64.430379 
4951.000000	64.453101 
4950.000000	64.476966 
4949.000000	64.503455 
4948.000000	64.535069 
4947.000000	64.574337 
4946.000000	64.622926 
4945.000000	64.681553 
4944.000000	64.747977 
4943.000000	64.818620 
4942.000000	64.886617 
4941.000000	64.943838 
4940.000000	64.980554 
4939.000000	64.988207 
4938.000000	64.960455 
4937.000000	64.894771 
4936.000000	64.794421 
4935.000000	64.668369 
4934.000000	64.531278 
4933.000000	64.401030 
4932.000000	64.296030 
4931.000000	64.231920 
4930.000000	64.217925 
4929.000000	64.254999 
4928.000000	64.335012 
4927.000000	64.442849 
4926.000000	64.558959 
4925.000000	64.663839 
4924.000000	64.741587 
4923.000000	64.783191 
4922.000000	64.787435 
4921.000000	64.760684 
4920.000000	64.713478 
4919.000000	64.658308 
4918.000000	64.606809 
4917.000000	64.567089 
4916.000000	64.542722 
4915.000000	64.533090 
4914.000000	64.535784 
4913.000000	64.547491 
4912.000000	64.566135 
4911.000000	64.591073 
4910.000000	64.622879 
4909.000000	64.662551 
4908.000000	64.709687 
4907.000000	64.762187 
4906.000000	64.815664 
4905.000000	64.864253 
4904.000000	64.901900 
4903.000000	64.923167 
4902.000000	64.924693 
4901.000000	64.907026 
4900.000000	64.874505 
4899.000000	64.834547 
4898.000000	64.795470 
4897.000000	64.765286 
4896.000000	64.748096 
4895.000000	64.743638 
4894.000000	64.745688 
4893.000000	64.743089 
4892.000000	64.722824 
4891.000000	64.673471 
4890.000000	64.589524 
4889.000000	64.472842 
4888.000000	64.334321 
4887.000000	64.191436 
4886.000000	64.065003 
4885.000000	63.974571 
4884.000000	63.933324 
4883.000000	63.944458 
4882.000000	64.000844 
4881.000000	64.086484 
4880.000000	64.182090 
4879.000000	64.269900 
4878.000000	64.339017 
4877.000000	64.387035 
4876.000000	64.420342 
4875.000000	64.450645 
4874.000000	64.490246 
4873.000000	64.546918 
4872.000000	64.620447 
4871.000000	64.701604 
4870.000000	64.775061 
4869.000000	64.822745 
4868.000000	64.829516 
4867.000000	64.787268 
4866.000000	64.698457 
4865.000000	64.575862 
4864.000000	64.438891 
4863.000000	64.310121 
4862.000000	64.209556 
4861.000000	64.150786 
4860.000000	64.139175 
4859.000000	64.170932 
4858.000000	64.235663 
4857.000000	64.318585 
4856.000000	64.404201 
4855.000000	64.479470 
4854.000000	64.535355 
4853.000000	64.568686 
4852.000000	64.580774 
4851.000000	64.577126 
4850.000000	64.564871 
4849.000000	64.551758 
4848.000000	64.544010 
4847.000000	64.545392 
4846.000000	64.556741 
4845.000000	64.576840 
4844.000000	64.603018 
4843.000000	64.632129 
4842.000000	64.661502 
4841.000000	64.689564 
4840.000000	64.715790 
4839.000000	64.740586 
4838.000000	64.763998 
4837.000000	64.785170 
4836.000000	64.801573 
4835.000000	64.809560 
4834.000000	64.804959 
4833.000000	64.784049 
4832.000000	64.745235 
4831.000000	64.690327 
4830.000000	64.624428 
4829.000000	64.555096 
4828.000000	64.491271 
4827.000000	64.441323 
4826.000000	64.411664 
4825.000000	64.405441 
4824.000000	64.421844 
4823.000000	64.456081 
4822.000000	64.501428 
4821.000000	64.550828 
4820.000000	64.597535 
4819.000000	64.636492 
4818.000000	64.664435 
4817.000000	64.680647 
4816.000000	64.685916 
4815.000000	64.682936 
4814.000000	64.675974 
4813.000000	64.670538 
4812.000000	64.672875 
4811.000000	64.688372 
4810.000000	64.720797 
4809.000000	64.770674 
4808.000000	64.835143 
4807.000000	64.907813 
4806.000000	64.980053 
4805.000000	65.042424 
4804.000000	65.086889 
4803.000000	65.108489 
4802.000000	65.106797 
4801.000000	65.084981 
4800.000000	65.049457 
4799.000000	65.006828 
4798.000000	64.962244 
4797.000000	64.918017 
4796.000000	64.873743 
4795.000000	64.827060 
4794.000000	64.775395 
4793.000000	64.717817 
4792.000000	64.656233 
4791.000000	64.594626 
4790.000000	64.538598 
4789.000000	64.493179 
4788.000000	64.462637 
4787.000000	64.449262 
4786.000000	64.453792 
4785.000000	64.475464 
4784.000000	64.512515 
4783.000000	64.562416 
4782.000000	64.621448 
4781.000000	64.684820 
4780.000000	64.746308 
4779.000000	64.798402 
4778.000000	64.833402 
4777.000000	64.844083 
4776.000000	64.826178 
4775.000000	64.779567 
4774.000000	64.709091 
4773.000000	64.624166 
4772.000000	64.536833 
4771.000000	64.459776 
4770.000000	64.403653 
4769.000000	64.375042 
4768.000000	64.375972 
4767.000000	64.403963 
4766.000000	64.453554 
4765.000000	64.518094 
4764.000000	64.590811 
4763.000000	64.666152 
4762.000000	64.739871 
4761.000000	64.809298 
4760.000000	64.872741 
4759.000000	64.929056 
4758.000000	64.977526 
4757.000000	65.017151 
4756.000000	65.047073 
4755.000000	65.066123 
4754.000000	65.074443 
4753.000000	65.072083 
4752.000000	65.060210 
4751.000000	65.040206 
4750.000000	65.014338 
4749.000000	64.985013 
4748.000000	64.955019 
4747.000000	64.926910 
4746.000000	64.903283 
4745.000000	64.885735 
4744.000000	64.874863 
4743.000000	64.869952 
4742.000000	64.869260 
4741.000000	64.869904 
4740.000000	64.868545 
4739.000000	64.862155 
4738.000000	64.848875 
4737.000000	64.827799 
4736.000000	64.799475 
4735.000000	64.765501 
4734.000000	64.728403 
4733.000000	64.691376 
4732.000000	64.657807 
4731.000000	64.630484 
4730.000000	64.611673 
4729.000000	64.602828 
4728.000000	64.604616 
4727.000000	64.616441 
4726.000000	64.637255 
4725.000000	64.665293 
4724.000000	64.698910 
4723.000000	64.736056 
4722.000000	64.775156 
4721.000000	64.814805 
4720.000000	64.854383 
4719.000000	64.893364 
4718.000000	64.931917 
4717.000000	64.970326 
4716.000000	65.008902 
4715.000000	65.047478 
4714.000000	65.085220 
4713.000000	65.120315 
4712.000000	65.150499 
4711.000000	65.173196 
4710.000000	65.186429 
4709.000000	65.189313 
4708.000000	65.182614 
4707.000000	65.168642 
4706.000000	65.151095 
4705.000000	65.134072 
4704.000000	65.121340 
4703.000000	65.115427 
4702.000000	65.117383 
4701.000000	65.126419 
4700.000000	65.140366 
4699.000000	65.156197 
4698.000000	65.171027 
4697.000000	65.182542 
4696.000000	65.189480 
4695.000000	65.191626 
4694.000000	65.189576 
4693.000000	65.184283 
4692.000000	65.176725 
4691.000000	65.167689 
4690.000000	65.157628 
4689.000000	65.146970 
4688.000000	65.136075 
4687.000000	65.125513 
4686.000000	65.116167 
4685.000000	65.108728 
4684.000000	65.103554 
4683.000000	65.100812 
4682.000000	65.099978 
4681.000000	65.099740 
4680.000000	65.097665 
4679.000000	65.090751 
4678.000000	65.075540 
4677.000000	65.048956 
4676.000000	65.009045 
4675.000000	64.955329 
4674.000000	64.889597 
4673.000000	64.815640 
4672.000000	64.739346 
4671.000000	64.667558 
4670.000000	64.607524 
4669.000000	64.564919 
4668.000000	64.543890 
4667.000000	64.545726 
4666.000000	64.569306 
4665.000000	64.610862 
4664.000000	64.665031 
4663.000000	64.725661 
4662.000000	64.786434 
4661.000000	64.841723 
4660.000000	64.886569 
4659.000000	64.916706 
4658.000000	64.929008 
4657.000000	64.921784 
4656.000000	64.894962 
4655.000000	64.850521 
4654.000000	64.793038 
4653.000000	64.729237 
4652.000000	64.667367 
4651.000000	64.615488 
4650.000000	64.580702 
4649.000000	64.566969 
4648.000000	64.574694 
4647.000000	64.599823 
4646.000000	64.634776 
4645.000000	64.670085 
4644.000000	64.696240 
4643.000000	64.706301 
4642.000000	64.696502 
4641.000000	64.668130 
4640.000000	64.626479 
4639.000000	64.580249 
4638.000000	64.539170 
4637.000000	64.512181 
4636.000000	64.505338 
4635.000000	64.520978 
4634.000000	64.557743 
4633.000000	64.610695 
4632.000000	64.672994 
4631.000000	64.737272 
4630.000000	64.797139 
4629.000000	64.848303 
4628.000000	64.888882 
4627.000000	64.919304 
4626.000000	64.941287 
4625.000000	64.957237 
4624.000000	64.968705 
4623.000000	64.976453 
4622.000000	64.979314 
4621.000000	64.975547 
4620.000000	64.961767 
4619.000000	64.935684 
4618.000000	64.895224 
4617.000000	64.839696 
4616.000000	64.770126 
4615.000000	64.689612 
4614.000000	64.603328 
4613.000000	64.517474 
4612.000000	64.439320 
4611.000000	64.375710 
4610.000000	64.332795 
4609.000000	64.314961 
4608.000000	64.324140 
4607.000000	64.359235 
4606.000000	64.416503 
4605.000000	64.489865 
4604.000000	64.571833 
4603.000000	64.654278 
4602.000000	64.730262 
4601.000000	64.794349 
4600.000000	64.842653 
4599.000000	64.872670 
4598.000000	64.883303 
4597.000000	64.874267 
4596.000000	64.845895 
4595.000000	64.799380 
4594.000000	64.737057 
4593.000000	64.663743 
4592.000000	64.586877 
4591.000000	64.516258 
4590.000000	64.462900 
4589.000000	64.437031 
4588.000000	64.446330 
4587.000000	64.493203 
4586.000000	64.573597 
4585.000000	64.677405 
4584.000000	64.789843 
4583.000000	64.895129 
4582.000000	64.979481 
4581.000000	65.034127 
4580.000000	65.056681 
4579.000000	65.050673 
4578.000000	65.023636 
4577.000000	64.983987 
4576.000000	64.938402 
4575.000000	64.890241 
4574.000000	64.839220 
4573.000000	64.782762 
4572.000000	64.718198 
4571.000000	64.645552 
4570.000000	64.568972 
4569.000000	64.496254 
4568.000000	64.438152 
4567.000000	64.405369 
4566.000000	64.406037 
4565.000000	64.442348 
4564.000000	64.510273 
4563.000000	64.599800 
4562.000000	64.697027 
4561.000000	64.787554 
4560.000000	64.858579 
4559.000000	64.901423 
4558.000000	64.912176 
4557.000000	64.891958 
4556.000000	64.844870 
4555.000000	64.776468 
4554.000000	64.692234 
4553.000000	64.596962 
4552.000000	64.494323 
4551.000000	64.387321 
4550.000000	64.279603 
4549.000000	64.175987 
4548.000000	64.082407 
4547.000000	64.005208 
4546.000000	63.950157 
4545.000000	63.920903 
4544.000000	63.916754 
4543.000000	63.933110 
4542.000000	63.961720 
4541.000000	63.992881 
4540.000000	64.017033 
4539.000000	64.027523 
4538.000000	64.021468 
4537.000000	64.000701 
4536.000000	63.970279 
4535.000000	63.937425 
4534.000000	63.908600 
4533.000000	63.888883 
4532.000000	63.880872 
4531.000000	63.884782 
4530.000000	63.898849 
4529.000000	63.921523 
4528.000000	63.952445 
4527.000000	63.992810 
4526.000000	64.045047 
4525.000000	64.111733 
4524.000000	64.194178 
4523.000000	64.291667 
4522.000000	64.400768 
4521.000000	64.515542 
4520.000000	64.628434 
4519.000000	64.732694 
4518.000000	64.823102 
4517.000000	64.896774 
4516.000000	64.952945 
4515.000000	64.993429 
4514.000000	65.020251 
4513.000000	65.035772 
4512.000000	65.040230 
4511.000000	65.033793 
4510.000000	65.014052 
4509.000000	64.978599 
4508.000000	64.924597 
4507.000000	64.851117 
4506.000000	64.759469 
4505.000000	64.654111 
4504.000000	64.542222 
4503.000000	64.432549 
4502.000000	64.334416 
4501.000000	64.255976 
4500.000000	64.203095 
4499.000000	64.178061 
4498.000000	64.180278 
4497.000000	64.206600 
4496.000000	64.251637 
4495.000000	64.308619 
4494.000000	64.370727 
4493.000000	64.431715 
4492.000000	64.485359 
4491.000000	64.526486 
4490.000000	64.551019 
4489.000000	64.557003 
4488.000000	64.544129 
4487.000000	64.514970 
4486.000000	64.475512 
4485.000000	64.433741 
4484.000000	64.399194 
4483.000000	64.379644 
4482.000000	64.380049 
4481.000000	64.400053 
4480.000000	64.434385 
4479.000000	64.473748 
4478.000000	64.507412 
4477.000000	64.525818 
4476.000000	64.523434 
4475.000000	64.498972 
4474.000000	64.455342 
4473.000000	64.398765 
4472.000000	64.336872 
4471.000000	64.276576 
4470.000000	64.222550 
4469.000000	64.177179 
4468.000000	64.140653 
4467.000000	64.111471 
4466.000000	64.087510 
4465.000000	64.066910 
4464.000000	64.049196 
4463.000000	64.035224 
4462.000000	64.027357 
4461.000000	64.027857 
4460.000000	64.038562 
4459.000000	64.060306 
4458.000000	64.091968 
4457.000000	64.130735 
4456.000000	64.171767 
4455.000000	64.209103 
4454.000000	64.236783 
4453.000000	64.249491 
4452.000000	64.244890 
4451.000000	64.224100 
4450.000000	64.191937 
4449.000000	64.156055 
4448.000000	64.124941 
4447.000000	64.106059 
4446.000000	64.103960 
4445.000000	64.119267 
4444.000000	64.149284 
4443.000000	64.188861 
4442.000000	64.232063 
4441.000000	64.273643 
4440.000000	64.309334 
4439.000000	64.336824 
4438.000000	64.354634 
4437.000000	64.362645 
4436.000000	64.361548 
4435.000000	64.352822 
4434.000000	64.338994 
4433.000000	64.322829 
4432.000000	64.307594 
4431.000000	64.295578 
4430.000000	64.288330 
4429.000000	64.284944 
4428.000000	64.283132 
4427.000000	64.278388 
4426.000000	64.265251 
4425.000000	64.238739 
4424.000000	64.195609 
4423.000000	64.136290 
4422.000000	64.064908 
4421.000000	63.989591 
4420.000000	63.920879 
4419.000000	63.868951 
4418.000000	63.840889 
4417.000000	63.838863 
4416.000000	63.859486 
4415.000000	63.893103 
4414.000000	63.926506 
4413.000000	63.945770 
4412.000000	63.940000 
4411.000000	63.905811 
4410.000000	63.848018 
4409.000000	63.774704 
4408.000000	63.696479 
4407.000000	63.630056 
4406.000000	63.589882 
4405.000000	63.576149 
4404.000000	63.580584 
4403.000000	63.595986 
4402.000000	63.613295 
4401.000000	63.618183 
4400.000000	63.602185 
4399.000000	63.569617 
4398.000000	63.530826 
4397.000000	63.498449 
4396.000000	63.482856 
4395.000000	63.486194 
4394.000000	63.504242 
4393.000000	63.530993 
4392.000000	63.549566 
4391.000000	63.535094 
4390.000000	63.467192 
4389.000000	63.338756 
4388.000000	63.151192 
4387.000000	62.922024 
4386.000000	62.688016 
4385.000000	62.509918 
4384.000000	62.454247 
4383.000000	62.598609 
4382.000000	63.015055 
4381.000000	63.771390 
4380.000000	64.904713 
4379.000000	66.428136 
4378.000000	68.315196 
4377.000000	70.509457 
4376.000000	72.919607 
4375.000000	75.432729 
4374.000000	77.937293 
4373.000000	80.306816 
4372.000000	82.439160 
4371.000000	84.207630 
4370.000000	85.489130 
4369.000000	86.143970 
4368.000000	86.057972 
4367.000000	85.150551 
4366.000000	83.421635 
4365.000000	80.957961 
4364.000000	77.952742 
4363.000000	74.656009 
4362.000000	71.348547 
4361.000000	68.288922 
4360.000000	65.682601 
4359.000000	63.670492 
4358.000000	62.318587 
4357.000000	61.626005 
4356.000000	61.531448 
4355.000000	61.912226 
4354.000000	62.616586 
4353.000000	63.445949 
4352.000000	64.223980 
4351.000000	64.804911 
4350.000000	65.120816 
4349.000000	65.167331 
4348.000000	65.010428 
4347.000000	64.752411 
4346.000000	64.504432 
4345.000000	64.340662 
4344.000000	64.296340 
4343.000000	64.371418 
4342.000000	64.529728 
4341.000000	64.723420 
4340.000000	64.902615 
4339.000000	65.036821 
4338.000000	65.111541 
4337.000000	65.129518 
4336.000000	65.104603 
4335.000000	65.052986 
4334.000000	64.992856 
4333.000000	64.939117 
4332.000000	64.893770 
4331.000000	64.847564 
4330.000000	64.798426 
4329.000000	64.749145 
4328.000000	64.699721 
4327.000000	64.650535 
4326.000000	64.606904 
4325.000000	64.574885 
4324.000000	64.556217 
4323.000000	64.549994 
4322.000000	64.551949 
4321.000000	64.556503 
4320.000000	64.560341 
4319.000000	64.561033 
4318.000000	64.555382 
4317.000000	64.542436 
4316.000000	64.523148 
4315.000000	64.500427 
4314.000000	64.478516 
4313.000000	64.460921 
4312.000000	64.448809 
4311.000000	64.441394 
4310.000000	64.436125 
4309.000000	64.429664 
4308.000000	64.419174 
4307.000000	64.402413 
4306.000000	64.378786 
4305.000000	64.349508 
4304.000000	64.317703 
4303.000000	64.287352 
4302.000000	64.262866 
4301.000000	64.247751 
4300.000000	64.244079 
4299.000000	64.252424 
4298.000000	64.271450 
4297.000000	64.297986 
4296.000000	64.327621 
4295.000000	64.355611 
4294.000000	64.377522 
4293.000000	64.389491 
4292.000000	64.389991 
4291.000000	64.379262 
4290.000000	64.360785 
4289.000000	64.340162 
4288.000000	64.324545 
4287.000000	64.321088 
4286.000000	64.335298 
4285.000000	64.369821 
4284.000000	64.423131 
4283.000000	64.489769 
4282.000000	64.560794 
4281.000000	64.625835 
4280.000000	64.675021 
4279.000000	64.701247 
4278.000000	64.701366 
4277.000000	64.676761 
4276.000000	64.632892 
4275.000000	64.577889 
4274.000000	64.520668 
4273.000000	64.469122 
4272.000000	64.429211 
4271.000000	64.403963 
4270.000000	64.394259 
4269.000000	64.398741 
4268.000000	64.415550 
4267.000000	64.441943 
4266.000000	64.475083 
4265.000000	64.511704 
4264.000000	64.547967 
4263.000000	64.579844 
4262.000000	64.602875 
4261.000000	64.613533 
4260.000000	64.609313 
4259.000000	64.589905 
4258.000000	64.557385 
4257.000000	64.516043 
4256.000000	64.471793 
4255.000000	64.430499 
4254.000000	64.396977 
4253.000000	64.373993 
4252.000000	64.362049 
4251.000000	64.359712 
4250.000000	64.364266 
4249.000000	64.372467 
4248.000000	64.381623 
4247.000000	64.389491 
4246.000000	64.394998 
4245.000000	64.397215 
4244.000000	64.396190 
4243.000000	64.392280 
4242.000000	64.386868 
4241.000000	64.381814 
4240.000000	64.379811 
4239.000000	64.383769 
4238.000000	64.396095 
4237.000000	64.418244 
4236.000000	64.449715 
4235.000000	64.487910 
4234.000000	64.528560 
4233.000000	64.566421 
4232.000000	64.596962 
4231.000000	64.617395 
4230.000000	64.627599 
4229.000000	64.630270 
4228.000000	64.630055 
4227.000000	64.632248 
4226.000000	64.641141 
4225.000000	64.658904 
4224.000000	64.685201 
4223.000000	64.717102 
4222.000000	64.750742 
4221.000000	64.781713 
4220.000000	64.806485 
4219.000000	64.822673 
4218.000000	64.829087 
4217.000000	64.825582 
4216.000000	64.813113 
4215.000000	64.793205 
4214.000000	64.767050 
4213.000000	64.736390 
4212.000000	64.703536 
4211.000000	64.671802 
4210.000000	64.645314 
4209.000000	64.628601 
4208.000000	64.625811 
4207.000000	64.639377 
4206.000000	64.669632 
4205.000000	64.713644 
4204.000000	64.765381 
4203.000000	64.816641 
4202.000000	64.858627 
4201.000000	64.883947 
4200.000000	64.888167 
4199.000000	64.871120 
4198.000000	64.836525 
4197.000000	64.791321 
4196.000000	64.743328 
4195.000000	64.699673 
4194.000000	64.664053 
4193.000000	64.636111 
4192.000000	64.611148 
4191.000000	64.581584 
4190.000000	64.539456 
4189.000000	64.478754 
4188.000000	64.398360 
4187.000000	64.301991 
4186.000000	64.199495 
4185.000000	64.103913 
4184.000000	64.030218 
4183.000000	63.990759 
4182.000000	63.993644 
4181.000000	64.039969 
4180.000000	64.124345 
4179.000000	64.235615 
4178.000000	64.359521 
4177.000000	64.481091 
4176.000000	64.587950 
4175.000000	64.672040 
4174.000000	64.730334 
4173.000000	64.764094 
4172.000000	64.777922 
4171.000000	64.777827 
4170.000000	64.769530 
4169.000000	64.756727 
4168.000000	64.741611 
4167.000000	64.724278 
4166.000000	64.704084 
4165.000000	64.680075 
4164.000000	64.652466 
4163.000000	64.622545 
4162.000000	64.592742 
4161.000000	64.566230 
4160.000000	64.545893 
4159.000000	64.534235 
