PE IR       SPECTRUM    SPECTRUM    ASCII       PEDS        1.60        
  -1
C-996E~1.ASC
17/03/27
14:58:38.00
17/03/27
14:58:38.00
tln
$C-4040-8_t0006$<tbV0>[0.0,-13.0,8.0,0.0,27,1,0]
370.000000
64









2002,4.07    
MIRTGS : RIGHTBACK : INTERNAL 2
MIR : ON : INTERNAL 2
OPTKBR

0.200000
8
8.000000
FILLER
RATIO
SPECTRUM
UNLOCKED 256

DOUBLE
64
COMBINED
1
0
0


1.000000
RATIO


1
0
TRUE
51149
0
LEFT NOT FITTED RIGHT NOT FITTED 0
NONE
NONE
15600
12.000000
4.427000
51148
TRUE
1 0 8 72 0 0 0 0 

15798.010000






#HDR
-1
-1
#GR
CM-1
%T
0.00002384185791015625
0.0
5000.000000
-1.000000
4631
8
70.939350
-7.819414
#DATA
5000.000000	64.117980 
4999.000000	64.050865 
4998.000000	63.965177 
4997.000000	63.875102 
4996.000000	63.797354 
4995.000000	63.748598 
4994.000000	63.740968 
4993.000000	63.778829 
4992.000000	63.858294 
4991.000000	63.968825 
4990.000000	64.094614 
4989.000000	64.217948 
4988.000000	64.322948 
4987.000000	64.398455 
4986.000000	64.438939 
4985.000000	64.444470 
4984.000000	64.418768 
4983.000000	64.366984 
4982.000000	64.293670 
4981.000000	64.202046 
4980.000000	64.093089 
4979.000000	63.967967 
4978.000000	63.829374 
4977.000000	63.684654 
4976.000000	63.547992 
4975.000000	63.438367 
4974.000000	63.375830 
4973.000000	63.375568 
4972.000000	63.444280 
4971.000000	63.574385 
4970.000000	63.744211 
4969.000000	63.920450 
4968.000000	64.064145 
4967.000000	64.140105 
4966.000000	64.125013 
4965.000000	64.013338 
4964.000000	63.817787 
4963.000000	63.567638 
4962.000000	63.301944 
4961.000000	63.060069 
4960.000000	62.872767 
4959.000000	62.757086 
4958.000000	62.714052 
4957.000000	62.732481 
4956.000000	62.793493 
4955.000000	62.876820 
4954.000000	62.965035 
4953.000000	63.043570 
4952.000000	63.101720 
4951.000000	63.129758 
4950.000000	63.119816 
4949.000000	63.063883 
4948.000000	62.957358 
4947.000000	62.801074 
4946.000000	62.604498 
4945.000000	62.384700 
4944.000000	62.166786 
4943.000000	61.979722 
4942.000000	61.852693 
4941.000000	61.808180 
4940.000000	61.859011 
4939.000000	62.004756 
4938.000000	62.231922 
4937.000000	62.515783 
4936.000000	62.824535 
4935.000000	63.124394 
4934.000000	63.385009 
4933.000000	63.583397 
4932.000000	63.708019 
4931.000000	63.758802 
4930.000000	63.747930 
4929.000000	63.696098 
4928.000000	63.630223 
4927.000000	63.577342 
4926.000000	63.560080 
4925.000000	63.591289 
4924.000000	63.673138 
4923.000000	63.796281 
4922.000000	63.943219 
4921.000000	64.092731 
4920.000000	64.224362 
4919.000000	64.324259 
4918.000000	64.387655 
4917.000000	64.419841 
4916.000000	64.433145 
4915.000000	64.443564 
4914.000000	64.465165 
4913.000000	64.507126 
4912.000000	64.571571 
4911.000000	64.653778 
4910.000000	64.745235 
4909.000000	64.834809 
4908.000000	64.914083 
4907.000000	64.975190 
4906.000000	65.013408 
4905.000000	65.023946 
4904.000000	65.002155 
4903.000000	64.945077 
4902.000000	64.852881 
4901.000000	64.729571 
4900.000000	64.583849 
4899.000000	64.430236 
4898.000000	64.286184 
4897.000000	64.169454 
4896.000000	64.093399 
4895.000000	64.063954 
4894.000000	64.077496 
4893.000000	64.121103 
4892.000000	64.176225 
4891.000000	64.222550 
4890.000000	64.243793 
4889.000000	64.230442 
4888.000000	64.182686 
4887.000000	64.109182 
4886.000000	64.024496 
4885.000000	63.943743 
4884.000000	63.879656 
4883.000000	63.839292 
4882.000000	63.823175 
4881.000000	63.826513 
4880.000000	63.840842 
4879.000000	63.857316 
4878.000000	63.868594 
4877.000000	63.870763 
4876.000000	63.862895 
4875.000000	63.846445 
4874.000000	63.823843 
4873.000000	63.797378 
4872.000000	63.768219 
4871.000000	63.736605 
4870.000000	63.703250 
4869.000000	63.669800 
4868.000000	63.638877 
4867.000000	63.614130 
4866.000000	63.600111 
4865.000000	63.601088 
4864.000000	63.619256 
4863.000000	63.654494 
4862.000000	63.703417 
4861.000000	63.760280 
4860.000000	63.818001 
4859.000000	63.869333 
4858.000000	63.908052 
4857.000000	63.930559 
4856.000000	63.936591 
4855.000000	63.929080 
4854.000000	63.913273 
4853.000000	63.896107 
4852.000000	63.884544 
4851.000000	63.884639 
4850.000000	63.900208 
4849.000000	63.932561 
4848.000000	63.980388 
4847.000000	64.040279 
4846.000000	64.107584 
4845.000000	64.177870 
4844.000000	64.247584 
4843.000000	64.314579 
4842.000000	64.377403 
4841.000000	64.434647 
4840.000000	64.483761 
4839.000000	64.521741 
4838.000000	64.544081 
4837.000000	64.546251 
4836.000000	64.524316 
4835.000000	64.477491 
4834.000000	64.407801 
4833.000000	64.321327 
4832.000000	64.225816 
4831.000000	64.130663 
4830.000000	64.043354 
4829.000000	63.968586 
4828.000000	63.906717 
4827.000000	63.854146 
4826.000000	63.805127 
4825.000000	63.753819 
4824.000000	63.696408 
4823.000000	63.632488 
4822.000000	63.564991 
4821.000000	63.499641 
4820.000000	63.442707 
4819.000000	63.399624 
4818.000000	63.373661 
4817.000000	63.365554 
4816.000000	63.373517 
4815.000000	63.394594 
4814.000000	63.426399 
4813.000000	63.467526 
4812.000000	63.517522 
4811.000000	63.576197 
4810.000000	63.642454 
4809.000000	63.713693 
4808.000000	63.784790 
4807.000000	63.848948 
4806.000000	63.898992 
4805.000000	63.928866 
4804.000000	63.935899 
4803.000000	63.920855 
4802.000000	63.888192 
4801.000000	63.844966 
4800.000000	63.799595 
4799.000000	63.759851 
4798.000000	63.731193 
4797.000000	63.716793 
4796.000000	63.717341 
4795.000000	63.731956 
4794.000000	63.758540 
4793.000000	63.794612 
4792.000000	63.837313 
4791.000000	63.882613 
4790.000000	63.925576 
4789.000000	63.960170 
4788.000000	63.980579 
4787.000000	63.982224 
4786.000000	63.963365 
4785.000000	63.926315 
4784.000000	63.876771 
4783.000000	63.823223 
4782.000000	63.774561 
4781.000000	63.738203 
4780.000000	63.718366 
4779.000000	63.715600 
4778.000000	63.726830 
4777.000000	63.746619 
4776.000000	63.768577 
4775.000000	63.787341 
4774.000000	63.798880 
4773.000000	63.801288 
4772.000000	63.794445 
4771.000000	63.779020 
4770.000000	63.756108 
4769.000000	63.726472 
4768.000000	63.691353 
4767.000000	63.652634 
4766.000000	63.613462 
4765.000000	63.578081 
4764.000000	63.551020 
4763.000000	63.536238 
4762.000000	63.535499 
4761.000000	63.548207 
4760.000000	63.571286 
4759.000000	63.600111 
4758.000000	63.629412 
4757.000000	63.654518 
4756.000000	63.672327 
4755.000000	63.682174 
4754.000000	63.685393 
4753.000000	63.685250 
4752.000000	63.685822 
4751.000000	63.690972 
4750.000000	63.703823 
4749.000000	63.725137 
4748.000000	63.753581 
4747.000000	63.785362 
4746.000000	63.815569 
4745.000000	63.838410 
4744.000000	63.848805 
4743.000000	63.843131 
4742.000000	63.820028 
4741.000000	63.780903 
4740.000000	63.729715 
4739.000000	63.672423 
4738.000000	63.615727 
4737.000000	63.565397 
4736.000000	63.525485 
4735.000000	63.497591 
4734.000000	63.481330 
4733.000000	63.475179 
4732.000000	63.477206 
4731.000000	63.486123 
4730.000000	63.501238 
4729.000000	63.522195 
4728.000000	63.548612 
4727.000000	63.578820 
4726.000000	63.610672 
4725.000000	63.641428 
4724.000000	63.668417 
4723.000000	63.689541 
4722.000000	63.703823 
4721.000000	63.711595 
4720.000000	63.714051 
4719.000000	63.712954 
4718.000000	63.709902 
4717.000000	63.705825 
4716.000000	63.700962 
4715.000000	63.694834 
4714.000000	63.687133 
4713.000000	63.678050 
4712.000000	63.668560 
4711.000000	63.660097 
4710.000000	63.653945 
4709.000000	63.650822 
4708.000000	63.650584 
4707.000000	63.652157 
4706.000000	63.653993 
4705.000000	63.654732 
4704.000000	63.653898 
4703.000000	63.651823 
4702.000000	63.649296 
4701.000000	63.647127 
4700.000000	63.645529 
4699.000000	63.644385 
4698.000000	63.642907 
4697.000000	63.640570 
4696.000000	63.637495 
4695.000000	63.634562 
4694.000000	63.633966 
4693.000000	63.637804 
4692.000000	63.647770 
4691.000000	63.663530 
4690.000000	63.682436 
4689.000000	63.699722 
4688.000000	63.709473 
4687.000000	63.706326 
4686.000000	63.687086 
4685.000000	63.652181 
4684.000000	63.605880 
4683.000000	63.555121 
4682.000000	63.507676 
4681.000000	63.470196 
4680.000000	63.446569 
4679.000000	63.437080 
4678.000000	63.439130 
4677.000000	63.448357 
4676.000000	63.460564 
4675.000000	63.473081 
4674.000000	63.485550 
4673.000000	63.499665 
4672.000000	63.517951 
4671.000000	63.541865 
4670.000000	63.571166 
4669.000000	63.602542 
4668.000000	63.631010 
4667.000000	63.650703 
4666.000000	63.657212 
4665.000000	63.649201 
4664.000000	63.629150 
4663.000000	63.602852 
4662.000000	63.578128 
4661.000000	63.562703 
4660.000000	63.561773 
4659.000000	63.576602 
4658.000000	63.604259 
4657.000000	63.638830 
4656.000000	63.673043 
4655.000000	63.700652 
4654.000000	63.717842 
4653.000000	63.724231 
4652.000000	63.722276 
4651.000000	63.716721 
4650.000000	63.712096 
4649.000000	63.712334 
4648.000000	63.719296 
4647.000000	63.732719 
4646.000000	63.751363 
4645.000000	63.772821 
4644.000000	63.795113 
4643.000000	63.816356 
4642.000000	63.835501 
4641.000000	63.851833 
4640.000000	63.864374 
4639.000000	63.872694 
4638.000000	63.876271 
4637.000000	63.875842 
4636.000000	63.873505 
4635.000000	63.872575 
4634.000000	63.877105 
4633.000000	63.890433 
4632.000000	63.914060 
4631.000000	63.946366 
4630.000000	63.982772 
4629.000000	64.016580 
4628.000000	64.040708 
4627.000000	64.049577 
4626.000000	64.040589 
4625.000000	64.015078 
4624.000000	63.978052 
4623.000000	63.936400 
4622.000000	63.897871 
4621.000000	63.868999 
4620.000000	63.854455 
4619.000000	63.855957 
4618.000000	63.872933 
4617.000000	63.903212 
4616.000000	63.943576 
4615.000000	63.990950 
4614.000000	64.042282 
4613.000000	64.094495 
4612.000000	64.144134 
4611.000000	64.187073 
4610.000000	64.218997 
4609.000000	64.235877 
4608.000000	64.235329 
4607.000000	64.217162 
4606.000000	64.183807 
4605.000000	64.140295 
4604.000000	64.093065 
4603.000000	64.048624 
4602.000000	64.012360 
4601.000000	63.987302 
4600.000000	63.973307 
4599.000000	63.967347 
4598.000000	63.964557 
4597.000000	63.959670 
4596.000000	63.948488 
4595.000000	63.929533 
4594.000000	63.903856 
4593.000000	63.875651 
4592.000000	63.850450 
4591.000000	63.834118 
4590.000000	63.830518 
4589.000000	63.841128 
4588.000000	63.864254 
4587.000000	63.895916 
4586.000000	63.931250 
4585.000000	63.965535 
4584.000000	63.995051 
4583.000000	64.018034 
4582.000000	64.035105 
4581.000000	64.047503 
4580.000000	64.055991 
4579.000000	64.060115 
4578.000000	64.057660 
4577.000000	64.045119 
4576.000000	64.018845 
4575.000000	63.976359 
4574.000000	63.918066 
4573.000000	63.847804 
4572.000000	63.773155 
4571.000000	63.704013 
4570.000000	63.651084 
4569.000000	63.623499 
4568.000000	63.627314 
4567.000000	63.663649 
4566.000000	63.728594 
4565.000000	63.814520 
4564.000000	63.910198 
4563.000000	64.003539 
4562.000000	64.081978 
4561.000000	64.135241 
4560.000000	64.155030 
4559.000000	64.135670 
4558.000000	64.074945 
4557.000000	63.974547 
4556.000000	63.840627 
4555.000000	63.683700 
4554.000000	63.518023 
4553.000000	63.360261 
4552.000000	63.226246 
4551.000000	63.128638 
4550.000000	63.074111 
4549.000000	63.062310 
4548.000000	63.085675 
4547.000000	63.131928 
4546.000000	63.186144 
4545.000000	63.235235 
4544.000000	63.269901 
4543.000000	63.287758 
4542.000000	63.291954 
4541.000000	63.291025 
4540.000000	63.294529 
4539.000000	63.311290 
4538.000000	63.346505 
4537.000000	63.400530 
4536.000000	63.469004 
4535.000000	63.543868 
4534.000000	63.616466 
4533.000000	63.678717 
4532.000000	63.725113 
4531.000000	63.753509 
4530.000000	63.764834 
4529.000000	63.763499 
4528.000000	63.755750 
4527.000000	63.748908 
4526.000000	63.749527 
4525.000000	63.761734 
4524.000000	63.786149 
4523.000000	63.819861 
4522.000000	63.857269 
4521.000000	63.891673 
4520.000000	63.917255 
4519.000000	63.930630 
4518.000000	63.932037 
4517.000000	63.924479 
4516.000000	63.913774 
4515.000000	63.905811 
4514.000000	63.906574 
4513.000000	63.921070 
4512.000000	63.952040 
4511.000000	64.000463 
4510.000000	64.063644 
4509.000000	64.135622 
4508.000000	64.208221 
4507.000000	64.272475 
4506.000000	64.321303 
4505.000000	64.351463 
4504.000000	64.364027 
4503.000000	64.364218 
4502.000000	64.358544 
4501.000000	64.352822 
4500.000000	64.349436 
4499.000000	64.346623 
4498.000000	64.338564 
4497.000000	64.317345 
4496.000000	64.276003 
4495.000000	64.211320 
4494.000000	64.125394 
4493.000000	64.025664 
4492.000000	63.923311 
4491.000000	63.830733 
4490.000000	63.756060 
4489.000000	63.703989 
4488.000000	63.673305 
4487.000000	63.661623 
4486.000000	63.667607 
4485.000000	63.692808 
4484.000000	63.744902 
4483.000000	63.830900 
4482.000000	63.950848 
4481.000000	64.097690 
4480.000000	64.255595 
4479.000000	64.404177 
4478.000000	64.520716 
4477.000000	64.589929 
4476.000000	64.609098 
4475.000000	64.587426 
4474.000000	64.544129 
4473.000000	64.501166 
4472.000000	64.476704 
4471.000000	64.481234 
4470.000000	64.515924 
4469.000000	64.571332 
4468.000000	64.631509 
4467.000000	64.684677 
4466.000000	64.726352 
4465.000000	64.758276 
4464.000000	64.788699 
4463.000000	64.826464 
4462.000000	64.882040 
4461.000000	64.956402 
4460.000000	65.052080 
4459.000000	65.172052 
4458.000000	65.328168 
4457.000000	65.538430 
4456.000000	65.827155 
4455.000000	66.218686 
4454.000000	66.727519 
4453.000000	67.349481 
4452.000000	68.057203 
4451.000000	68.802928 
4450.000000	69.522094 
4449.000000	70.148134 
4448.000000	70.618486 
4447.000000	70.890522 
4446.000000	70.939350 
4445.000000	70.764708 
4444.000000	70.376849 
4443.000000	69.795179 
4442.000000	69.042110 
4441.000000	68.144130 
4440.000000	67.138051 
4439.000000	66.072511 
4438.000000	65.010952 
4437.000000	64.024019 
4436.000000	63.182497 
4435.000000	62.543082 
4434.000000	62.130570 
4433.000000	61.937284 
4432.000000	61.922788 
4431.000000	62.027502 
4430.000000	62.172031 
4429.000000	62.289977 
4428.000000	62.342548 
4427.000000	62.322950 
4426.000000	62.242889 
4425.000000	62.132930 
4424.000000	62.020611 
4423.000000	61.930179 
4422.000000	61.872243 
4421.000000	61.847496 
4420.000000	61.847400 
4419.000000	61.865925 
4418.000000	61.906838 
4417.000000	61.968827 
4416.000000	62.043404 
4415.000000	62.109160 
4414.000000	62.134242 
4413.000000	62.075567 
4412.000000	61.891555 
4411.000000	61.567044 
4410.000000	61.113238 
4409.000000	60.578489 
4408.000000	60.017037 
4407.000000	59.494590 
4406.000000	59.034872 
4405.000000	58.601903 
4404.000000	58.102893 
4403.000000	57.399272 
4402.000000	56.373715 
4401.000000	54.959630 
4400.000000	53.209614 
4399.000000	51.288270 
4398.000000	49.475383 
4397.000000	48.094558 
4396.000000	47.453594 
4395.000000	47.749996 
4394.000000	49.037933 
4393.000000	51.198840 
4392.000000	53.974890 
4391.000000	57.019376 
4390.000000	59.977769 
4389.000000	62.556934 
4388.000000	64.575266 
4387.000000	65.979933 
4386.000000	66.825962 
4385.000000	67.237615 
4384.000000	67.361497 
4383.000000	67.320370 
4382.000000	67.202687 
4381.000000	67.038679 
4380.000000	66.848659 
4379.000000	66.622638 
4378.000000	66.360449 
4377.000000	66.058897 
4376.000000	65.731024 
4375.000000	65.394854 
4374.000000	65.066838 
4373.000000	64.764213 
4372.000000	64.499926 
4371.000000	64.284920 
4370.000000	64.124512 
4369.000000	64.023256 
4368.000000	63.984465 
4367.000000	64.009141 
4366.000000	64.093041 
4365.000000	64.227819 
4364.000000	64.399147 
4363.000000	64.590954 
4362.000000	64.787030 
4361.000000	64.970684 
4360.000000	65.125513 
4359.000000	65.246057 
4358.000000	65.335202 
4357.000000	65.390110 
4356.000000	65.405154 
4355.000000	65.381479 
4354.000000	65.323615 
4353.000000	65.240645 
4352.000000	65.143227 
4351.000000	65.043354 
4350.000000	64.950752 
4349.000000	64.872670 
4348.000000	64.811921 
4347.000000	64.767670 
4346.000000	64.736342 
4345.000000	64.714884 
4344.000000	64.699888 
4343.000000	64.687895 
4342.000000	64.676547 
4341.000000	64.664173 
4340.000000	64.649796 
4339.000000	64.632058 
4338.000000	64.610219 
4337.000000	64.583969 
4336.000000	64.552736 
4335.000000	64.515709 
4334.000000	64.471864 
4333.000000	64.420175 
4332.000000	64.360284 
4331.000000	64.293360 
4330.000000	64.221549 
4329.000000	64.148831 
4328.000000	64.081287 
4327.000000	64.025878 
4326.000000	63.989210 
4325.000000	63.975214 
4324.000000	63.984012 
4323.000000	64.010930 
4322.000000	64.046907 
4321.000000	64.080476 
4320.000000	64.100098 
4319.000000	64.097309 
4318.000000	64.068484 
4317.000000	64.015841 
4316.000000	63.946270 
4315.000000	63.870048 
4314.000000	63.797879 
4313.000000	63.739299 
4312.000000	63.700747 
4311.000000	63.685226 
4310.000000	63.692307 
4309.000000	63.718914 
4308.000000	63.760685 
4307.000000	63.812518 
4306.000000	63.869643 
4305.000000	63.927412 
4304.000000	63.981842 
4303.000000	64.029741 
4302.000000	64.068984 
4301.000000	64.098334 
4300.000000	64.117455 
4299.000000	64.128208 
4298.000000	64.132547 
4297.000000	64.132666 
4296.000000	64.129257 
4295.000000	64.122128 
4294.000000	64.109086 
4293.000000	64.087080 
4292.000000	64.052820 
4291.000000	64.004826 
4290.000000	63.943696 
4289.000000	63.873171 
4288.000000	63.799238 
4287.000000	63.729119 
4286.000000	63.669204 
4285.000000	63.623452 
4284.000000	63.592290 
4283.000000	63.572812 
4282.000000	63.560128 
4281.000000	63.549113 
4280.000000	63.536477 
4279.000000	63.522219 
4278.000000	63.510155 
4277.000000	63.507175 
4276.000000	63.520359 
4275.000000	63.555073 
4274.000000	63.613200 
4273.000000	63.691926 
4272.000000	63.783574 
4271.000000	63.877034 
4270.000000	63.960552 
4269.000000	64.024066 
4268.000000	64.061212 
4267.000000	64.070844 
4266.000000	64.057064 
4265.000000	64.027714 
4264.000000	63.992691 
4263.000000	63.960957 
4262.000000	63.939070 
4261.000000	63.929390 
4260.000000	63.931035 
4259.000000	63.939809 
4258.000000	63.950157 
4257.000000	63.956451 
4256.000000	63.955187 
4255.000000	63.944172 
4254.000000	63.922882 
4253.000000	63.892292 
4252.000000	63.854289 
4251.000000	63.811016 
4250.000000	63.764572 
4249.000000	63.717341 
4248.000000	63.671588 
4247.000000	63.629794 
4246.000000	63.594031 
4245.000000	63.565778 
4244.000000	63.545417 
4243.000000	63.532018 
4242.000000	63.523602 
4241.000000	63.516831 
4240.000000	63.508391 
4239.000000	63.495898 
4238.000000	63.478374 
4237.000000	63.456130 
4236.000000	63.431262 
4235.000000	63.406848 
4234.000000	63.386678 
4233.000000	63.373684 
4232.000000	63.370490 
4231.000000	63.378763 
4230.000000	63.399505 
4229.000000	63.432741 
4228.000000	63.477444 
4227.000000	63.531446 
4226.000000	63.591337 
4225.000000	63.652777 
4224.000000	63.710999 
4223.000000	63.761377 
4222.000000	63.800263 
4221.000000	63.825488 
4220.000000	63.836669 
4219.000000	63.834857 
4218.000000	63.822841 
4217.000000	63.803601 
4216.000000	63.780260 
4215.000000	63.754796 
4214.000000	63.728523 
4213.000000	63.701462 
4212.000000	63.673973 
4211.000000	63.645601 
4210.000000	63.616394 
4209.000000	63.585758 
4208.000000	63.553047 
4207.000000	63.517141 
4206.000000	63.476681 
4205.000000	63.431072 
4204.000000	63.380837 
4203.000000	63.328337 
4202.000000	63.277840 
4201.000000	63.234329 
4200.000000	63.202404 
4199.000000	63.184952 
4198.000000	63.182401 
4197.000000	63.192439 
4196.000000	63.210415 
4195.000000	63.230800 
4194.000000	63.248467 
4193.000000	63.259673 
4192.000000	63.262486 
4191.000000	63.257074 
4190.000000	63.244223 
4189.000000	63.224339 
4188.000000	63.196349 
4187.000000	63.157749 
4186.000000	63.105368 
4185.000000	63.036918 
4184.000000	62.952446 
4183.000000	62.855744 
4182.000000	62.754464 
4181.000000	62.658905 
4180.000000	62.580394 
4179.000000	62.528443 
4178.000000	62.509655 
4177.000000	62.525677 
4176.000000	62.573456 
4175.000000	62.645816 
4174.000000	62.732982 
4173.000000	62.824726 
4172.000000	62.912368 
4171.000000	62.990427 
4170.000000	63.057494 
4169.000000	63.116025 
4168.000000	63.171434 
4167.000000	63.229990 
4166.000000	63.296675 
4165.000000	63.373017 
4164.000000	63.457322 
4163.000000	63.543772 
4162.000000	63.624453 
4161.000000	63.690018 
4160.000000	63.733386 
4159.000000	63.749647 
