PE IR       SPECTRUM    SPECTRUM    ASCII       PEDS        1.60        
  -1
C-9B64~1.ASC
17/03/27
17:53:07.00
17/03/27
17:53:07.00
tln
$C-4040-8_t0042$<tbV0>[-7.8,-5.2,8.0,0.0,27,1,0]
370.000000
64









2002,4.07    
MIRTGS : RIGHTBACK : INTERNAL 2
MIR : ON : INTERNAL 2
OPTKBR

0.200000
8
8.000000
FILLER
RATIO
SPECTRUM
UNLOCKED 256

DOUBLE
64
COMBINED
1
0
0


1.000000
RATIO


1
0
TRUE
51149
0
LEFT NOT FITTED RIGHT NOT FITTED 0
NONE
NONE
15600
12.000000
4.427000
51148
TRUE
1 0 8 72 0 0 0 0 

15798.010000






#HDR
-1
-1
#GR
CM-1
%T
0.00002384185791015625
0.0
5000.000000
-1.000000
4631
8
115.776348
43.906164
#DATA
5000.000000	64.713168  
4999.000000	64.684987  
4998.000000	64.669537  
4997.000000	64.668846  
4996.000000	64.682269  
4995.000000	64.706993  
4994.000000	64.737248  
4993.000000	64.765572  
4992.000000	64.783406  
4991.000000	64.783215  
4990.000000	64.759087  
4989.000000	64.707612  
4988.000000	64.629054  
4987.000000	64.527654  
4986.000000	64.410734  
4985.000000	64.287734  
4984.000000	64.168906  
4983.000000	64.064025  
4982.000000	63.981008  
4981.000000	63.925313  
4980.000000	63.898992  
4979.000000	63.901782  
4978.000000	63.931012  
4977.000000	63.983321  
4976.000000	64.055395  
4975.000000	64.144587  
4974.000000	64.248442  
4973.000000	64.363479  
4972.000000	64.484167  
4971.000000	64.602136  
4970.000000	64.707016  
4969.000000	64.787077  
4968.000000	64.831018  
4967.000000	64.830589  
4966.000000	64.783596  
4965.000000	64.694476  
4964.000000	64.574313  
4963.000000	64.439082  
4962.000000	64.306926  
4961.000000	64.194869  
4960.000000	64.115810  
4959.000000	64.076733  
4958.000000	64.078140  
4957.000000	64.115047  
4956.000000	64.178586  
4955.000000	64.258265  
4954.000000	64.343690  
4953.000000	64.424681  
4952.000000	64.492630  
4951.000000	64.540076  
4950.000000	64.562630  
4949.000000	64.558506  
4948.000000	64.530873  
4947.000000	64.486908  
4946.000000	64.438009  
4945.000000	64.398789  
4944.000000	64.383411  
4943.000000	64.403104  
4942.000000	64.462280  
4941.000000	64.558601  
4940.000000	64.681267  
4939.000000	64.813590  
4938.000000	64.936375  
4937.000000	65.032458  
4936.000000	65.090131  
4935.000000	65.105676  
4934.000000	65.083456  
4933.000000	65.034222  
4932.000000	64.972329  
4931.000000	64.912199  
4930.000000	64.865064  
4929.000000	64.836764  
4928.000000	64.828372  
4927.000000	64.836740  
4926.000000	64.856266  
4925.000000	64.880466  
4924.000000	64.903211  
4923.000000	64.919710  
4922.000000	64.926600  
4921.000000	64.922094  
4920.000000	64.904546  
4919.000000	64.873409  
4918.000000	64.828801  
4917.000000	64.772820  
4916.000000	64.709329  
4915.000000	64.644002  
4914.000000	64.583826  
4913.000000	64.535641  
4912.000000	64.505028  
4911.000000	64.494895  
4910.000000	64.504456  
4909.000000	64.530062  
4908.000000	64.565205  
4907.000000	64.603662  
4906.000000	64.640688  
4905.000000	64.673924  
4904.000000	64.703178  
4903.000000	64.729976  
4902.000000	64.756131  
4901.000000	64.781975  
4900.000000	64.805555  
4899.000000	64.822554  
4898.000000	64.827322  
4897.000000	64.815354  
4896.000000	64.784860  
4895.000000	64.738106  
4894.000000	64.681625  
4893.000000	64.624810  
4892.000000	64.578199  
4891.000000	64.550757  
4890.000000	64.548039  
4889.000000	64.570593  
4888.000000	64.614534  
4887.000000	64.672732  
4886.000000	64.736819  
4885.000000	64.799571  
4884.000000	64.855360  
4883.000000	64.901089  
4882.000000	64.935326  
4881.000000	64.957618  
4880.000000	64.967679  
4879.000000	64.964818  
4878.000000	64.948463  
4877.000000	64.918637  
4876.000000	64.877200  
4875.000000	64.828133  
4874.000000	64.777731  
4873.000000	64.733648  
4872.000000	64.703726  
4871.000000	64.693880  
4870.000000	64.706301  
4869.000000	64.738368  
4868.000000	64.782762  
4867.000000	64.828872  
4866.000000	64.864873  
4865.000000	64.880752  
4864.000000	64.870524  
4863.000000	64.833879  
4862.000000	64.776349  
4861.000000	64.707732  
4860.000000	64.639425  
4859.000000	64.581704  
4858.000000	64.541292  
4857.000000	64.519810  
4856.000000	64.513826  
4855.000000	64.516353  
4854.000000	64.519309  
4853.000000	64.516353  
4852.000000	64.505076  
4851.000000	64.487361  
4850.000000	64.468598  
4849.000000	64.455652  
4848.000000	64.454340  
4847.000000	64.467144  
4846.000000	64.492130  
4845.000000	64.523720  
4844.000000	64.554262  
4843.000000	64.576578  
4842.000000	64.586377  
4841.000000	64.583468  
4840.000000	64.571905  
4839.000000	64.558577  
4838.000000	64.551019  
4837.000000	64.555025  
4836.000000	64.573097  
4835.000000	64.603376  
4834.000000	64.640522  
4833.000000	64.677691  
4832.000000	64.708590  
4831.000000	64.729380  
4830.000000	64.739656  
4829.000000	64.742016  
4828.000000	64.741301  
4827.000000	64.742732  
4826.000000	64.749932  
4825.000000	64.763617  
4824.000000	64.781451  
4823.000000	64.799022  
4822.000000	64.810752  
4821.000000	64.811611  
4820.000000	64.798760  
4819.000000	64.772224  
4818.000000	64.734458  
4817.000000	64.689779  
4816.000000	64.643192  
4815.000000	64.598941  
4814.000000	64.559364  
4813.000000	64.524650  
4812.000000	64.493107  
4811.000000	64.462256  
4810.000000	64.430141  
4809.000000	64.396190  
4808.000000	64.361405  
4807.000000	64.328455  
4806.000000	64.300942  
4805.000000	64.282679  
4804.000000	64.275908  
4803.000000	64.281344  
4802.000000	64.297795  
4801.000000	64.322543  
4800.000000	64.351820  
4799.000000	64.381885  
4798.000000	64.409732  
4797.000000	64.433741  
4796.000000	64.453864  
4795.000000	64.471173  
4794.000000	64.487552  
4793.000000	64.505410  
4792.000000	64.526939  
4791.000000	64.553856  
4790.000000	64.586758  
4789.000000	64.625453  
4788.000000	64.668297  
4787.000000	64.712691  
4786.000000	64.754772  
4785.000000	64.790463  
4784.000000	64.815330  
4783.000000	64.825415  
4782.000000	64.817833  
4781.000000	64.791727  
4780.000000	64.748263  
4779.000000	64.690232  
4778.000000	64.622378  
4777.000000	64.550757  
4776.000000	64.482259  
4775.000000	64.423537  
4774.000000	64.380836  
4773.000000	64.358949  
4772.000000	64.361333  
4771.000000	64.389061  
4770.000000	64.440941  
4769.000000	64.513206  
4768.000000	64.599919  
4767.000000	64.693427  
4766.000000	64.784932  
4765.000000	64.865374  
4764.000000	64.927148  
4763.000000	64.964747  
4762.000000	64.975595  
4761.000000	64.960265  
4760.000000	64.922475  
4759.000000	64.868211  
4758.000000	64.804816  
4757.000000	64.739990  
4756.000000	64.681220  
4755.000000	64.634704  
4754.000000	64.604973  
4753.000000	64.594388  
4752.000000	64.603281  
4751.000000	64.629960  
4750.000000	64.670729  
4749.000000	64.720964  
4748.000000	64.775085  
4747.000000	64.827942  
4746.000000	64.875149  
4745.000000	64.913702  
4744.000000	64.941740  
4743.000000	64.958953  
4742.000000	64.966416  
4741.000000	64.965724  
4740.000000	64.958500  
4739.000000	64.946079  
4738.000000	64.928936  
4737.000000	64.906859  
4736.000000	64.878916  
4735.000000	64.843988  
4734.000000	64.801311  
4733.000000	64.751315  
4732.000000	64.695763  
4731.000000	64.637470  
4730.000000	64.580178  
4729.000000	64.527559  
4728.000000	64.483070  
4727.000000	64.448738  
4726.000000	64.425826  
4725.000000	64.414215  
4724.000000	64.413428  
4723.000000	64.422607  
4722.000000	64.441370  
4721.000000	64.469695  
4720.000000	64.507627  
4719.000000	64.554572  
4718.000000	64.608836  
4717.000000	64.667439  
4716.000000	64.725875  
4715.000000	64.778661  
4714.000000	64.820909  
4713.000000	64.849281  
4712.000000	64.862847  
4711.000000	64.863085  
4710.000000	64.853620  
4709.000000	64.839196  
4708.000000	64.824414  
4707.000000	64.812731  
4706.000000	64.805769  
4705.000000	64.803099  
4704.000000	64.803266  
4703.000000	64.804053  
4702.000000	64.803433  
4701.000000	64.799952  
4700.000000	64.793133  
4699.000000	64.783239  
4698.000000	64.770507  
4697.000000	64.755439  
4696.000000	64.738273  
4695.000000	64.719271  
4694.000000	64.698505  
4693.000000	64.676523  
4692.000000	64.654779  
4691.000000	64.634704  
4690.000000	64.617490  
4689.000000	64.603757  
4688.000000	64.593172  
4687.000000	64.584302  
4686.000000	64.574790  
4685.000000	64.562034  
4684.000000	64.544057  
4683.000000	64.520788  
4682.000000	64.494252  
4681.000000	64.467906  
4680.000000	64.445710  
4679.000000	64.431118  
4678.000000	64.425826  
4677.000000	64.428973  
4676.000000	64.437580  
4675.000000	64.446949  
4674.000000	64.452505  
4673.000000	64.450979  
4672.000000	64.441800  
4671.000000	64.426779  
4670.000000	64.410710  
4669.000000	64.399313  
4668.000000	64.399409  
4667.000000	64.416527  
4666.000000	64.454746  
4665.000000	64.515614  
4664.000000	64.598178  
4663.000000	64.698934  
4662.000000	64.811778  
4661.000000	64.928960  
4660.000000	65.040588  
4659.000000	65.135765  
4658.000000	65.203571  
4657.000000	65.235018  
4656.000000	65.225124  
4655.000000	65.174174  
4654.000000	65.088844  
4653.000000	64.980840  
4652.000000	64.865255  
4651.000000	64.757561  
4650.000000	64.671158  
4649.000000	64.614820  
4648.000000	64.592289  
4647.000000	64.601588  
4646.000000	64.636611  
4645.000000	64.688563  
4644.000000	64.747643  
4643.000000	64.805245  
4642.000000	64.854407  
4641.000000	64.891338  
4640.000000	64.914464  
4639.000000	64.925003  
4638.000000	64.925479  
4637.000000	64.919495  
4636.000000	64.910721  
4635.000000	64.901566  
4634.000000	64.893317  
4633.000000	64.884686  
4632.000000	64.872884  
4631.000000	64.853644  
4630.000000	64.823079  
4629.000000	64.779829  
4628.000000	64.726114  
4627.000000	64.667534  
4626.000000	64.611887  
4625.000000	64.567255  
4624.000000	64.539551  
4623.000000	64.529967  
4622.000000	64.535641  
4621.000000	64.549612  
4620.000000	64.564204  
4619.000000	64.572930  
4618.000000	64.573717  
4617.000000	64.568972  
4616.000000	64.565610  
4615.000000	64.572429  
4614.000000	64.597296  
4613.000000	64.643979  
4612.000000	64.710474  
4611.000000	64.788722  
4610.000000	64.866900  
4609.000000	64.932584  
4608.000000	64.975953  
4607.000000	64.992666  
4606.000000	64.983916  
4605.000000	64.955759  
4604.000000	64.916682  
4603.000000	64.874958  
4602.000000	64.836573  
4601.000000	64.803671  
4600.000000	64.775252  
4599.000000	64.747810  
4598.000000	64.717316  
4597.000000	64.680743  
4596.000000	64.637207  
4595.000000	64.588546  
4594.000000	64.538145  
4593.000000	64.490723  
4592.000000	64.450192  
4591.000000	64.419960  
4590.000000	64.401078  
4589.000000	64.393615  
4588.000000	64.396095  
4587.000000	64.406800  
4586.000000	64.423918  
4585.000000	64.446210  
4584.000000	64.472579  
4583.000000	64.502501  
4582.000000	64.535212  
4581.000000	64.569973  
4580.000000	64.605617  
4579.000000	64.640307  
4578.000000	64.671587  
4577.000000	64.696311  
4576.000000	64.711213  
4575.000000	64.713621  
4574.000000	64.702105  
4573.000000	64.676713  
4572.000000	64.639496  
4571.000000	64.594554  
4570.000000	64.547467  
4569.000000	64.504814  
4568.000000	64.472794  
4567.000000	64.456009  
4566.000000	64.456582  
4565.000000	64.473891  
4564.000000	64.504790  
4563.000000	64.543962  
4562.000000	64.585733  
4561.000000	64.624643  
4560.000000	64.657568  
4559.000000	64.683818  
4558.000000	64.705491  
4557.000000	64.726138  
4556.000000	64.750385  
4555.000000	64.782238  
4554.000000	64.823818  
4553.000000	64.874553  
4552.000000	64.930486  
4551.000000	64.984846  
4550.000000	65.029144  
4549.000000	65.055060  
4548.000000	65.055584  
4547.000000	65.026903  
4546.000000	64.968967  
4545.000000	64.886498  
4544.000000	64.787983  
4543.000000	64.685082  
4542.000000	64.590597  
4541.000000	64.516329  
4540.000000	64.471435  
4539.000000	64.459943  
4538.000000	64.481091  
4537.000000	64.527940  
4536.000000	64.589715  
4535.000000	64.652609  
4534.000000	64.702439  
4533.000000	64.727377  
4532.000000	64.719414  
4531.000000	64.677190  
4530.000000	64.604711  
4529.000000	64.512801  
4528.000000	64.416289  
4527.000000	64.331865  
4526.000000	64.274740  
4525.000000	64.255332  
4524.000000	64.277315  
4523.000000	64.336729  
4522.000000	64.423084  
4521.000000	64.521956  
4520.000000	64.618325  
4519.000000	64.699435  
4518.000000	64.757323  
4517.000000	64.789366  
4516.000000	64.797854  
4515.000000	64.788007  
4514.000000	64.765787  
4513.000000	64.736223  
4512.000000	64.701652  
4511.000000	64.662933  
4510.000000	64.618921  
4509.000000	64.568543  
4508.000000	64.511752  
4507.000000	64.451122  
4506.000000	64.391660  
4505.000000	64.339923  
4504.000000	64.302921  
4503.000000	64.285659  
4502.000000	64.290881  
4501.000000	64.318037  
4500.000000	64.363551  
4499.000000	64.421224  
4498.000000	64.483785  
4497.000000	64.543986  
4496.000000	64.596199  
4495.000000	64.636945  
4494.000000	64.665365  
4493.000000	64.682531  
4492.000000	64.691233  
4491.000000	64.694190  
4490.000000	64.693021  
4489.000000	64.687514  
4488.000000	64.676094  
4487.000000	64.656496  
4486.000000	64.627695  
4485.000000	64.590406  
4484.000000	64.548110  
4483.000000	64.505863  
4482.000000	64.469718  
4481.000000	64.444684  
4480.000000	64.433121  
4479.000000	64.433956  
4478.000000	64.443016  
4477.000000	64.453959  
4476.000000	64.460325  
4475.000000	64.456915  
4474.000000	64.441418  
4473.000000	64.414763  
4472.000000	64.380908  
4471.000000	64.345264  
4470.000000	64.313077  
4469.000000	64.288377  
4468.000000	64.273309  
4467.000000	64.268660  
4466.000000	64.274287  
4465.000000	64.289927  
4464.000000	64.315629  
4463.000000	64.352321  
4462.000000	64.400100  
4461.000000	64.457869  
4460.000000	64.521670  
4459.000000	64.584565  
4458.000000	64.636969  
4457.000000	64.668536  
4456.000000	64.670157  
4455.000000	64.636921  
4454.000000	64.569282  
4453.000000	64.473915  
4452.000000	64.362335  
4451.000000	64.248538  
4450.000000	64.146566  
4449.000000	64.067721  
4448.000000	64.019370  
4447.000000	64.004135  
4446.000000	64.020514  
4445.000000	64.063882  
4444.000000	64.127564  
4443.000000	64.204287  
4442.000000	64.286398  
4441.000000	64.366650  
4440.000000	64.438509  
4439.000000	64.496755  
4438.000000	64.538073  
4437.000000	64.561152  
4436.000000	64.567255  
4435.000000	64.559102  
4434.000000	64.541578  
4433.000000	64.519119  
4432.000000	64.495086  
4431.000000	64.470505  
4430.000000	64.444184  
4429.000000	64.413404  
4428.000000	64.375543  
4427.000000	64.329457  
4426.000000	64.277648  
4425.000000	64.224815  
4424.000000	64.176750  
4423.000000	64.138817  
4422.000000	64.114022  
4421.000000	64.102816  
4420.000000	64.102506  
4419.000000	64.109110  
4418.000000	64.118790  
4417.000000	64.126753  
4416.000000	64.128470  
4415.000000	64.120364  
4414.000000	64.100980  
4413.000000	64.074802  
4412.000000	64.050722  
4411.000000	64.039039  
4410.000000	64.048314  
4409.000000	64.080905  
4408.000000	64.132881  
4407.000000	64.193534  
4406.000000	64.250302  
4405.000000	64.291572  
4404.000000	64.312434  
4403.000000	64.317893  
4402.000000	64.320492  
4401.000000	64.337968  
4400.000000	64.385247  
4399.000000	64.467573  
4398.000000	64.579772  
4397.000000	64.704728  
4396.000000	64.822530  
4395.000000	64.914202  
4394.000000	64.974236  
4393.000000	65.014219  
4392.000000	65.058183  
4391.000000	65.136456  
4390.000000	65.263080  
4389.000000	65.427994  
4388.000000	65.589284  
4387.000000	65.684437  
4386.000000	65.648722  
4385.000000	65.438747  
4384.000000	65.059041  
4383.000000	64.565634  
4382.000000	64.049410  
4381.000000	63.618063  
4380.000000	63.372445  
4379.000000	63.376832  
4378.000000	63.644623  
4377.000000	64.127993  
4376.000000	64.729881  
4375.000000	65.323376  
4374.000000	65.787124  
4373.000000	66.027307  
4372.000000	65.992450  
4371.000000	65.690851  
4370.000000	65.182161  
4369.000000	64.565682  
4368.000000	63.951277  
4367.000000	63.440847  
4366.000000	63.109016  
4365.000000	62.983536  
4364.000000	63.047099  
4363.000000	63.238430  
4362.000000	63.478207  
4361.000000	63.691210  
4360.000000	63.839316  
4359.000000	63.951921  
4358.000000	64.124584  
4357.000000	64.506506  
4356.000000	65.245890  
4355.000000	66.443181  
4354.000000	68.090271  
4353.000000	70.057773  
4352.000000	72.092509  
4351.000000	73.871994  
4350.000000	75.067162  
4349.000000	75.434684  
4348.000000	74.865961  
4347.000000	73.425221  
4346.000000	71.328663  
4345.000000	68.906641  
4344.000000	66.514468  
4343.000000	64.459848  
4342.000000	62.935733  
4341.000000	61.997222  
4340.000000	61.572575  
4339.000000	61.513376  
4338.000000	61.645221  
4337.000000	61.828517  
4336.000000	61.978483  
4335.000000	62.077975  
4334.000000	62.152647  
4333.000000	62.247562  
4332.000000	62.404108  
4331.000000	62.641453  
4330.000000	62.952256  
4329.000000	63.303995  
4328.000000	63.658094  
4327.000000	63.975954  
4326.000000	64.231872  
4325.000000	64.414954  
4324.000000	64.530205  
4323.000000	64.593386  
4322.000000	64.619851  
4321.000000	64.624285  
4320.000000	64.620471  
4319.000000	64.616656  
4318.000000	64.620065  
4317.000000	64.631891  
4316.000000	64.652800  
4315.000000	64.678168  
4314.000000	64.702534  
4313.000000	64.716267  
4312.000000	64.705061  
4311.000000	64.663267  
4310.000000	64.598464  
4309.000000	64.523458  
4308.000000	64.453244  
4307.000000	64.402413  
4306.000000	64.380574  
4305.000000	64.391207  
4304.000000	64.430546  
4303.000000	64.487910  
4302.000000	64.548826  
4301.000000	64.598965  
4300.000000	64.628243  
4299.000000	64.631509  
4298.000000	64.611291  
4297.000000	64.577054  
4296.000000	64.542675  
4295.000000	64.520883  
4294.000000	64.521026  
4293.000000	64.547777  
4292.000000	64.598250  
4291.000000	64.663815  
4290.000000	64.730668  
4289.000000	64.784193  
4288.000000	64.811205  
4287.000000	64.803218  
4286.000000	64.758133  
4285.000000	64.680290  
4284.000000	64.580035  
4283.000000	64.471197  
4282.000000	64.368557  
4281.000000	64.284849  
4280.000000	64.228940  
4279.000000	64.204382  
4278.000000	64.209222  
4277.000000	64.236807  
4276.000000	64.277815  
4275.000000	64.322209  
4274.000000	64.360427  
4273.000000	64.385652  
4272.000000	64.393734  
4271.000000	64.384341  
4270.000000	64.359998  
4269.000000	64.325690  
4268.000000	64.287209  
4267.000000	64.249992  
4266.000000	64.218497  
4265.000000	64.195299  
4264.000000	64.181351  
4263.000000	64.175987  
4262.000000	64.177656  
4261.000000	64.184617  
4260.000000	64.195179  
4259.000000	64.208388  
4258.000000	64.223670  
4257.000000	64.241003  
4256.000000	64.260101  
4255.000000	64.280819  
4254.000000	64.302849  
4253.000000	64.326119  
4252.000000	64.350533  
4251.000000	64.375948  
4250.000000	64.401960  
4249.000000	64.428281  
4248.000000	64.454269  
4247.000000	64.478611  
4246.000000	64.499497  
4245.000000	64.514899  
4244.000000	64.523243  
4243.000000	64.524173  
4242.000000	64.518594  
4241.000000	64.509034  
4240.000000	64.498496  
4239.000000	64.490103  
4238.000000	64.485812  
4237.000000	64.486289  
4236.000000	64.490389  
4235.000000	64.495420  
4234.000000	64.498209  
4233.000000	64.496302  
4232.000000	64.488172  
4231.000000	64.474058  
4230.000000	64.455556  
4229.000000	64.435267  
4228.000000	64.416408  
4227.000000	64.401960  
4226.000000	64.393711  
4225.000000	64.391946  
4224.000000	64.396166  
4223.000000	64.404845  
4222.000000	64.415955  
4221.000000	64.427089  
4220.000000	64.435863  
4219.000000	64.439988  
4218.000000	64.437270  
4217.000000	64.426398  
4216.000000	64.406943  
4215.000000	64.380097  
4214.000000	64.348745  
4213.000000	64.317131  
4212.000000	64.289665  
4211.000000	64.270997  
4210.000000	64.264869  
4209.000000	64.274048  
4208.000000	64.299583  
4207.000000	64.340591  
4206.000000	64.394664  
4205.000000	64.457011  
4204.000000	64.520955  
4203.000000	64.578294  
4202.000000	64.620399  
4201.000000	64.639449  
4200.000000	64.630126  
4199.000000	64.590692  
4198.000000	64.523792  
4197.000000	64.436316  
4196.000000	64.338326  
4195.000000	64.241504  
4194.000000	64.157128  
