PE IR       SPECTRUM    SPECTRUM    ASCII       PEDS        1.60        
  -1
C-9AE4~1.ASC
17/03/27
16:08:27.00
17/03/27
16:08:27.00
tln
$C-4040-8_t0021$<tbV0>[-10.4,-10.4,8.0,0.0,27,1,0]
370.000000
64









2002,4.07    
MIRTGS : RIGHTBACK : INTERNAL 2
MIR : ON : INTERNAL 2
OPTKBR

0.200000
8
8.000000
FILLER
RATIO
SPECTRUM
UNLOCKED 256

DOUBLE
64
COMBINED
1
0
0


1.000000
RATIO


1
0
TRUE
51149
0
LEFT NOT FITTED RIGHT NOT FITTED 0
NONE
NONE
15600
12.000000
4.427000
51148
TRUE
1 0 8 72 0 0 0 0 

15798.010000






#HDR
-1
-1
#GR
CM-1
%T
0.00002384185791015625
0.0
5000.000000
-1.000000
4631
8
75.708389
20.654153
#DATA
5000.000000	63.943910 
4999.000000	63.802218 
4998.000000	63.678979 
4997.000000	63.588356 
4996.000000	63.541913 
4995.000000	63.546895 
4994.000000	63.603782 
4993.000000	63.704729 
4992.000000	63.835287 
4991.000000	63.977003 
4990.000000	64.109635 
4989.000000	64.214015 
4988.000000	64.276075 
4987.000000	64.288759 
4986.000000	64.253282 
4985.000000	64.177727 
4984.000000	64.075827 
4983.000000	63.963723 
4982.000000	63.856768 
4981.000000	63.766622 
4980.000000	63.699293 
4979.000000	63.655209 
4978.000000	63.629937 
4977.000000	63.617491 
4976.000000	63.614034 
4975.000000	63.619494 
4974.000000	63.637638 
4973.000000	63.673734 
4972.000000	63.732504 
4971.000000	63.813495 
4970.000000	63.909983 
4969.000000	64.007067 
4968.000000	64.083313 
4967.000000	64.115643 
4966.000000	64.086246 
4965.000000	63.986682 
4964.000000	63.820862 
4963.000000	63.605904 
4962.000000	63.369250 
4961.000000	63.142561 
4960.000000	62.954807 
4959.000000	62.825894 
4958.000000	62.762689 
4957.000000	62.759804 
4956.000000	62.802004 
4955.000000	62.868595 
4954.000000	62.938284 
4953.000000	62.990975 
4952.000000	63.011527 
4951.000000	62.989664 
4950.000000	62.922096 
4949.000000	62.810015 
4948.000000	62.661075 
4947.000000	62.487769 
4946.000000	62.308192 
4945.000000	62.142610 
4944.000000	62.012982 
4943.000000	61.939072 
4942.000000	61.936187 
4941.000000	62.012052 
4940.000000	62.164926 
4939.000000	62.383246 
4938.000000	62.645745 
4937.000000	62.923836 
4936.000000	63.185691 
4935.000000	63.400983 
4934.000000	63.545632 
4933.000000	63.604927 
4932.000000	63.577580 
4931.000000	63.475441 
4930.000000	63.322019 
4929.000000	63.147878 
4928.000000	62.986803 
4927.000000	62.869215 
4926.000000	62.817263 
4925.000000	62.840557 
4924.000000	62.935447 
4923.000000	63.086509 
4922.000000	63.270378 
4921.000000	63.461518 
4920.000000	63.635945 
4919.000000	63.777661 
4918.000000	63.879108 
4917.000000	63.943314 
4916.000000	63.979911 
4915.000000	64.002799 
4914.000000	64.024734 
4913.000000	64.055395 
4912.000000	64.099788 
4911.000000	64.158082 
4910.000000	64.228343 
4909.000000	64.306259 
4908.000000	64.388680 
4907.000000	64.471626 
4906.000000	64.551830 
4905.000000	64.623785 
4904.000000	64.680075 
4903.000000	64.712166 
4902.000000	64.712095 
4901.000000	64.674687 
4900.000000	64.599418 
4899.000000	64.491295 
4898.000000	64.360666 
4897.000000	64.221858 
4896.000000	64.090394 
4895.000000	63.979387 
4894.000000	63.897585 
4893.000000	63.847875 
4892.000000	63.828158 
4891.000000	63.833475 
4890.000000	63.857364 
4889.000000	63.893246 
4888.000000	63.935542 
4887.000000	63.980197 
4886.000000	64.023780 
4885.000000	64.061260 
4884.000000	64.087724 
4883.000000	64.097738 
4882.000000	64.087939 
4881.000000	64.057683 
4880.000000	64.010977 
4879.000000	63.956356 
4878.000000	63.905787 
4877.000000	63.872265 
4876.000000	63.866829 
4875.000000	63.895988 
4874.000000	63.959622 
4873.000000	64.050889 
4872.000000	64.158010 
4871.000000	64.266657 
4870.000000	64.363312 
4869.000000	64.437270 
4868.000000	64.482188 
4867.000000	64.496326 
4866.000000	64.481997 
4865.000000	64.444589 
4864.000000	64.391040 
4863.000000	64.328551 
4862.000000	64.264774 
4861.000000	64.205789 
4860.000000	64.156675 
4859.000000	64.120244 
4858.000000	64.097595 
4857.000000	64.088273 
4856.000000	64.090609 
4855.000000	64.102339 
4854.000000	64.120435 
4853.000000	64.142751 
4852.000000	64.167857 
4851.000000	64.195036 
4850.000000	64.223599 
4849.000000	64.252567 
4848.000000	64.280366 
4847.000000	64.304494 
4846.000000	64.322042 
4845.000000	64.330840 
4844.000000	64.329648 
4843.000000	64.319419 
4842.000000	64.302325 
4841.000000	64.281725 
4840.000000	64.260458 
4839.000000	64.239859 
4838.000000	64.219617 
4837.000000	64.198470 
4836.000000	64.174795 
4835.000000	64.147734 
4834.000000	64.117574 
4833.000000	64.086842 
4832.000000	64.058542 
4831.000000	64.036226 
4830.000000	64.021539 
4829.000000	64.013361 
4828.000000	64.007711 
4827.000000	63.998675 
4826.000000	63.979911 
4825.000000	63.946413 
4824.000000	63.896727 
4823.000000	63.833880 
4822.000000	63.764381 
4821.000000	63.696622 
4820.000000	63.638854 
4819.000000	63.597297 
4818.000000	63.574290 
4817.000000	63.568162 
4816.000000	63.574147 
4815.000000	63.585782 
4814.000000	63.596773 
4813.000000	63.602495 
4812.000000	63.600468 
4811.000000	63.590621 
4810.000000	63.574314 
4809.000000	63.553690 
4808.000000	63.530611 
4807.000000	63.506555 
4806.000000	63.482046 
4805.000000	63.457798 
4804.000000	63.435029 
4803.000000	63.416147 
4802.000000	63.404130 
4801.000000	63.402915 
4800.000000	63.415622 
4799.000000	63.445162 
4798.000000	63.492918 
4797.000000	63.559198 
4796.000000	63.642406 
4795.000000	63.739824 
4794.000000	63.847589 
4793.000000	63.960886 
4792.000000	64.073967 
4791.000000	64.179992 
4790.000000	64.271211 
4789.000000	64.340138 
4788.000000	64.380288 
4787.000000	64.387369 
4786.000000	64.360499 
4785.000000	64.303684 
4784.000000	64.225459 
4783.000000	64.138078 
4782.000000	64.055109 
4781.000000	63.990235 
4780.000000	63.953208 
4779.000000	63.948965 
4778.000000	63.975358 
4777.000000	64.025068 
4776.000000	64.085555 
4775.000000	64.142346 
4774.000000	64.181685 
4773.000000	64.193224 
4772.000000	64.172530 
4771.000000	64.121341 
4770.000000	64.047288 
4769.000000	63.961434 
4768.000000	63.876461 
4767.000000	63.803887 
4766.000000	63.751721 
4765.000000	63.723206 
4764.000000	63.717651 
4763.000000	63.731360 
4762.000000	63.758277 
4761.000000	63.792347 
4760.000000	63.828706 
4759.000000	63.865327 
4758.000000	63.901209 
4757.000000	63.937520 
4756.000000	63.976144 
4755.000000	64.019274 
4754.000000	64.068269 
4753.000000	64.123153 
4752.000000	64.182209 
4751.000000	64.241957 
4750.000000	64.298772 
4749.000000	64.348244 
4748.000000	64.386177 
4747.000000	64.408993 
4746.000000	64.415097 
4745.000000	64.404082 
4744.000000	64.376831 
4743.000000	64.335083 
4742.000000	64.281439 
4741.000000	64.218354 
4740.000000	64.148187 
4739.000000	64.073038 
4738.000000	63.994979 
4737.000000	63.915848 
4736.000000	63.837838 
4735.000000	63.763523 
4734.000000	63.696169 
4733.000000	63.638925 
4732.000000	63.595128 
4731.000000	63.566803 
4730.000000	63.555526 
4729.000000	63.561534 
4728.000000	63.584852 
4727.000000	63.623404 
4726.000000	63.675045 
4725.000000	63.736939 
4724.000000	63.806414 
4723.000000	63.880038 
4722.000000	63.954758 
4721.000000	64.027953 
4720.000000	64.097571 
4719.000000	64.161705 
4718.000000	64.218878 
4717.000000	64.267945 
4716.000000	64.308071 
4715.000000	64.338827 
4714.000000	64.360117 
4713.000000	64.372324 
4712.000000	64.376378 
4711.000000	64.373779 
4710.000000	64.366173 
4709.000000	64.354801 
4708.000000	64.341378 
4707.000000	64.327049 
4706.000000	64.312338 
4705.000000	64.296865 
4704.000000	64.280152 
4703.000000	64.261245 
4702.000000	64.239144 
4701.000000	64.212751 
4700.000000	64.181303 
4699.000000	64.144539 
4698.000000	64.102363 
4697.000000	64.055633 
4696.000000	64.005541 
4695.000000	63.954854 
4694.000000	63.907694 
4693.000000	63.869071 
4692.000000	63.843607 
4691.000000	63.834738 
4690.000000	63.843846 
4689.000000	63.869142 
4688.000000	63.905715 
4687.000000	63.947200 
4686.000000	63.987183 
4685.000000	64.020705 
4684.000000	64.045453 
4683.000000	64.062333 
4682.000000	64.074873 
4681.000000	64.087677 
4680.000000	64.104700 
4679.000000	64.127993 
4678.000000	64.156699 
4677.000000	64.187526 
4676.000000	64.215350 
4675.000000	64.235329 
4674.000000	64.243602 
4673.000000	64.239501 
4672.000000	64.224433 
4671.000000	64.201259 
4670.000000	64.173412 
4669.000000	64.143729 
4668.000000	64.113950 
4667.000000	64.084362 
4666.000000	64.054608 
4665.000000	64.024901 
4664.000000	63.995885 
4663.000000	63.968968 
4662.000000	63.946056 
4661.000000	63.929224 
4660.000000	63.919591 
4659.000000	63.916897 
4658.000000	63.919234 
4657.000000	63.923430 
4656.000000	63.925623 
4655.000000	63.922238 
4654.000000	63.910722 
4653.000000	63.890266 
4652.000000	63.861918 
4651.000000	63.828754 
4650.000000	63.794755 
4649.000000	63.764524 
4648.000000	63.742184 
4647.000000	63.731241 
4646.000000	63.733315 
4645.000000	63.748717 
4644.000000	63.776564 
4643.000000	63.814783 
4642.000000	63.860177 
4641.000000	63.909482 
4640.000000	63.959646 
4639.000000	64.008474 
4638.000000	64.054727 
4637.000000	64.097905 
4636.000000	64.138031 
4635.000000	64.175224 
4634.000000	64.209508 
4633.000000	64.240479 
4632.000000	64.267182 
4631.000000	64.288401 
4630.000000	64.302992 
4629.000000	64.310574 
4628.000000	64.311647 
4627.000000	64.308309 
4626.000000	64.303517 
4625.000000	64.301133 
4624.000000	64.304018 
4623.000000	64.314079 
4622.000000	64.330148 
4621.000000	64.348435 
4620.000000	64.362359 
4619.000000	64.364027 
4618.000000	64.346241 
4617.000000	64.304113 
4616.000000	64.237523 
4615.000000	64.151287 
4614.000000	64.055514 
4613.000000	63.963556 
4612.000000	63.889265 
4611.000000	63.843894 
4610.000000	63.833093 
4609.000000	63.855671 
4608.000000	63.903212 
4607.000000	63.961982 
4606.000000	64.016580 
4605.000000	64.053606 
4604.000000	64.064407 
4603.000000	64.046835 
4602.000000	64.005732 
4601.000000	63.951063 
4600.000000	63.894796 
4599.000000	63.847565 
4598.000000	63.816189 
4597.000000	63.802194 
4596.000000	63.802695 
4595.000000	63.811349 
4594.000000	63.821196 
4593.000000	63.826274 
4592.000000	63.823914 
4591.000000	63.814663 
4590.000000	63.801026 
4589.000000	63.787055 
4588.000000	63.775753 
4587.000000	63.769388 
4586.000000	63.768482 
4585.000000	63.772368 
4584.000000	63.779997 
4583.000000	63.789844 
4582.000000	63.800644 
4581.000000	63.810586 
4580.000000	63.817429 
4579.000000	63.817834 
4578.000000	63.807892 
4577.000000	63.783931 
4576.000000	63.743853 
4575.000000	63.688683 
4574.000000	63.623476 
4573.000000	63.556551 
4572.000000	63.498544 
4571.000000	63.460302 
4570.000000	63.450217 
4569.000000	63.472151 
4568.000000	63.524484 
4567.000000	63.599777 
4566.000000	63.686895 
4565.000000	63.773536 
4564.000000	63.848853 
4563.000000	63.906264 
4562.000000	63.943314 
4561.000000	63.961648 
4560.000000	63.964724 
4559.000000	63.955807 
4558.000000	63.936471 
4557.000000	63.906288 
4556.000000	63.863849 
4555.000000	63.808441 
4554.000000	63.741588 
4553.000000	63.668394 
4552.000000	63.596320 
4551.000000	63.533973 
4550.000000	63.488030 
4549.000000	63.461875 
4548.000000	63.454079 
4547.000000	63.459396 
4546.000000	63.470125 
4545.000000	63.479042 
4544.000000	63.482213 
4543.000000	63.479542 
4542.000000	63.475060 
4541.000000	63.474249 
4540.000000	63.480663 
4539.000000	63.494682 
4538.000000	63.511490 
4537.000000	63.523530 
4536.000000	63.522386 
4535.000000	63.502621 
4534.000000	63.464617 
4533.000000	63.414454 
4532.000000	63.363385 
4531.000000	63.323688 
4530.000000	63.305091 
4529.000000	63.312220 
4528.000000	63.343310 
4527.000000	63.390660 
4526.000000	63.442945 
4525.000000	63.488292 
4524.000000	63.517427 
4523.000000	63.525342 
4522.000000	63.512134 
4521.000000	63.482141 
4520.000000	63.442254 
4519.000000	63.399267 
4518.000000	63.358473 
4517.000000	63.322067 
4516.000000	63.290238 
4515.000000	63.262033 
4514.000000	63.237619 
4513.000000	63.219547 
4512.000000	63.212776 
4511.000000	63.224101 
4510.000000	63.259387 
4509.000000	63.320517 
4508.000000	63.404226 
4507.000000	63.501620 
4506.000000	63.599348 
4505.000000	63.682889 
4504.000000	63.738822 
4503.000000	63.758611 
4502.000000	63.738870 
4501.000000	63.682126 
4500.000000	63.595008 
4499.000000	63.487148 
4498.000000	63.367843 
4497.000000	63.244795 
4496.000000	63.123726 
4495.000000	63.008737 
4494.000000	62.903213 
4493.000000	62.810516 
4492.000000	62.734532 
4491.000000	62.679386 
4490.000000	62.645983 
4489.000000	62.634181 
4488.000000	62.640309 
4487.000000	62.661671 
4486.000000	62.696433 
4485.000000	62.745308 
4484.000000	62.814164 
4483.000000	62.907552 
4482.000000	63.023352 
4481.000000	63.153433 
4480.000000	63.283610 
4479.000000	63.396644 
4478.000000	63.474535 
4477.000000	63.506221 
4476.000000	63.492465 
4475.000000	63.443875 
4474.000000	63.378620 
4473.000000	63.316679 
4472.000000	63.274097 
4471.000000	63.260698 
4470.000000	63.278913 
4469.000000	63.322854 
4468.000000	63.381409 
4467.000000	63.447070 
4466.000000	63.518095 
4465.000000	63.595628 
4464.000000	63.683867 
4463.000000	63.785004 
4462.000000	63.901591 
4461.000000	64.027380 
4460.000000	64.159727 
4459.000000	64.299941 
4458.000000	64.461779 
4457.000000	64.667677 
4456.000000	64.947676 
4455.000000	65.331387 
4454.000000	65.837168 
4453.000000	66.462445 
4452.000000	67.179656 
4451.000000	67.939901 
4450.000000	68.677425 
4449.000000	69.326090 
4448.000000	69.824481 
4447.000000	70.131611 
4446.000000	70.224165 
4445.000000	70.102190 
4444.000000	69.774508 
4443.000000	69.256472 
4442.000000	68.564891 
4441.000000	67.719721 
4440.000000	66.748499 
4439.000000	65.689992 
4438.000000	64.601707 
4437.000000	63.553667 
4436.000000	62.620329 
4435.000000	61.867284 
4434.000000	61.333775 
4433.000000	61.029338 
4432.000000	60.927700 
4431.000000	60.979533 
4430.000000	61.115384 
4429.000000	61.270928 
4428.000000	61.393904 
4427.000000	61.459875 
4426.000000	61.463499 
4425.000000	61.424612 
4424.000000	61.371636 
4423.000000	61.335968 
4422.000000	61.335802 
4421.000000	61.377906 
4420.000000	61.455726 
4419.000000	61.554980 
4418.000000	61.660003 
4417.000000	61.759614 
4416.000000	61.851382 
4415.000000	61.939692 
4414.000000	62.033772 
4413.000000	62.141609 
4412.000000	62.265872 
4411.000000	62.404799 
4410.000000	62.550377 
4409.000000	62.685060 
4408.000000	62.787413 
4407.000000	62.846827 
4406.000000	62.860512 
4405.000000	62.828254 
4404.000000	62.756347 
4403.000000	62.662243 
4402.000000	62.565469 
4401.000000	62.478899 
4400.000000	62.411117 
4399.000000	62.367010 
4398.000000	62.346982 
4397.000000	62.348127 
4396.000000	62.367963 
4395.000000	62.404298 
4394.000000	62.460589 
4393.000000	62.546110 
4392.000000	62.668752 
4391.000000	62.830376 
4390.000000	63.022518 
4389.000000	63.227057 
4388.000000	63.413310 
4387.000000	63.548541 
4386.000000	63.612627 
4385.000000	63.611125 
4384.000000	63.574314 
4383.000000	63.560748 
4382.000000	63.646006 
4381.000000	63.910555 
4380.000000	64.413595 
4379.000000	65.183472 
4378.000000	66.208219 
4377.000000	67.435145 
4376.000000	68.780827 
4375.000000	70.141863 
4374.000000	71.419072 
4373.000000	72.521972 
4372.000000	73.389816 
4371.000000	73.982310 
4370.000000	74.286746 
4369.000000	74.304127 
4368.000000	74.053168 
4367.000000	73.557472 
4366.000000	72.852396 
4365.000000	71.978068 
4364.000000	70.987844 
4363.000000	69.936561 
4362.000000	68.882155 
4361.000000	67.874932 
4360.000000	66.955852 
4359.000000	66.151690 
4358.000000	65.476799 
4357.000000	64.930248 
4356.000000	64.503574 
4355.000000	64.183044 
4354.000000	63.957881 
4353.000000	63.812780 
4352.000000	63.737535 
4351.000000	63.720345 
4350.000000	63.752937 
4349.000000	63.818335 
4348.000000	63.900279 
4347.000000	63.981032 
4346.000000	64.045071 
4345.000000	64.075922 
4344.000000	64.063286 
4343.000000	64.006567 
4342.000000	63.910698 
4341.000000	63.783001 
4340.000000	63.634586 
4339.000000	63.478755 
4338.000000	63.327884 
4337.000000	63.192391 
4336.000000	63.077640 
4335.000000	62.983727 
4334.000000	62.908363 
4333.000000	62.849354 
4332.000000	62.801122 
4331.000000	62.757968 
4330.000000	62.718987 
4329.000000	62.688231 
4328.000000	62.669563 
4327.000000	62.667226 
4326.000000	62.686562 
4325.000000	62.730216 
4324.000000	62.794566 
4323.000000	62.870645 
4322.000000	62.946224 
4321.000000	63.007354 
4320.000000	63.041257 
4319.000000	63.039612 
4318.000000	63.000822 
4317.000000	62.930488 
4316.000000	62.840151 
4315.000000	62.744712 
4314.000000	62.658786 
4313.000000	62.594056 
4312.000000	62.556958 
4311.000000	62.548470 
4310.000000	62.565135 
4309.000000	62.600660 
4308.000000	62.647867 
4307.000000	62.701153 
4306.000000	62.757205 
4305.000000	62.813735 
4304.000000	62.869191 
4303.000000	62.921476 
4302.000000	62.968111 
4301.000000	63.006138 
4300.000000	63.033056 
4299.000000	63.048577 
4298.000000	63.054394 
4297.000000	63.054656 
4296.000000	63.054299 
4295.000000	63.058328 
4294.000000	63.069510 
4293.000000	63.087725 
4292.000000	63.109469 
4291.000000	63.128876 
4290.000000	63.139772 
4289.000000	63.137769 
4288.000000	63.121581 
4287.000000	63.093876 
4286.000000	63.060545 
4285.000000	63.029146 
4284.000000	63.006949 
4283.000000	62.998938 
4282.000000	63.006663 
4281.000000	63.027930 
4280.000000	63.057923 
4279.000000	63.090586 
4278.000000	63.120126 
4277.000000	63.142442 
4276.000000	63.155364 
4275.000000	63.159084 
4274.000000	63.155579 
4273.000000	63.147926 
4272.000000	63.139152 
4271.000000	63.131666 
4270.000000	63.127207 
4269.000000	63.126111 
4268.000000	63.127923 
4267.000000	63.130998 
4266.000000	63.133430 
4265.000000	63.132786 
4264.000000	63.126587 
4263.000000	63.112998 
4262.000000	63.091206 
4261.000000	63.061904 
4260.000000	63.027238 
4259.000000	62.990427 
4258.000000	62.955427 
4257.000000	62.925577 
4256.000000	62.903022 
4255.000000	62.888312 
4254.000000	62.880158 
4253.000000	62.876033 
4252.000000	62.872910 
4251.000000	62.868237 
4250.000000	62.860608 
4249.000000	62.850332 
4248.000000	62.839555 
4247.000000	62.831330 
4246.000000	62.828636 
4245.000000	62.833619 
4244.000000	62.846231 
4243.000000	62.864041 
4242.000000	62.882709 
4241.000000	62.897062 
4240.000000	62.902259 
4239.000000	62.894916 
4238.000000	62.874174 
4237.000000	62.841987 
4236.000000	62.802577 
4235.000000	62.761282 
4234.000000	62.723231 
4233.000000	62.692093 
4232.000000	62.669444 
4231.000000	62.654852 
4230.000000	62.646293 
4229.000000	62.641096 
4228.000000	62.637352 
4227.000000	62.634515 
4226.000000	62.633776 
4225.000000	62.637519 
4224.000000	62.648677 
4223.000000	62.670016 
4222.000000	62.702655 
4221.000000	62.746047 
4220.000000	62.798190 
4219.000000	62.856268 
4218.000000	62.916755 
4217.000000	62.976431 
4216.000000	63.032960 
4215.000000	63.084936 
4214.000000	63.131475 
4213.000000	63.172030 
4212.000000	63.206338 
4211.000000	63.233637 
4210.000000	63.253569 
4209.000000	63.264942 
4208.000000	63.266754 
4207.000000	63.257718 
4206.000000	63.237452 
4205.000000	63.205814 
4204.000000	63.163423 
4203.000000	63.111877 
4202.000000	63.053989 
4201.000000	62.992978 
4200.000000	62.931823 
4199.000000	62.873482 
4198.000000	62.820339 
4197.000000	62.773251 
4196.000000	62.731337 
4195.000000	62.692356 
4194.000000	62.652921 
4193.000000	62.608790 
4192.000000	62.556314 
4191.000000	62.492752 
4190.000000	62.418079 
4189.000000	62.334752 
4188.000000	62.248516 
4187.000000	62.166404 
4186.000000	62.096977 
4185.000000	62.047815 
4184.000000	62.024807 
4183.000000	62.029767 
4182.000000	62.061405 
4181.000000	62.114739 
4180.000000	62.183260 
4179.000000	62.258934 
4178.000000	62.335824 
4177.000000	62.410163 
4176.000000	62.481737 
4175.000000	62.552762 
4174.000000	62.627124 
4173.000000	62.708401 
4172.000000	62.798810 
4171.000000	62.897872 
4170.000000	63.002228 
4169.000000	63.105654 
4168.000000	63.201427 
4167.000000	63.283276 
4166.000000	63.346505 
4165.000000	63.388872 
4164.000000	63.411450 
4163.000000	63.417744 
4162.000000	63.413023 
4161.000000	63.402509 
4160.000000	63.391661 
4159.000000	63.383483 
