PE IR       SPECTRUM    SPECTRUM    ASCII       PEDS        1.60        
  -1
C-9B6F~1.ASC
17/03/27
18:02:21.00
17/03/27
18:02:21.00
tln
$C-4040-8_t0044$<tbV0>[-13.0,-5.2,8.0,0.0,27,1,0]
370.000000
64









2002,4.07    
MIRTGS : RIGHTBACK : INTERNAL 2
MIR : ON : INTERNAL 2
OPTKBR

0.200000
8
8.000000
FILLER
RATIO
SPECTRUM
UNLOCKED 256

DOUBLE
64
COMBINED
1
0
0


1.000000
RATIO


1
0
TRUE
51149
0
LEFT NOT FITTED RIGHT NOT FITTED 0
NONE
NONE
15600
12.000000
4.427000
51148
TRUE
1 0 8 72 0 0 0 0 

15798.010000






#HDR
-1
-1
#GR
CM-1
%T
0.00002384185791015625
0.0
5000.000000
-1.000000
4631
8
77.659559
26.124310
#DATA
5000.000000	64.717984 
4999.000000	64.643621 
4998.000000	64.616394 
4997.000000	64.639735 
4996.000000	64.706659 
4995.000000	64.802241 
4994.000000	64.905118 
4993.000000	64.992308 
4992.000000	65.043568 
4991.000000	65.044927 
4990.000000	64.992189 
4989.000000	64.890694 
4988.000000	64.755034 
4987.000000	64.604926 
4986.000000	64.462518 
4985.000000	64.347720 
4984.000000	64.276266 
4983.000000	64.257383 
4982.000000	64.293837 
4981.000000	64.381861 
4980.000000	64.512228 
4979.000000	64.671492 
4978.000000	64.843201 
4977.000000	65.010285 
4976.000000	65.156269 
4975.000000	65.268063 
4974.000000	65.336656 
4973.000000	65.358829 
4972.000000	65.337252 
4971.000000	65.279984 
4970.000000	65.199923 
4969.000000	65.111255 
4968.000000	65.028119 
4967.000000	64.961051 
4966.000000	64.916968 
4965.000000	64.897084 
4964.000000	64.898705 
4963.000000	64.915442 
4962.000000	64.939355 
4961.000000	64.963436 
4960.000000	64.983081 
4959.000000	64.996743 
4958.000000	65.005326 
4957.000000	65.011954 
4956.000000	65.020442 
4955.000000	65.034461 
4954.000000	65.055942 
4953.000000	65.084385 
4952.000000	65.116786 
4951.000000	65.148639 
4950.000000	65.174746 
4949.000000	65.190505 
4948.000000	65.192890 
4947.000000	65.180850 
4946.000000	65.155768 
4945.000000	65.121459 
4944.000000	65.082716 
4943.000000	65.044593 
4942.000000	65.010666 
4941.000000	64.983010 
4940.000000	64.960575 
4939.000000	64.941024 
4938.000000	64.919853 
4937.000000	64.891910 
4936.000000	64.852786 
4935.000000	64.800262 
4934.000000	64.734983 
4933.000000	64.660120 
4932.000000	64.581537 
4931.000000	64.506363 
4930.000000	64.441680 
4929.000000	64.392876 
4928.000000	64.363145 
4927.000000	64.353275 
4926.000000	64.361977 
4925.000000	64.386868 
4924.000000	64.424705 
4923.000000	64.472222 
4922.000000	64.526391 
4921.000000	64.584517 
4920.000000	64.643239 
4919.000000	64.699363 
4918.000000	64.749646 
4917.000000	64.791870 
4916.000000	64.825177 
4915.000000	64.850401 
4914.000000	64.869785 
4913.000000	64.886403 
4912.000000	64.904093 
4911.000000	64.925217 
4910.000000	64.950084 
4909.000000	64.977073 
4908.000000	65.003323 
4907.000000	65.026164 
4906.000000	65.044498 
4905.000000	65.060067 
4904.000000	65.077519 
4903.000000	65.102601 
4902.000000	65.140056 
4901.000000	65.191674 
4900.000000	65.254569 
4899.000000	65.320301 
4898.000000	65.376257 
4897.000000	65.408396 
4896.000000	65.404868 
4895.000000	65.359401 
4894.000000	65.273880 
4893.000000	65.158033 
4892.000000	65.028738 
4891.000000	64.906835 
4890.000000	64.812850 
4889.000000	64.762258 
4888.000000	64.762663 
4887.000000	64.813423 
4886.000000	64.905190 
4885.000000	65.022134 
4884.000000	65.145754 
4883.000000	65.258622 
4882.000000	65.347862 
4881.000000	65.405964 
4880.000000	65.432858 
4879.000000	65.434026 
4878.000000	65.419340 
4877.000000	65.400004 
4876.000000	65.386009 
4875.000000	65.383887 
4874.000000	65.395665 
4873.000000	65.418601 
4872.000000	65.446472 
4871.000000	65.470933 
4870.000000	65.483880 
4869.000000	65.479183 
4868.000000	65.453982 
4867.000000	65.409159 
4866.000000	65.348863 
4865.000000	65.278983 
4864.000000	65.205788 
4863.000000	65.133762 
4862.000000	65.065574 
4861.000000	65.000796 
4860.000000	64.936423 
4859.000000	64.868998 
4858.000000	64.796137 
4857.000000	64.718818 
4856.000000	64.641332 
4855.000000	64.572000 
4854.000000	64.520382 
4853.000000	64.496326 
4852.000000	64.506793 
4851.000000	64.553236 
4850.000000	64.630270 
4849.000000	64.726781 
4848.000000	64.827966 
4847.000000	64.918208 
4846.000000	64.984416 
4845.000000	65.018796 
4844.000000	65.020251 
4843.000000	64.994263 
4842.000000	64.951276 
4841.000000	64.903283 
4840.000000	64.861488 
4839.000000	64.833760 
4838.000000	64.823794 
4837.000000	64.831900 
4836.000000	64.855408 
4835.000000	64.891314 
4834.000000	64.936280 
4833.000000	64.987683 
4832.000000	65.042996 
4831.000000	65.099644 
4830.000000	65.153932 
4829.000000	65.200614 
4828.000000	65.233540 
4827.000000	65.246939 
4826.000000	65.236473 
4825.000000	65.200567 
4824.000000	65.141510 
4823.000000	65.065693 
4822.000000	64.982628 
4821.000000	64.903640 
4820.000000	64.839601 
4819.000000	64.799118 
4818.000000	64.787673 
4817.000000	64.806222 
4816.000000	64.851427 
4815.000000	64.916014 
4814.000000	64.990019 
4813.000000	65.062594 
4812.000000	65.122914 
4811.000000	65.162730 
4810.000000	65.176987 
4809.000000	65.165400 
4808.000000	65.131735 
4807.000000	65.083599 
4806.000000	65.030193 
4805.000000	64.980864 
4804.000000	64.943528 
4803.000000	64.923071 
4802.000000	64.921784 
4801.000000	64.938068 
4800.000000	64.968013 
4799.000000	65.005373 
4798.000000	65.043401 
4797.000000	65.075302 
4796.000000	65.095257 
4795.000000	65.099191 
4794.000000	65.085315 
4793.000000	65.054512 
4792.000000	65.010261 
4791.000000	64.958190 
4790.000000	64.904904 
4789.000000	64.857864 
4788.000000	64.823627 
4787.000000	64.806318 
4786.000000	64.806890 
4785.000000	64.823436 
4784.000000	64.851355 
4783.000000	64.884686 
4782.000000	64.917016 
4781.000000	64.942836 
4780.000000	64.958286 
4779.000000	64.961647 
4778.000000	64.952898 
4777.000000	64.933180 
4776.000000	64.904356 
4775.000000	64.868235 
4774.000000	64.826989 
4773.000000	64.783120 
4772.000000	64.739322 
4771.000000	64.698600 
4770.000000	64.664220 
4769.000000	64.639258 
4768.000000	64.626097 
4767.000000	64.625954 
4766.000000	64.638471 
4765.000000	64.662075 
4764.000000	64.694738 
4763.000000	64.734864 
4762.000000	64.781379 
4761.000000	64.834165 
4760.000000	64.893674 
4759.000000	64.960074 
4758.000000	65.032339 
4757.000000	65.107369 
4756.000000	65.180301 
4755.000000	65.244483 
4754.000000	65.293383 
4753.000000	65.321683 
4752.000000	65.327048 
4751.000000	65.310764 
4750.000000	65.278363 
4749.000000	65.237975 
4748.000000	65.198850 
4747.000000	65.169310 
4746.000000	65.155482 
4745.000000	65.159702 
4744.000000	65.180397 
4743.000000	65.212845 
4742.000000	65.250778 
4741.000000	65.287256 
4740.000000	65.316200 
4739.000000	65.332913 
4738.000000	65.334916 
4737.000000	65.321183 
4736.000000	65.292191 
4735.000000	65.249180 
4734.000000	65.194058 
4733.000000	65.129613 
4732.000000	65.059161 
4731.000000	64.986371 
4730.000000	64.915442 
4729.000000	64.850807 
4728.000000	64.797258 
4727.000000	64.758038 
4726.000000	64.736056 
4725.000000	64.733171 
4724.000000	64.750528 
4723.000000	64.787483 
4722.000000	64.842486 
4721.000000	64.912676 
4720.000000	64.993691 
4719.000000	65.079474 
4718.000000	65.163183 
4717.000000	65.237474 
4716.000000	65.296030 
4715.000000	65.334296 
4714.000000	65.350651 
4713.000000	65.346503 
4712.000000	65.326356 
4711.000000	65.296673 
4710.000000	65.264201 
4709.000000	65.233945 
4708.000000	65.208554 
4707.000000	65.187311 
4706.000000	65.166616 
4705.000000	65.141177 
4704.000000	65.106391 
4703.000000	65.059661 
4702.000000	65.001630 
4701.000000	64.936470 
4700.000000	64.871001 
4699.000000	64.813065 
4698.000000	64.769411 
4697.000000	64.743876 
4696.000000	64.736390 
4695.000000	64.743018 
4694.000000	64.756941 
4693.000000	64.770340 
4692.000000	64.776515 
4691.000000	64.771628 
4690.000000	64.755558 
4689.000000	64.731860 
4688.000000	64.706182 
4687.000000	64.685273 
4686.000000	64.674901 
4685.000000	64.678597 
4684.000000	64.696788 
4683.000000	64.727210 
4682.000000	64.765453 
4681.000000	64.806604 
4680.000000	64.845919 
4679.000000	64.879846 
4678.000000	64.906096 
4677.000000	64.923906 
4676.000000	64.933300 
4675.000000	64.934563 
4674.000000	64.928197 
4673.000000	64.914703 
4672.000000	64.894914 
4671.000000	64.870405 
4670.000000	64.843559 
4669.000000	64.817786 
4668.000000	64.796781 
4667.000000	64.783740 
4666.000000	64.780855 
4665.000000	64.788722 
4664.000000	64.806485 
4663.000000	64.831924 
4662.000000	64.862394 
4661.000000	64.895057 
4660.000000	64.927983 
4659.000000	64.960217 
4658.000000	64.991664 
4657.000000	65.022635 
4656.000000	65.053248 
4655.000000	65.083074 
4654.000000	65.110921 
4653.000000	65.134930 
4652.000000	65.152955 
4651.000000	65.162611 
4650.000000	65.162587 
4649.000000	65.152192 
4648.000000	65.131807 
4647.000000	65.102553 
4646.000000	65.066361 
4645.000000	65.025424 
4644.000000	64.982819 
4643.000000	64.941525 
4642.000000	64.904832 
4641.000000	64.875245 
4640.000000	64.854645 
4639.000000	64.843559 
4638.000000	64.840745 
4637.000000	64.843988 
4636.000000	64.850378 
4635.000000	64.857077 
4634.000000	64.861607 
4633.000000	64.862251 
4632.000000	64.858365 
4631.000000	64.850306 
4630.000000	64.839386 
4629.000000	64.827561 
4628.000000	64.817047 
4627.000000	64.810299 
4626.000000	64.809393 
4625.000000	64.815735 
4624.000000	64.829826 
4623.000000	64.851427 
4622.000000	64.879059 
4621.000000	64.910030 
4620.000000	64.940500 
4619.000000	64.966464 
4618.000000	64.983558 
4617.000000	64.988207 
4616.000000	64.977192 
4615.000000	64.949107 
4614.000000	64.903140 
4613.000000	64.839768 
4612.000000	64.760828 
4611.000000	64.669561 
4610.000000	64.571523 
4609.000000	64.474081 
4608.000000	64.386510 
4607.000000	64.318728 
4606.000000	64.279651 
4605.000000	64.275360 
4604.000000	64.307498 
4603.000000	64.372611 
4602.000000	64.462995 
4601.000000	64.568495 
4600.000000	64.677810 
4599.000000	64.781427 
4598.000000	64.872717 
4597.000000	64.948964 
4596.000000	65.011239 
4595.000000	65.062737 
4594.000000	65.107035 
4593.000000	65.146160 
4592.000000	65.180468 
4591.000000	65.207505 
4590.000000	65.223717 
4589.000000	65.224790 
4588.000000	65.208554 
4587.000000	65.174841 
4586.000000	65.126800 
4585.000000	65.070128 
4584.000000	65.012359 
4583.000000	64.961338 
4582.000000	64.923644 
4581.000000	64.903426 
4580.000000	64.901733 
4579.000000	64.915513 
4578.000000	64.938259 
4577.000000	64.961504 
4576.000000	64.976763 
4575.000000	64.977431 
4574.000000	64.960861 
4573.000000	64.928507 
4572.000000	64.886379 
4571.000000	64.843940 
4570.000000	64.811992 
4569.000000	64.799666 
4568.000000	64.812636 
4567.000000	64.852094 
4566.000000	64.914107 
4565.000000	64.990496 
4564.000000	65.070724 
4563.000000	65.144062 
4562.000000	65.201592 
4561.000000	65.238165 
4560.000000	65.252590 
4559.000000	65.246963 
4558.000000	65.226554 
4557.000000	65.197682 
4556.000000	65.167355 
4555.000000	65.142273 
4554.000000	65.127444 
4553.000000	65.126252 
4552.000000	65.139412 
4551.000000	65.165233 
4550.000000	65.199089 
4549.000000	65.234184 
4548.000000	65.262269 
4547.000000	65.275430 
4546.000000	65.267157 
4545.000000	65.234494 
4544.000000	65.178799 
4543.000000	65.106654 
4542.000000	65.028238 
4541.000000	64.956188 
4540.000000	64.902329 
4539.000000	64.876103 
4538.000000	64.882540 
4537.000000	64.922046 
4536.000000	64.991140 
4535.000000	65.082621 
4534.000000	65.187835 
4533.000000	65.296673 
4532.000000	65.399289 
4531.000000	65.485763 
4530.000000	65.546965 
4529.000000	65.575265 
4528.000000	65.565419 
4527.000000	65.515637 
4526.000000	65.428376 
4525.000000	65.310025 
4524.000000	65.170574 
4523.000000	65.022063 
4522.000000	64.877104 
4521.000000	64.746546 
4520.000000	64.638447 
4519.000000	64.557099 
4518.000000	64.503860 
4517.000000	64.478039 
4516.000000	64.478111 
4515.000000	64.501857 
4514.000000	64.546847 
4513.000000	64.609146 
4512.000000	64.683794 
4511.000000	64.762783 
4510.000000	64.837694 
4509.000000	64.899349 
4508.000000	64.941191 
4507.000000	64.960527 
4506.000000	64.959287 
4505.000000	64.943718 
4504.000000	64.922738 
4503.000000	64.905691 
4502.000000	64.899539 
4501.000000	64.907550 
4500.000000	64.927935 
4499.000000	64.954805 
4498.000000	64.980483 
4497.000000	64.998102 
4496.000000	65.003824 
4495.000000	64.997935 
4494.000000	64.983940 
4493.000000	64.967298 
4492.000000	64.953637 
4491.000000	64.946889 
4490.000000	64.947247 
4489.000000	64.951610 
4488.000000	64.955592 
4487.000000	64.954710 
4486.000000	64.945983 
4485.000000	64.929389 
4484.000000	64.907979 
4483.000000	64.887642 
4482.000000	64.875435 
4481.000000	64.877891 
4480.000000	64.898753 
4479.000000	64.937806 
4478.000000	64.990854 
4477.000000	65.049791 
4476.000000	65.104627 
4475.000000	65.144968 
4474.000000	65.162467 
4473.000000	65.152263 
4472.000000	65.114212 
4471.000000	65.053081 
4470.000000	64.977836 
4469.000000	64.900445 
4468.000000	64.833641 
4467.000000	64.789390 
4466.000000	64.776635 
4465.000000	64.799952 
4464.000000	64.858603 
4463.000000	64.947605 
4462.000000	65.057754 
4461.000000	65.177106 
4460.000000	65.292739 
4459.000000	65.392446 
4458.000000	65.466928 
4457.000000	65.509939 
4456.000000	65.520286 
4455.000000	65.501523 
4454.000000	65.461349 
4453.000000	65.410208 
4452.000000	65.359187 
4451.000000	65.318679 
4450.000000	65.295624 
4449.000000	65.293526 
4448.000000	65.311026 
4447.000000	65.343379 
4446.000000	65.383315 
4445.000000	65.423250 
4444.000000	65.457034 
4443.000000	65.480995 
4442.000000	65.494394 
4441.000000	65.498709 
4440.000000	65.495920 
4439.000000	65.487027 
4438.000000	65.471673 
4437.000000	65.447545 
4436.000000	65.411281 
4435.000000	65.359020 
4434.000000	65.289640 
4433.000000	65.204191 
4432.000000	65.106272 
4431.000000	65.001320 
4430.000000	64.895367 
4429.000000	64.794468 
4428.000000	64.703440 
4427.000000	64.625787 
4426.000000	64.562988 
4425.000000	64.515471 
4424.000000	64.482355 
4423.000000	64.462709 
4422.000000	64.454650 
4421.000000	64.457345 
4420.000000	64.470314 
4419.000000	64.494299 
4418.000000	64.530396 
4417.000000	64.578270 
4416.000000	64.635205 
4415.000000	64.696407 
4414.000000	64.755988 
4413.000000	64.810466 
4412.000000	64.859676 
4411.000000	64.905619 
4410.000000	64.952397 
4409.000000	65.003776 
4408.000000	65.062737 
4407.000000	65.132260 
4406.000000	65.213513 
4405.000000	65.303349 
4404.000000	65.396642 
4403.000000	65.488600 
4402.000000	65.574049 
4401.000000	65.651559 
4400.000000	65.718293 
4399.000000	65.769791 
4398.000000	65.799331 
4397.000000	65.799212 
4396.000000	65.763807 
4395.000000	65.685725 
4394.000000	65.575289 
4393.000000	65.462827 
4392.000000	65.390229 
4391.000000	65.403580 
4390.000000	65.521883 
4389.000000	65.728211 
4388.000000	65.967631 
4387.000000	66.161918 
4386.000000	66.230916 
4385.000000	66.121745 
4384.000000	65.829467 
4383.000000	65.406727 
4382.000000	64.957737 
4381.000000	64.610862 
4380.000000	64.485096 
4379.000000	64.653325 
4378.000000	65.120244 
4377.000000	65.813946 
4376.000000	66.612529 
4375.000000	67.356777 
4374.000000	67.907595 
4373.000000	68.143892 
4372.000000	68.004441 
4371.000000	67.463302 
4370.000000	66.519188 
4369.000000	65.207576 
4368.000000	63.576388 
4367.000000	61.740946 
4366.000000	59.874844 
4365.000000	58.219385 
4364.000000	57.049465 
4363.000000	56.605577 
4362.000000	57.034492 
4361.000000	58.321857 
4360.000000	60.281276 
4359.000000	62.575340 
4358.000000	64.793372 
4357.000000	66.539573 
4356.000000	67.534542 
4355.000000	67.678189 
4354.000000	67.071104 
4353.000000	65.976881 
4352.000000	64.745330 
4351.000000	63.711547 
4350.000000	63.111066 
4349.000000	63.031721 
4348.000000	63.403296 
4347.000000	64.055824 
4346.000000	64.763593 
4345.000000	65.346813 
4344.000000	65.690112 
4343.000000	65.773820 
4342.000000	65.653967 
4341.000000	65.415573 
4340.000000	65.155649 
4339.000000	64.937520 
4338.000000	64.793968 
4337.000000	64.723300 
4336.000000	64.700770 
4335.000000	64.695072 
4334.000000	64.685201 
4333.000000	64.670276 
4332.000000	64.659047 
4331.000000	64.667725 
4330.000000	64.705586 
4329.000000	64.773535 
4328.000000	64.864563 
4327.000000	64.965891 
4326.000000	65.062761 
4325.000000	65.142154 
4324.000000	65.202450 
4323.000000	65.246868 
4322.000000	65.276432 
4321.000000	65.292310 
4320.000000	65.291833 
4319.000000	65.273189 
4318.000000	65.242338 
4317.000000	65.205454 
4316.000000	65.169024 
4315.000000	65.136075 
4314.000000	65.104293 
4313.000000	65.069890 
4312.000000	65.030288 
4311.000000	64.984726 
4310.000000	64.935541 
4309.000000	64.888429 
4308.000000	64.851164 
4307.000000	64.832425 
4306.000000	64.839553 
4305.000000	64.876174 
4304.000000	64.941024 
4303.000000	65.027856 
4302.000000	65.126752 
4301.000000	65.226531 
4300.000000	65.316700 
4299.000000	65.390038 
4298.000000	65.442800 
4297.000000	65.474605 
4296.000000	65.487384 
4295.000000	65.483784 
4294.000000	65.466547 
4293.000000	65.438628 
4292.000000	65.402579 
4291.000000	65.361618 
4290.000000	65.319132 
4289.000000	65.279936 
4288.000000	65.248298 
4287.000000	65.227699 
4286.000000	65.219402 
4285.000000	65.222263 
4284.000000	65.232443 
4283.000000	65.244269 
4282.000000	65.251541 
4281.000000	65.249133 
4280.000000	65.234398 
4279.000000	65.207934 
4278.000000	65.173602 
4277.000000	65.137743 
4276.000000	65.107250 
4275.000000	65.088295 
4274.000000	65.085148 
4273.000000	65.099287 
4272.000000	65.129303 
4271.000000	65.171146 
4270.000000	65.219783 
4269.000000	65.269041 
4268.000000	65.313148 
4267.000000	65.346360 
4266.000000	65.363526 
4265.000000	65.360236 
4264.000000	65.333509 
4263.000000	65.282154 
4262.000000	65.207219 
4261.000000	65.112733 
4260.000000	65.006065 
4259.000000	64.896893 
4258.000000	64.795875 
4257.000000	64.712953 
4256.000000	64.655661 
4255.000000	64.627623 
4254.000000	64.628076 
4253.000000	64.651775 
4252.000000	64.690017 
4251.000000	64.731836 
4250.000000	64.766478 
4249.000000	64.784669 
4248.000000	64.780950 
4247.000000	64.754271 
4246.000000	64.708709 
4245.000000	64.651894 
4244.000000	64.594364 
4243.000000	64.546465 
4242.000000	64.517426 
4241.000000	64.513349 
4240.000000	64.536786 
4239.000000	64.586663 
4238.000000	64.658808 
4237.000000	64.747047 
4236.000000	64.843821 
4235.000000	64.941263 
4234.000000	65.031528 
4233.000000	65.107679 
4232.000000	65.163969 
4231.000000	65.196061 
4230.000000	65.202283 
4229.000000	65.183663 
4228.000000	65.144181 
4227.000000	65.090203 
4226.000000	65.030241 
4225.000000	64.973402 
4224.000000	64.927458 
4223.000000	64.897561 
4222.000000	64.885926 
4221.000000	64.891409 
4220.000000	64.909696 
4219.000000	64.934825 
4218.000000	64.960598 
4217.000000	64.982461 
4216.000000	64.998292 
4215.000000	65.008664 
4214.000000	65.015125 
4213.000000	65.020179 
4212.000000	65.026116 
4211.000000	65.034365 
4210.000000	65.044069 
4209.000000	65.053772 
4208.000000	65.062499 
4207.000000	65.069580 
4206.000000	65.075302 
4205.000000	65.080261 
4204.000000	65.085363 
4203.000000	65.090250 
4202.000000	65.092992 
4201.000000	65.090489 
4200.000000	65.079712 
4199.000000	65.059447 
4198.000000	65.031862 
4197.000000	65.003752 
4196.000000	64.985585 
4195.000000	64.990448 
4194.000000	65.029239 
4193.000000	65.107488 
4192.000000	65.221047 
4191.000000	65.356755 
4190.000000	65.492296 
4189.000000	65.601229 
4188.000000	65.656948 
4187.000000	65.640401 
4186.000000	65.542507 
4185.000000	65.366959 
4184.000000	65.129327 
4183.000000	64.854049 
4182.000000	64.570140 
4181.000000	64.305448 
4180.000000	64.083218 
4179.000000	63.919067 
4178.000000	63.819956 
4177.000000	63.785076 
4176.000000	63.807463 
4175.000000	63.876295 
4174.000000	63.979291 
4173.000000	64.104247 
4172.000000	64.239764 
4171.000000	64.375925 
4170.000000	64.504718 
4169.000000	64.620256 
4168.000000	64.718794 
4167.000000	64.798474 
4166.000000	64.859485 
4165.000000	64.903187 
4164.000000	64.932441 
4163.000000	64.950370 
4162.000000	64.960384 
4161.000000	64.965510 
4160.000000	64.969015 
4159.000000	64.973711 
