PE IR       SPECTRUM    SPECTRUM    ASCII       PEDS        1.60        
  -1
C-1B64~1.ASC
17/03/27
17:06:22.00
17/03/27
17:06:22.00
tln
$C-4040-8_t0032$<tbV0>[-10.4,-7.8,8.0,0.0,27,1,0]
370.000000
64









2002,4.07    
MIRTGS : RIGHTBACK : INTERNAL 2
MIR : ON : INTERNAL 2
OPTKBR

0.200000
8
8.000000
FILLER
RATIO
SPECTRUM
UNLOCKED 256

DOUBLE
64
COMBINED
1
0
0


1.000000
RATIO


1
0
TRUE
51149
0
LEFT NOT FITTED RIGHT NOT FITTED 0
NONE
NONE
15600
12.000000
4.427000
51148
TRUE
1 0 8 72 0 0 0 0 

15798.010000






#HDR
-1
-1
#GR
CM-1
%T
0.00002384185791015625
0.0
5000.000000
-1.000000
4631
8
91.394996
45.204186
#DATA
5000.000000	64.610385 
4999.000000	64.577317 
4998.000000	64.537024 
4997.000000	64.492893 
4996.000000	64.449572 
4995.000000	64.411926 
4994.000000	64.383316 
4993.000000	64.364838 
4992.000000	64.354753 
4991.000000	64.348649 
4990.000000	64.341044 
4989.000000	64.326524 
4988.000000	64.301967 
4987.000000	64.267182 
4986.000000	64.225530 
4985.000000	64.182806 
4984.000000	64.147257 
4983.000000	64.127874 
4982.000000	64.132666 
4981.000000	64.166712 
4980.000000	64.231204 
4979.000000	64.322662 
4978.000000	64.433073 
4977.000000	64.551639 
4976.000000	64.666438 
4975.000000	64.767217 
4974.000000	64.846825 
4973.000000	64.902782 
4972.000000	64.937138 
4971.000000	64.955902 
4970.000000	64.967441 
4969.000000	64.979839 
4968.000000	64.999628 
4967.000000	65.029144 
4966.000000	65.067386 
4965.000000	65.109229 
4964.000000	65.147972 
4963.000000	65.176153 
4962.000000	65.188312 
4961.000000	65.181779 
4960.000000	65.157866 
4959.000000	65.121173 
4958.000000	65.078544 
4957.000000	65.038013 
4956.000000	65.006685 
4955.000000	64.989352 
4954.000000	64.987349 
4953.000000	64.998340 
4952.000000	65.016937 
4951.000000	65.035820 
4950.000000	65.047860 
4949.000000	65.047740 
4948.000000	65.033793 
4947.000000	65.007734 
4946.000000	64.974832 
4945.000000	64.942550 
4944.000000	64.918112 
4943.000000	64.906644 
4942.000000	64.909052 
4941.000000	64.922451 
4940.000000	64.939785 
4939.000000	64.951968 
4938.000000	64.949893 
4937.000000	64.926886 
4936.000000	64.880537 
4935.000000	64.813375 
4934.000000	64.732503 
4933.000000	64.647698 
4932.000000	64.569425 
4931.000000	64.506363 
4930.000000	64.463520 
4929.000000	64.441323 
4928.000000	64.436268 
4927.000000	64.442348 
4926.000000	64.453029 
4925.000000	64.463186 
4924.000000	64.470005 
4923.000000	64.473724 
4922.000000	64.476704 
4921.000000	64.482855 
4920.000000	64.495062 
4919.000000	64.514970 
4918.000000	64.542007 
4917.000000	64.574074 
4916.000000	64.607906 
4915.000000	64.640069 
4914.000000	64.668107 
4913.000000	64.690828 
4912.000000	64.708399 
4911.000000	64.722228 
4910.000000	64.733624 
4909.000000	64.744472 
4908.000000	64.756274 
4907.000000	64.771127 
4906.000000	64.791226 
4905.000000	64.819121 
4904.000000	64.857101 
4903.000000	64.905953 
4902.000000	64.963746 
4901.000000	65.025401 
4900.000000	65.082931 
4899.000000	65.126371 
4898.000000	65.145611 
4897.000000	65.133237 
4896.000000	65.086150 
4895.000000	65.007066 
4894.000000	64.904046 
4893.000000	64.789223 
4892.000000	64.675879 
4891.000000	64.575886 
4890.000000	64.497447 
4889.000000	64.443492 
4888.000000	64.412450 
4887.000000	64.399838 
4886.000000	64.400219 
4885.000000	64.408898 
4884.000000	64.423441 
4883.000000	64.443445 
4882.000000	64.470362 
4881.000000	64.504933 
4880.000000	64.546942 
4879.000000	64.593815 
4878.000000	64.641070 
4877.000000	64.682936 
4876.000000	64.713692 
4875.000000	64.729070 
4874.000000	64.727401 
4873.000000	64.710021 
4872.000000	64.681029 
4871.000000	64.646434 
4870.000000	64.612555 
4869.000000	64.584946 
4868.000000	64.567923 
4867.000000	64.563274 
4866.000000	64.570832 
4865.000000	64.587688 
4864.000000	64.609622 
4863.000000	64.631319 
4862.000000	64.647388 
4861.000000	64.653778 
4860.000000	64.647841 
4859.000000	64.630198 
4858.000000	64.604377 
4857.000000	64.576554 
4856.000000	64.553761 
4855.000000	64.542913 
4854.000000	64.549469 
4853.000000	64.575862 
4852.000000	64.621043 
4851.000000	64.680552 
4850.000000	64.747500 
4849.000000	64.814066 
4848.000000	64.873123 
4847.000000	64.919114 
4846.000000	64.948821 
4845.000000	64.961695 
4844.000000	64.959192 
4843.000000	64.943742 
4842.000000	64.917802 
4841.000000	64.883494 
4840.000000	64.841890 
4839.000000	64.794158 
4838.000000	64.741468 
4837.000000	64.685583 
4836.000000	64.629554 
4835.000000	64.577388 
4834.000000	64.534449 
4833.000000	64.505672 
4832.000000	64.496111 
4831.000000	64.508605 
4830.000000	64.544653 
4829.000000	64.603376 
4828.000000	64.681577 
4827.000000	64.773797 
4826.000000	64.872455 
4825.000000	64.968681 
4824.000000	65.052580 
4823.000000	65.114712 
4822.000000	65.147161 
4821.000000	65.144824 
4820.000000	65.106463 
4819.000000	65.035009 
4818.000000	64.937758 
4817.000000	64.825201 
4816.000000	64.709496 
4815.000000	64.602351 
4814.000000	64.513540 
4813.000000	64.449357 
4812.000000	64.412164 
4811.000000	64.400863 
4810.000000	64.411687 
4809.000000	64.439702 
4808.000000	64.479732 
4807.000000	64.527416 
4806.000000	64.578509 
4805.000000	64.629817 
4804.000000	64.677667 
4803.000000	64.718818 
4802.000000	64.749693 
4801.000000	64.767456 
4800.000000	64.770317 
4799.000000	64.757966 
4798.000000	64.732003 
4797.000000	64.695572 
4796.000000	64.652943 
4795.000000	64.608860 
4794.000000	64.567661 
4793.000000	64.532613 
4792.000000	64.505600 
4791.000000	64.487171 
4790.000000	64.476752 
4789.000000	64.473128 
4788.000000	64.475035 
4787.000000	64.480566 
4786.000000	64.488196 
4785.000000	64.496302 
4784.000000	64.503622 
4783.000000	64.508771 
4782.000000	64.510893 
4781.000000	64.509844 
4780.000000	64.506435 
4779.000000	64.501643 
4778.000000	64.497017 
4777.000000	64.493775 
4776.000000	64.492893 
4775.000000	64.494776 
4774.000000	64.499163 
4773.000000	64.504981 
4772.000000	64.511227 
4771.000000	64.517331 
4770.000000	64.523530 
4769.000000	64.530658 
4768.000000	64.540672 
4767.000000	64.556002 
4766.000000	64.578819 
4765.000000	64.610338 
4764.000000	64.650034 
4763.000000	64.695501 
4762.000000	64.742755 
4761.000000	64.786934 
4760.000000	64.823246 
4759.000000	64.848113 
4758.000000	64.859986 
4757.000000	64.859914 
4756.000000	64.851236 
4755.000000	64.838838 
4754.000000	64.828395 
4753.000000	64.824700 
4752.000000	64.831233 
4751.000000	64.848780 
4750.000000	64.876151 
4749.000000	64.909482 
4748.000000	64.943790 
4747.000000	64.973020 
4746.000000	64.991807 
4745.000000	64.995765 
4744.000000	64.982271 
4743.000000	64.950633 
4742.000000	64.902210 
4741.000000	64.840388 
4740.000000	64.770102 
4739.000000	64.697122 
4738.000000	64.627432 
4737.000000	64.566421 
4736.000000	64.518332 
4735.000000	64.485430 
4734.000000	64.468312 
4733.000000	64.465737 
4732.000000	64.475512 
4731.000000	64.494442 
4730.000000	64.519596 
4729.000000	64.548325 
4728.000000	64.579129 
4727.000000	64.610719 
4726.000000	64.642667 
4725.000000	64.674353 
4724.000000	64.704990 
4723.000000	64.733481 
4722.000000	64.758038 
4721.000000	64.776849 
4720.000000	64.787840 
4719.000000	64.789700 
4718.000000	64.781451 
4717.000000	64.763069 
4716.000000	64.735198 
4715.000000	64.699339 
4714.000000	64.657640 
4713.000000	64.612960 
4712.000000	64.568614 
4711.000000	64.528155 
4710.000000	64.494657 
4709.000000	64.470529 
4708.000000	64.457106 
4707.000000	64.454555 
4706.000000	64.461588 
4705.000000	64.476132 
4704.000000	64.495491 
4703.000000	64.517235 
4702.000000	64.539384 
4701.000000	64.560866 
4700.000000	64.581274 
4699.000000	64.601016 
4698.000000	64.620780 
4697.000000	64.640879 
4696.000000	64.660930 
4695.000000	64.679360 
4694.000000	64.693832 
4693.000000	64.701414 
4692.000000	64.699625 
4691.000000	64.686942 
4690.000000	64.663577 
4689.000000	64.631700 
4688.000000	64.595365 
4687.000000	64.559459 
4686.000000	64.528775 
4685.000000	64.506912 
4684.000000	64.495539 
4683.000000	64.494061 
4682.000000	64.499902 
4681.000000	64.509081 
4680.000000	64.517498 
4679.000000	64.521741 
4678.000000	64.520120 
4677.000000	64.512848 
4676.000000	64.501976 
4675.000000	64.490461 
4674.000000	64.481616 
4673.000000	64.478015 
4672.000000	64.481186 
4671.000000	64.491343 
4670.000000	64.507627 
4669.000000	64.528536 
4668.000000	64.552545 
4667.000000	64.578366 
4666.000000	64.605522 
4665.000000	64.633893 
4664.000000	64.664077 
4663.000000	64.696621 
4662.000000	64.731526 
4661.000000	64.767956 
4660.000000	64.803504 
4659.000000	64.834380 
4658.000000	64.855885 
4657.000000	64.863491 
4656.000000	64.853954 
4655.000000	64.826416 
4654.000000	64.783215 
4653.000000	64.730072 
4652.000000	64.675045 
4651.000000	64.627432 
4650.000000	64.595794 
4649.000000	64.586400 
4648.000000	64.601945 
4647.000000	64.641022 
4646.000000	64.698219 
4645.000000	64.765644 
4644.000000	64.834260 
4643.000000	64.895915 
4642.000000	64.944267 
4641.000000	64.976167 
4640.000000	64.991426 
4639.000000	64.992642 
4638.000000	64.983701 
4637.000000	64.969515 
4636.000000	64.954757 
4635.000000	64.943194 
4634.000000	64.937210 
4633.000000	64.937639 
4632.000000	64.944005 
4631.000000	64.954590 
4630.000000	64.967179 
4629.000000	64.979219 
4628.000000	64.988493 
4627.000000	64.993309 
4626.000000	64.992618 
4625.000000	64.986205 
4624.000000	64.974498 
4623.000000	64.958453 
4622.000000	64.939188 
4621.000000	64.918041 
4620.000000	64.896178 
4619.000000	64.874863 
4618.000000	64.855146 
4617.000000	64.837765 
4616.000000	64.822721 
4615.000000	64.809799 
4614.000000	64.797925 
4613.000000	64.785790 
4612.000000	64.771914 
4611.000000	64.754533 
4610.000000	64.732837 
4609.000000	64.707565 
4608.000000	64.680814 
4607.000000	64.655661 
4606.000000	64.636039 
4605.000000	64.625501 
4604.000000	64.626502 
4603.000000	64.639616 
4602.000000	64.662957 
4601.000000	64.692354 
4600.000000	64.722442 
4599.000000	64.747619 
4598.000000	64.763045 
4597.000000	64.765810 
4596.000000	64.755558 
4595.000000	64.734315 
4594.000000	64.705967 
4593.000000	64.675307 
4592.000000	64.647126 
4591.000000	64.624881 
4590.000000	64.610576 
4589.000000	64.603829 
4588.000000	64.603161 
4587.000000	64.605474 
4586.000000	64.607238 
4585.000000	64.605045 
4584.000000	64.596319 
4583.000000	64.579796 
4582.000000	64.555287 
4581.000000	64.524340 
4580.000000	64.489626 
4579.000000	64.455008 
4578.000000	64.424753 
4577.000000	64.403319 
4576.000000	64.394593 
4575.000000	64.401245 
4574.000000	64.424133 
4573.000000	64.461970 
4572.000000	64.511466 
4571.000000	64.568018 
4570.000000	64.626550 
4569.000000	64.681649 
4568.000000	64.728784 
4567.000000	64.764881 
4566.000000	64.788770 
4565.000000	64.800882 
4564.000000	64.803099 
4563.000000	64.797997 
4562.000000	64.788460 
4561.000000	64.777803 
4560.000000	64.768385 
4559.000000	64.761352 
4558.000000	64.756822 
4557.000000	64.754557 
4556.000000	64.753866 
4555.000000	64.754223 
4554.000000	64.755654 
4553.000000	64.758753 
4552.000000	64.764666 
4551.000000	64.774584 
4550.000000	64.789080 
4549.000000	64.807248 
4548.000000	64.826464 
4547.000000	64.842152 
4546.000000	64.848232 
4545.000000	64.838480 
4544.000000	64.807701 
4543.000000	64.753723 
4542.000000	64.677596 
4541.000000	64.585351 
4540.000000	64.486455 
4539.000000	64.393854 
4538.000000	64.320397 
4537.000000	64.278101 
4536.000000	64.275646 
4535.000000	64.316773 
4534.000000	64.399433 
4533.000000	64.515757 
4532.000000	64.653372 
4531.000000	64.797115 
4530.000000	64.931225 
4529.000000	65.042066 
4528.000000	65.119862 
4527.000000	65.160036 
4526.000000	65.163278 
4525.000000	65.134334 
4524.000000	65.080571 
4523.000000	65.010476 
4522.000000	64.932203 
4521.000000	64.852809 
4520.000000	64.777660 
4519.000000	64.711022 
4518.000000	64.655804 
4517.000000	64.613652 
4516.000000	64.585399 
4515.000000	64.570593 
4514.000000	64.568161 
4513.000000	64.575958 
4512.000000	64.591646 
4511.000000	64.612269 
4510.000000	64.635205 
4509.000000	64.657688 
4508.000000	64.677596 
4507.000000	64.693140 
4506.000000	64.703416 
4505.000000	64.708018 
4504.000000	64.707231 
4503.000000	64.701676 
4502.000000	64.692664 
4501.000000	64.682459 
4500.000000	64.673113 
4499.000000	64.666104 
4498.000000	64.662003 
4497.000000	64.660453 
4496.000000	64.659571 
4495.000000	64.656710 
4494.000000	64.649295 
4493.000000	64.635634 
4492.000000	64.615964 
4491.000000	64.592337 
4490.000000	64.567637 
4489.000000	64.545130 
4488.000000	64.527773 
4487.000000	64.517641 
4486.000000	64.515233 
4485.000000	64.519381 
4484.000000	64.528369 
4483.000000	64.539361 
4482.000000	64.549374 
4481.000000	64.554929 
4480.000000	64.552783 
4479.000000	64.539980 
4478.000000	64.514255 
4477.000000	64.474654 
4476.000000	64.421606 
4475.000000	64.357852 
4474.000000	64.288473 
4473.000000	64.219999 
4472.000000	64.159560 
4471.000000	64.113593 
4470.000000	64.086699 
4469.000000	64.080500 
4468.000000	64.093589 
4467.000000	64.121985 
4466.000000	64.160418 
4465.000000	64.203524 
4464.000000	64.247155 
4463.000000	64.289069 
4462.000000	64.328956 
4461.000000	64.367389 
4460.000000	64.405179 
4459.000000	64.441871 
4458.000000	64.475512 
4457.000000	64.502906 
4456.000000	64.520192 
4455.000000	64.524722 
4454.000000	64.514851 
4453.000000	64.492177 
4452.000000	64.459204 
4451.000000	64.419698 
4450.000000	64.376497 
4449.000000	64.331197 
4448.000000	64.283919 
4447.000000	64.233756 
4446.000000	64.180064 
4445.000000	64.123821 
4444.000000	64.067912 
4443.000000	64.017271 
4442.000000	63.978052 
4441.000000	63.956046 
4440.000000	63.955068 
4439.000000	63.975739 
4438.000000	64.014911 
4437.000000	64.066123 
4436.000000	64.120864 
4435.000000	64.170289 
4434.000000	64.207315 
4433.000000	64.227771 
4432.000000	64.231228 
4431.000000	64.220428 
4430.000000	64.199662 
4429.000000	64.174008 
4428.000000	64.148116 
4427.000000	64.125466 
4426.000000	64.108633 
4425.000000	64.098477 
4424.000000	64.094448 
4423.000000	64.095234 
4422.000000	64.099574 
4421.000000	64.106845 
4420.000000	64.117407 
4419.000000	64.132428 
4418.000000	64.153718 
4417.000000	64.179801 
4416.000000	64.205908 
4415.000000	64.224362 
4414.000000	64.226913 
4413.000000	64.210748 
4412.000000	64.179229 
4411.000000	64.141607 
4410.000000	64.110016 
4409.000000	64.094614 
4408.000000	64.100694 
4407.000000	64.126038 
4406.000000	64.162755 
4405.000000	64.198136 
4404.000000	64.221096 
4403.000000	64.226865 
4402.000000	64.218449 
4401.000000	64.207482 
4400.000000	64.208626 
4399.000000	64.234590 
4398.000000	64.290976 
4397.000000	64.369606 
4396.000000	64.457273 
4395.000000	64.538311 
4394.000000	64.605426 
4393.000000	64.662241 
4392.000000	64.726734 
4391.000000	64.828944 
4390.000000	64.981389 
4389.000000	65.170907 
4388.000000	65.354299 
4387.000000	65.468358 
4386.000000	65.449547 
4385.000000	65.257239 
4384.000000	64.890217 
4383.000000	64.395117 
4382.000000	63.866424 
4381.000000	63.421273 
4380.000000	63.164377 
4379.000000	63.162112 
4378.000000	63.424801 
4377.000000	63.903355 
4376.000000	64.499330 
4375.000000	65.094900 
4374.000000	65.583300 
4373.000000	65.897488 
4372.000000	66.018199 
4371.000000	65.986132 
4370.000000	65.873885 
4369.000000	65.786767 
4368.000000	65.819001 
4367.000000	66.065120 
4366.000000	66.596746 
4365.000000	67.460274 
4364.000000	68.667745 
4363.000000	70.178365 
4362.000000	71.895575 
4361.000000	73.660302 
4360.000000	75.267767 
4359.000000	76.489353 
4358.000000	77.113723 
4357.000000	76.992511 
4356.000000	76.075482 
4355.000000	74.433469 
4354.000000	72.247767 
4353.000000	69.791412 
4352.000000	67.366290 
4351.000000	65.251922 
4350.000000	63.647389 
4349.000000	62.646532 
4348.000000	62.229394 
4347.000000	62.289476 
4346.000000	62.667465 
4345.000000	63.195872 
4344.000000	63.736891 
4343.000000	64.197063 
4342.000000	64.539384 
4341.000000	64.751005 
4340.000000	64.854931 
4339.000000	64.878082 
4338.000000	64.851379 
4337.000000	64.794373 
4336.000000	64.721059 
4335.000000	64.640212 
4334.000000	64.558529 
4333.000000	64.483451 
4332.000000	64.425444 
4331.000000	64.396905 
4330.000000	64.404082 
4329.000000	64.447402 
4328.000000	64.523077 
4327.000000	64.623379 
4326.000000	64.737725 
4325.000000	64.855194 
4324.000000	64.965319 
4323.000000	65.060353 
4322.000000	65.139198 
4321.000000	65.203237 
4320.000000	65.248656 
4319.000000	65.272402 
4318.000000	65.278768 
4317.000000	65.270709 
4316.000000	65.248608 
4315.000000	65.211462 
4314.000000	65.158319 
4313.000000	65.089106 
4312.000000	65.007376 
4311.000000	64.918088 
4310.000000	64.827370 
4309.000000	64.742040 
4308.000000	64.668488 
4307.000000	64.610910 
4306.000000	64.570617 
4305.000000	64.545512 
4304.000000	64.531207 
4303.000000	64.522171 
4302.000000	64.513373 
4301.000000	64.501380 
4300.000000	64.485073 
4299.000000	64.465165 
4298.000000	64.443898 
4297.000000	64.423871 
4296.000000	64.407229 
4295.000000	64.394068 
4294.000000	64.383268 
4293.000000	64.373302 
4292.000000	64.362621 
4291.000000	64.349985 
4290.000000	64.335608 
4289.000000	64.321208 
4288.000000	64.309668 
4287.000000	64.303827 
4286.000000	64.306664 
4285.000000	64.320111 
4284.000000	64.345502 
4283.000000	64.383077 
4282.000000	64.432501 
4281.000000	64.492583 
4280.000000	64.561676 
4279.000000	64.637303 
4278.000000	64.715147 
4277.000000	64.789080 
4276.000000	64.851975 
4275.000000	64.896631 
4274.000000	64.916896 
4273.000000	64.908766 
4272.000000	64.872622 
4271.000000	64.811921 
4270.000000	64.733195 
4269.000000	64.644217 
4268.000000	64.552998 
4267.000000	64.466023 
4266.000000	64.387845 
4265.000000	64.320492 
4264.000000	64.264535 
4263.000000	64.219260 
4262.000000	64.183449 
4261.000000	64.155936 
4260.000000	64.135670 
4259.000000	64.121985 
4258.000000	64.114141 
4257.000000	64.111447 
4256.000000	64.112734 
4255.000000	64.117622 
4254.000000	64.126038 
4253.000000	64.138650 
4252.000000	64.156222 
4251.000000	64.179444 
4250.000000	64.208173 
4249.000000	64.240670 
4248.000000	64.274215 
4247.000000	64.305782 
4246.000000	64.332842 
4245.000000	64.353919 
4244.000000	64.368939 
4243.000000	64.379096 
4242.000000	64.386296 
4241.000000	64.392495 
4240.000000	64.399409 
4239.000000	64.407682 
4238.000000	64.417529 
4237.000000	64.429140 
4236.000000	64.442229 
4235.000000	64.456176 
4234.000000	64.469957 
4233.000000	64.482831 
4232.000000	64.493513 
4231.000000	64.500355 
4230.000000	64.501571 
4229.000000	64.495778 
4228.000000	64.482903 
4227.000000	64.464545 
4226.000000	64.443683 
4225.000000	64.424014 
4224.000000	64.409089 
4223.000000	64.401245 
4222.000000	64.400482 
4221.000000	64.404511 
4220.000000	64.409875 
4219.000000	64.412927 
4218.000000	64.410614 
4217.000000	64.401817 
4216.000000	64.387774 
4215.000000	64.372158 
4214.000000	64.359211 
4213.000000	64.353752 
4212.000000	64.359426 
4211.000000	64.378499 
4210.000000	64.411473 
4209.000000	64.456582 
4208.000000	64.510321 
4207.000000	64.567375 
4206.000000	64.622235 
4205.000000	64.667963 
4204.000000	64.697217 
4203.000000	64.703178 
4202.000000	64.680743 
4201.000000	64.627981 
4200.000000	64.546799 
4199.000000	64.443778 
4198.000000	64.329075 
4197.000000	64.214658 
4196.000000	64.111447 
4195.000000	64.027476 
4194.000000	63.966178 
4193.000000	63.925504 
4192.000000	63.899540 
4191.000000	63.879537 
4190.000000	63.857841 
4189.000000	63.829350 
4188.000000	63.794565 
4187.000000	63.757371 
4186.000000	63.726520 
4185.000000	63.711476 
4184.000000	63.721704 
4183.000000	63.762521 
4182.000000	63.835239 
4181.000000	63.936257 
4180.000000	64.057898 
4179.000000	64.190244 
4178.000000	64.322113 
4177.000000	64.442873 
4176.000000	64.543914 
4175.000000	64.619421 
4174.000000	64.667677 
4173.000000	64.690637 
4172.000000	64.694237 
4171.000000	64.686512 
4170.000000	64.676141 
4169.000000	64.669895 
4168.000000	64.672279 
4167.000000	64.683318 
4166.000000	64.699125 
4165.000000	64.712262 
4164.000000	64.714765 
4163.000000	64.699840 
4162.000000	64.663624 
4161.000000	64.606881 
4160.000000	64.534807 
4159.000000	64.456939 
