PE IR       SPECTRUM    SPECTRUM    ASCII       PEDS        1.60        
  -1
C-9CEF~1.ASC
17/03/27
20:02:48.00
17/03/27
20:02:48.00
tln
$C-4040-8_t0067$<tbV0>[13.0,2.6,8.0,0.0,27,1,0]
370.000000
64









2002,4.07    
MIRTGS : RIGHTBACK : INTERNAL 2
MIR : ON : INTERNAL 2
OPTKBR

0.200000
8
8.000000
FILLER
RATIO
SPECTRUM
UNLOCKED 256

DOUBLE
64
COMBINED
1
0
0


1.000000
RATIO


1
0
TRUE
51149
0
LEFT NOT FITTED RIGHT NOT FITTED 0
NONE
NONE
15600
12.000000
4.427000
51148
TRUE
1 0 8 72 0 0 0 0 

15798.010000






#HDR
-1
-1
#GR
CM-1
%T
0.00002384185791015625
0.0
5000.000000
-1.000000
4631
8
66.807389
34.890198
#DATA
5000.000000	64.984035 
4999.000000	65.024328 
4998.000000	65.064549 
4997.000000	65.101337 
4996.000000	65.131402 
4995.000000	65.151667 
4994.000000	65.159726 
4993.000000	65.153765 
4992.000000	65.134024 
4991.000000	65.102672 
4990.000000	65.064620 
4989.000000	65.026998 
4988.000000	64.997482 
4987.000000	64.982748 
4986.000000	64.986753 
4985.000000	65.009856 
4984.000000	65.048432 
4983.000000	65.095949 
4982.000000	65.144586 
4981.000000	65.187025 
4980.000000	65.218424 
4979.000000	65.236639 
4978.000000	65.242767 
4977.000000	65.239286 
4976.000000	65.228223 
4975.000000	65.209507 
4974.000000	65.180635 
4973.000000	65.137100 
4972.000000	65.074300 
4971.000000	64.989280 
4970.000000	64.882969 
4969.000000	64.760875 
4968.000000	64.632391 
4967.000000	64.510393 
4966.000000	64.407253 
4965.000000	64.334869 
4964.000000	64.301633 
4963.000000	64.312076 
4962.000000	64.365577 
4961.000000	64.456915 
4960.000000	64.576840 
4959.000000	64.713454 
4958.000000	64.853835 
4957.000000	64.986014 
4956.000000	65.100479 
4955.000000	65.191626 
4954.000000	65.258193 
4953.000000	65.303063 
4952.000000	65.331840 
4951.000000	65.351843 
4950.000000	65.369343 
4949.000000	65.388512 
4948.000000	65.409684 
4947.000000	65.430402 
4946.000000	65.445470 
4945.000000	65.449905 
4944.000000	65.439534 
4943.000000	65.413641 
4942.000000	65.374279 
4941.000000	65.325713 
4940.000000	65.273594 
4939.000000	65.223240 
4938.000000	65.179228 
4937.000000	65.144538 
4936.000000	65.120959 
4935.000000	65.109562 
4934.000000	65.110564 
4933.000000	65.123653 
4932.000000	65.147876 
4931.000000	65.181469 
4930.000000	65.221929 
4929.000000	65.266060 
4928.000000	65.309834 
4927.000000	65.348744 
4926.000000	65.379714 
4925.000000	65.400958 
4924.000000	65.412259 
4923.000000	65.414047 
4922.000000	65.407299 
4921.000000	65.392708 
4920.000000	65.370559 
4919.000000	65.340948 
4918.000000	65.304756 
4917.000000	65.263557 
4916.000000	65.221023 
4915.000000	65.180921 
4914.000000	65.146446 
4913.000000	65.119171 
4912.000000	65.098500 
4911.000000	65.082216 
4910.000000	65.066862 
4909.000000	65.049505 
4908.000000	65.028715 
4907.000000	65.005207 
4906.000000	64.981794 
4905.000000	64.961934 
4904.000000	64.948511 
4903.000000	64.942121 
4902.000000	64.940762 
4901.000000	64.939904 
4900.000000	64.934229 
4899.000000	64.920353 
4898.000000	64.898347 
4897.000000	64.872026 
4896.000000	64.848089 
4895.000000	64.833784 
4894.000000	64.835286 
4893.000000	64.854145 
4892.000000	64.888882 
4891.000000	64.934659 
4890.000000	64.986276 
4889.000000	65.040588 
4888.000000	65.096497 
4887.000000	65.155267 
4886.000000	65.218234 
4885.000000	65.286135 
4884.000000	65.356087 
4883.000000	65.421032 
4882.000000	65.470862 
4881.000000	65.495038 
4880.000000	65.485453 
4879.000000	65.439558 
4878.000000	65.361428 
4877.000000	65.261983 
4876.000000	65.154886 
4875.000000	65.053510 
4874.000000	64.966702 
4873.000000	64.897131 
4872.000000	64.841556 
4871.000000	64.792752 
4870.000000	64.742755 
4869.000000	64.686536 
4868.000000	64.623165 
4867.000000	64.557790 
4866.000000	64.498710 
4865.000000	64.457130 
4864.000000	64.442920 
4863.000000	64.463591 
4862.000000	64.521098 
4861.000000	64.612221 
4860.000000	64.728641 
4859.000000	64.858603 
4858.000000	64.988327 
4857.000000	65.105199 
4856.000000	65.199470 
4855.000000	65.265703 
4854.000000	65.302681 
4853.000000	65.313506 
4852.000000	65.304303 
4851.000000	65.282487 
4850.000000	65.255475 
4849.000000	65.228128 
4848.000000	65.202331 
4847.000000	65.176725 
4846.000000	65.148210 
4845.000000	65.113425 
4844.000000	65.070509 
4843.000000	65.021038 
4842.000000	64.970159 
4841.000000	64.925241 
4840.000000	64.894294 
4839.000000	64.883852 
4838.000000	64.896821 
4837.000000	64.931273 
4836.000000	64.980292 
4835.000000	65.033650 
4834.000000	65.079474 
4833.000000	65.106940 
4832.000000	65.108513 
4831.000000	65.081167 
4830.000000	65.027880 
4829.000000	64.956545 
4828.000000	64.878535 
4827.000000	64.805579 
4826.000000	64.748382 
4825.000000	64.714932 
4824.000000	64.708566 
4823.000000	64.727640 
4822.000000	64.766526 
4821.000000	64.817023 
4820.000000	64.869689 
4819.000000	64.915990 
4818.000000	64.949393 
4817.000000	64.966988 
4816.000000	64.969539 
4815.000000	64.961194 
4814.000000	64.947915 
4813.000000	64.936137 
4812.000000	64.931821 
4811.000000	64.938521 
4810.000000	64.957165 
4809.000000	64.984989 
4808.000000	65.017342 
4807.000000	65.047168 
4806.000000	65.067458 
4805.000000	65.071702 
4804.000000	65.055513 
4803.000000	65.017342 
4802.000000	64.959049 
4801.000000	64.885258 
4800.000000	64.802360 
4799.000000	64.716982 
4798.000000	64.634704 
4797.000000	64.559006 
4796.000000	64.491415 
4795.000000	64.431428 
4794.000000	64.377713 
4793.000000	64.329481 
4792.000000	64.287590 
4791.000000	64.254999 
4790.000000	64.236307 
4789.000000	64.236426 
4788.000000	64.259243 
4787.000000	64.305758 
4786.000000	64.373302 
4785.000000	64.455008 
4784.000000	64.540719 
4783.000000	64.618492 
4782.000000	64.676928 
4781.000000	64.707732 
4780.000000	64.707136 
4779.000000	64.676451 
4778.000000	64.621710 
4777.000000	64.552402 
4776.000000	64.479398 
4775.000000	64.412879 
4774.000000	64.360451 
4773.000000	64.326333 
4772.000000	64.311194 
4771.000000	64.312934 
4770.000000	64.327836 
4769.000000	64.352130 
4768.000000	64.382624 
4767.000000	64.417052 
4766.000000	64.454460 
4765.000000	64.494705 
4764.000000	64.537215 
4763.000000	64.580869 
4762.000000	64.623689 
4761.000000	64.663505 
4760.000000	64.698362 
4759.000000	64.727449 
4758.000000	64.751791 
4757.000000	64.773535 
4756.000000	64.795899 
4755.000000	64.821600 
4754.000000	64.852499 
4753.000000	64.887928 
4752.000000	64.925503 
4751.000000	64.960503 
4750.000000	64.987444 
4749.000000	65.000677 
4748.000000	64.996218 
4747.000000	64.972639 
4746.000000	64.931368 
4745.000000	64.877176 
4744.000000	64.817428 
4743.000000	64.761042 
4742.000000	64.716792 
4741.000000	64.691567 
4740.000000	64.689159 
4739.000000	64.709520 
4738.000000	64.748787 
4737.000000	64.800238 
4736.000000	64.855813 
4735.000000	64.907193 
4734.000000	64.947819 
4733.000000	64.973998 
4732.000000	64.985561 
4731.000000	64.984965 
4730.000000	64.976692 
4729.000000	64.966034 
4728.000000	64.957571 
4727.000000	64.954543 
4726.000000	64.957594 
4725.000000	64.966130 
4724.000000	64.976930 
4723.000000	64.986610 
4722.000000	64.990663 
4721.000000	64.984869 
4720.000000	64.965772 
4719.000000	64.931321 
4718.000000	64.882183 
4717.000000	64.821672 
4716.000000	64.756011 
4715.000000	64.693212 
4714.000000	64.641714 
4713.000000	64.608120 
4712.000000	64.596056 
4711.000000	64.604997 
4710.000000	64.629650 
4709.000000	64.661502 
4708.000000	64.690351 
4707.000000	64.707088 
4706.000000	64.705777 
4705.000000	64.685273 
4704.000000	64.648699 
4703.000000	64.602947 
4702.000000	64.556384 
4701.000000	64.517211 
4700.000000	64.490890 
4699.000000	64.479589 
4698.000000	64.482545 
4697.000000	64.496564 
4696.000000	64.517998 
4695.000000	64.543199 
4694.000000	64.569497 
4693.000000	64.595580 
4692.000000	64.620685 
4691.000000	64.644861 
4690.000000	64.667725 
4689.000000	64.689159 
4688.000000	64.708971 
4687.000000	64.727234 
4686.000000	64.744186 
4685.000000	64.760756 
4684.000000	64.778041 
4683.000000	64.796280 
4682.000000	64.814281 
4681.000000	64.829540 
4680.000000	64.838576 
4679.000000	64.837718 
4678.000000	64.824271 
4677.000000	64.797592 
4676.000000	64.759659 
4675.000000	64.715456 
4674.000000	64.671421 
4673.000000	64.634251 
4672.000000	64.609360 
4671.000000	64.599156 
4670.000000	64.602923 
4669.000000	64.617204 
4668.000000	64.637351 
4667.000000	64.658427 
4666.000000	64.677524 
4665.000000	64.693999 
4664.000000	64.709877 
4663.000000	64.728498 
4662.000000	64.753580 
4661.000000	64.787316 
4660.000000	64.830112 
4659.000000	64.879918 
4658.000000	64.932966 
4657.000000	64.984130 
4656.000000	65.028476 
4655.000000	65.061545 
4654.000000	65.080356 
4653.000000	65.083312 
4652.000000	65.069985 
4651.000000	65.041136 
4650.000000	64.998602 
4649.000000	64.945578 
4648.000000	64.886546 
4647.000000	64.827227 
4646.000000	64.774346 
4645.000000	64.734482 
4644.000000	64.713096 
4643.000000	64.713430 
4642.000000	64.735436 
4641.000000	64.776492 
4640.000000	64.831352 
4639.000000	64.893674 
4638.000000	64.956784 
4637.000000	65.014719 
4636.000000	65.062928 
4635.000000	65.098357 
4634.000000	65.119194 
4633.000000	65.125083 
4632.000000	65.116882 
4631.000000	65.096426 
4630.000000	65.066623 
4629.000000	65.031504 
4628.000000	64.995884 
4627.000000	64.965105 
4626.000000	64.944052 
4625.000000	64.936590 
4624.000000	64.944434 
4623.000000	64.967274 
4622.000000	65.002036 
4621.000000	65.043711 
4620.000000	65.086030 
4619.000000	65.122699 
4618.000000	65.148353 
4617.000000	65.159106 
4616.000000	65.153431 
4615.000000	65.131807 
4614.000000	65.096902 
4613.000000	65.052700 
4612.000000	65.004229 
4611.000000	64.956760 
4610.000000	64.914965 
4609.000000	64.882612 
4608.000000	64.861631 
4607.000000	64.852237 
4606.000000	64.852643 
4605.000000	64.859676 
4604.000000	64.869284 
4603.000000	64.877700 
4602.000000	64.882397 
4601.000000	64.883065 
4600.000000	64.881658 
4599.000000	64.882349 
4598.000000	64.890289 
4597.000000	64.910006 
4596.000000	64.944386 
4595.000000	64.992976 
4594.000000	65.051627 
4593.000000	65.112733 
4592.000000	65.167164 
4591.000000	65.205764 
4590.000000	65.221905 
4589.000000	65.212869 
4588.000000	65.180420 
4587.000000	65.130639 
4586.000000	65.072250 
4585.000000	65.014910 
4584.000000	64.967036 
4583.000000	64.934849 
4582.000000	64.921402 
4581.000000	64.927148 
4580.000000	64.950561 
4579.000000	64.988446 
4578.000000	65.036916 
4577.000000	65.091514 
4576.000000	65.147995 
4575.000000	65.202426 
4574.000000	65.251636 
4573.000000	65.292978 
4572.000000	65.324378 
4571.000000	65.345215 
4570.000000	65.355896 
4569.000000	65.358352 
4568.000000	65.355062 
4567.000000	65.348935 
4566.000000	65.342068 
4565.000000	65.336346 
4564.000000	65.332078 
4563.000000	65.328407 
4562.000000	65.323805 
4561.000000	65.316700 
4560.000000	65.306091 
4559.000000	65.291643 
4558.000000	65.274596 
4557.000000	65.257668 
4556.000000	65.244746 
4555.000000	65.240025 
4554.000000	65.246748 
4553.000000	65.266180 
4552.000000	65.296006 
4551.000000	65.330553 
4550.000000	65.360999 
4549.000000	65.377354 
4548.000000	65.370965 
4547.000000	65.337300 
4546.000000	65.277361 
4545.000000	65.198421 
4544.000000	65.113139 
4543.000000	65.037059 
4542.000000	64.984679 
4541.000000	64.966702 
4540.000000	64.987111 
4539.000000	65.043663 
4538.000000	65.127468 
4537.000000	65.227484 
4536.000000	65.333008 
4535.000000	65.437340 
4534.000000	65.538263 
4533.000000	65.638017 
4532.000000	65.740990 
4531.000000	65.850257 
4530.000000	65.965199 
4529.000000	66.079258 
4528.000000	66.180944 
4527.000000	66.255879 
4526.000000	66.291141 
4525.000000	66.278696 
4524.000000	66.218566 
4523.000000	66.119790 
4522.000000	65.998721 
4521.000000	65.875101 
4520.000000	65.767717 
4519.000000	65.690135 
4518.000000	65.648341 
4517.000000	65.640902 
4516.000000	65.660023 
4515.000000	65.694785 
4514.000000	65.733981 
4513.000000	65.768575 
4512.000000	65.793442 
4511.000000	65.806055 
4510.000000	65.807747 
4509.000000	65.801048 
4508.000000	65.789604 
4507.000000	65.776133 
4506.000000	65.762925 
4505.000000	65.751814 
4504.000000	65.743684 
4503.000000	65.738868 
4502.000000	65.736961 
4501.000000	65.737509 
4500.000000	65.739345 
4499.000000	65.740990 
4498.000000	65.741372 
4497.000000	65.740108 
4496.000000	65.737795 
4495.000000	65.735864 
4494.000000	65.735888 
4493.000000	65.738773 
4492.000000	65.744423 
4491.000000	65.751171 
4490.000000	65.756177 
4489.000000	65.755701 
4488.000000	65.746736 
4487.000000	65.727066 
4486.000000	65.695786 
4485.000000	65.653252 
4484.000000	65.601229 
4483.000000	65.542435 
4482.000000	65.479826 
4481.000000	65.416955 
4480.000000	65.357160 
4479.000000	65.304255 
4478.000000	65.261983 
4477.000000	65.234231 
4476.000000	65.223813 
4475.000000	65.232443 
4474.000000	65.259861 
4473.000000	65.303826 
4472.000000	65.360116 
4471.000000	65.424227 
4470.000000	65.491867 
4469.000000	65.559983 
4468.000000	65.626573 
4467.000000	65.690636 
4466.000000	65.751290 
4465.000000	65.806818 
4464.000000	65.854191 
4463.000000	65.889048 
4462.000000	65.907239 
4461.000000	65.905714 
4460.000000	65.884590 
4459.000000	65.848517 
4458.000000	65.805792 
4457.000000	65.767931 
4456.000000	65.745687 
4455.000000	65.746378 
4454.000000	65.771365 
4453.000000	65.815424 
4452.000000	65.868377 
4451.000000	65.918231 
4450.000000	65.954136 
4449.000000	65.969944 
4448.000000	65.963864 
4447.000000	65.938234 
4446.000000	65.898013 
4445.000000	65.848731 
4444.000000	65.795612 
4443.000000	65.742254 
4442.000000	65.691161 
4441.000000	65.643668 
4440.000000	65.600275 
4439.000000	65.561079 
4438.000000	65.525007 
4437.000000	65.490889 
4436.000000	65.458536 
4435.000000	65.429210 
4434.000000	65.404915 
4433.000000	65.388369 
4432.000000	65.382838 
4431.000000	65.390563 
4430.000000	65.411686 
4429.000000	65.443897 
4428.000000	65.482640 
4427.000000	65.521669 
4426.000000	65.552639 
4425.000000	65.569138 
4424.000000	65.568041 
4423.000000	65.550518 
4422.000000	65.520262 
4421.000000	65.485835 
4420.000000	65.460658 
4419.000000	65.453767 
4418.000000	65.465116 
4417.000000	65.493798 
4416.000000	65.538954 
4415.000000	65.592932 
4414.000000	65.642666 
4413.000000	65.674495 
4412.000000	65.676951 
4411.000000	65.638613 
4410.000000	65.553832 
4409.000000	65.429186 
4408.000000	65.280222 
4407.000000	65.133380 
4406.000000	65.013933 
4405.000000	64.933037 
4404.000000	64.887976 
4403.000000	64.866113 
4402.000000	64.847421 
4401.000000	64.809393 
4400.000000	64.734125 
4399.000000	64.629578 
4398.000000	64.500951 
4397.000000	64.353537 
4396.000000	64.167881 
4395.000000	63.907480 
4394.000000	63.504672 
4393.000000	62.879276 
4392.000000	61.956286 
4391.000000	60.694670 
4390.000000	59.098124 
4389.000000	57.226896 
4388.000000	55.190896 
4387.000000	53.136301 
4386.000000	51.217412 
4385.000000	49.575805 
4384.000000	48.308444 
4383.000000	47.469830 
4382.000000	47.053766 
4381.000000	47.033071 
4380.000000	47.348880 
4379.000000	47.967815 
4378.000000	48.879146 
4377.000000	50.109028 
4376.000000	51.688241 
4375.000000	53.629183 
4374.000000	55.874776 
4373.000000	58.304309 
4372.000000	60.718107 
4371.000000	62.898159 
4370.000000	64.652800 
4369.000000	65.862655 
4368.000000	66.525149 
4367.000000	66.720247 
4366.000000	66.590857 
4365.000000	66.290998 
4364.000000	65.948772 
4363.000000	65.645718 
4362.000000	65.410065 
4361.000000	65.242314 
4360.000000	65.131688 
4359.000000	65.060353 
4358.000000	65.015912 
4357.000000	64.991879 
4356.000000	64.991188 
4355.000000	65.012907 
4354.000000	65.058040 
4353.000000	65.128374 
4352.000000	65.226888 
4351.000000	65.352559 
4350.000000	65.503311 
4349.000000	65.674209 
4348.000000	65.858507 
4347.000000	66.052436 
4346.000000	66.249084 
4345.000000	66.433978 
4344.000000	66.591382 
4343.000000	66.711425 
4342.000000	66.785693 
4341.000000	66.807389 
4340.000000	66.777348 
4339.000000	66.708469 
4338.000000	66.614127 
4337.000000	66.504549 
4336.000000	66.390919 
4335.000000	66.284418 
4334.000000	66.194772 
4333.000000	66.129589 
4332.000000	66.091561 
4331.000000	66.078591 
4330.000000	66.084408 
4329.000000	66.100573 
4328.000000	66.117811 
4327.000000	66.129088 
4326.000000	66.130661 
4325.000000	66.123032 
4324.000000	66.109418 
4323.000000	66.095018 
4322.000000	66.083478 
4321.000000	66.077184 
4320.000000	66.076779 
4319.000000	66.080760 
4318.000000	66.086101 
4317.000000	66.089344 
4316.000000	66.088271 
4315.000000	66.081666 
4314.000000	66.069006 
4313.000000	66.051650 
4312.000000	66.032433 
4311.000000	66.014695 
4310.000000	66.001367 
4309.000000	65.994405 
4308.000000	65.994119 
4307.000000	65.999388 
4306.000000	66.007924 
4305.000000	66.016650 
4304.000000	66.022539 
4303.000000	66.023802 
4302.000000	66.020131 
4301.000000	66.012597 
4300.000000	66.003108 
4299.000000	65.994095 
4298.000000	65.987205 
4297.000000	65.982794 
4296.000000	65.979218 
4295.000000	65.973520 
4294.000000	65.961503 
4293.000000	65.939044 
4292.000000	65.903043 
4291.000000	65.852761 
4290.000000	65.790033 
4289.000000	65.719079 
4288.000000	65.646314 
4287.000000	65.578675 
4286.000000	65.523505 
4285.000000	65.486812 
4284.000000	65.472626 
4283.000000	65.482163 
4282.000000	65.513658 
4281.000000	65.562677 
4280.000000	65.622425 
4279.000000	65.684962 
4278.000000	65.742158 
4277.000000	65.787172 
4276.000000	65.815281 
4275.000000	65.824532 
4274.000000	65.815663 
4273.000000	65.792012 
4272.000000	65.758776 
4271.000000	65.722322 
4270.000000	65.689253 
4269.000000	65.665221 
4268.000000	65.654683 
4267.000000	65.659475 
4266.000000	65.678977 
4265.000000	65.709662 
4264.000000	65.746331 
4263.000000	65.782499 
4262.000000	65.811896 
4261.000000	65.829253 
4260.000000	65.831255 
4259.000000	65.816903 
4258.000000	65.787577 
4257.000000	65.746307 
4256.000000	65.697073 
4255.000000	65.643930 
4254.000000	65.590548 
4253.000000	65.540194 
4252.000000	65.495419 
4251.000000	65.458655 
4250.000000	65.432143 
4249.000000	65.417909 
4248.000000	65.417265 
4247.000000	65.430164 
4246.000000	65.455293 
4245.000000	65.489053 
4244.000000	65.527009 
4243.000000	65.564203 
4242.000000	65.596818 
4241.000000	65.622901 
4240.000000	65.642404 
4239.000000	65.656971 
4238.000000	65.668439 
4237.000000	65.678572 
4236.000000	65.686941 
4235.000000	65.691041 
4234.000000	65.686058 
4233.000000	65.666580 
4232.000000	65.627956 
4231.000000	65.568399 
4230.000000	65.489697 
4229.000000	65.397644 
4228.000000	65.301108 
4227.000000	65.210652 
4226.000000	65.135908 
4225.000000	65.083837 
4224.000000	65.057682 
4223.000000	65.056777 
4222.000000	65.076994 
4221.000000	65.112447 
4220.000000	65.156078 
4219.000000	65.201902 
4218.000000	65.245580 
4217.000000	65.285348 
4216.000000	65.320491 
4215.000000	65.351748 
4214.000000	65.380334 
4213.000000	65.407061 
4212.000000	65.431809 
4211.000000	65.453028 
4210.000000	65.468811 
4209.000000	65.476250 
4208.000000	65.473294 
4207.000000	65.458035 
4206.000000	65.429854 
4205.000000	65.388846 
4204.000000	65.336632 
4203.000000	65.275049 
4202.000000	65.206432 
4201.000000	65.132880 
4200.000000	65.056228 
4199.000000	64.978027 
4198.000000	64.900541 
4197.000000	64.826774 
4196.000000	64.761495 
4195.000000	64.710378 
4194.000000	64.680433 
4193.000000	64.678502 
4192.000000	64.710617 
4191.000000	64.779400 
4190.000000	64.883995 
4189.000000	65.018963 
4188.000000	65.174984 
4187.000000	65.339422 
4186.000000	65.497779 
4185.000000	65.636134 
4184.000000	65.742182 
4183.000000	65.807652 
4182.000000	65.827894 
4181.000000	65.802621 
4180.000000	65.735483 
4179.000000	65.634083 
4178.000000	65.508842 
4177.000000	65.372371 
4176.000000	65.238165 
4175.000000	65.119361 
4174.000000	65.026092 
4173.000000	64.964413 
4172.000000	64.934635 
4171.000000	64.931821 
4170.000000	64.946007 
4169.000000	64.964985 
4168.000000	64.976215 
4167.000000	64.970374 
4166.000000	64.942836 
4165.000000	64.895319 
4164.000000	64.834427 
4163.000000	64.771008 
4162.000000	64.716529 
4161.000000	64.681482 
4160.000000	64.671969 
4159.000000	64.689779 
