PE IR       SPECTRUM    SPECTRUM    ASCII       PEDS        1.60        
  -1
C-9BEF~1.ASC
17/03/27
18:23:09.00
17/03/27
18:23:09.00
tln
$C-4040-8_t0047$<tbV0>[7.8,-2.6,8.0,0.0,27,1,0]
370.000000
64









2002,4.07    
MIRTGS : RIGHTBACK : INTERNAL 2
MIR : ON : INTERNAL 2
OPTKBR

0.200000
8
8.000000
FILLER
RATIO
SPECTRUM
UNLOCKED 256

DOUBLE
64
COMBINED
1
0
0


1.000000
RATIO


1
0
TRUE
51149
0
LEFT NOT FITTED RIGHT NOT FITTED 0
NONE
NONE
15600
12.000000
4.427000
51148
TRUE
1 0 8 72 0 0 0 0 

15798.010000






#HDR
-1
-1
#GR
CM-1
%T
0.00002384185791015625
0.0
5000.000000
-1.000000
4631
8
92.290377
40.677213
#DATA
5000.000000	64.790725 
4999.000000	64.823770 
4998.000000	64.827513 
4997.000000	64.802050 
4996.000000	64.753246 
4995.000000	64.691376 
4994.000000	64.628815 
4993.000000	64.577531 
4992.000000	64.545512 
4991.000000	64.535975 
4990.000000	64.545416 
4989.000000	64.565682 
4988.000000	64.585423 
4987.000000	64.593553 
4986.000000	64.581537 
4985.000000	64.545679 
4984.000000	64.488172 
4983.000000	64.416790 
4982.000000	64.343214 
4981.000000	64.280772 
4980.000000	64.242315 
4979.000000	64.237809 
4978.000000	64.272761 
4977.000000	64.347147 
4976.000000	64.455795 
4975.000000	64.588856 
4974.000000	64.733624 
4973.000000	64.876270 
4972.000000	65.003919 
4971.000000	65.106415 
4970.000000	65.176963 
4969.000000	65.213441 
4968.000000	65.218019 
4967.000000	65.196299 
4966.000000	65.156245 
4965.000000	65.106320 
4964.000000	65.055131 
4963.000000	65.009474 
4962.000000	64.974689 
4961.000000	64.953160 
4960.000000	64.945316 
4959.000000	64.949297 
4958.000000	64.962100 
4957.000000	64.979362 
4956.000000	64.996504 
4955.000000	65.008926 
4954.000000	65.013074 
4953.000000	65.006875 
4952.000000	64.990401 
4951.000000	64.965939 
4950.000000	64.937877 
4949.000000	64.912009 
4948.000000	64.893984 
4947.000000	64.888763 
4946.000000	64.898109 
4945.000000	64.920520 
4944.000000	64.950275 
4943.000000	64.978718 
4942.000000	64.995980 
4941.000000	64.993715 
4940.000000	64.966678 
4939.000000	64.913916 
4938.000000	64.839386 
4937.000000	64.750838 
4936.000000	64.658761 
4935.000000	64.573788 
4934.000000	64.505481 
4933.000000	64.460349 
4932.000000	64.441585 
4931.000000	64.449024 
4930.000000	64.479494 
4929.000000	64.527559 
4928.000000	64.586138 
4927.000000	64.647722 
4926.000000	64.704728 
4925.000000	64.751100 
4924.000000	64.782547 
4923.000000	64.797759 
4922.000000	64.798879 
4921.000000	64.790916 
4920.000000	64.781045 
4919.000000	64.776158 
4918.000000	64.781546 
4917.000000	64.798784 
4916.000000	64.825057 
4915.000000	64.854335 
4914.000000	64.879798 
4913.000000	64.895963 
4912.000000	64.900279 
4911.000000	64.894580 
4910.000000	64.884996 
4909.000000	64.879298 
4908.000000	64.884781 
4907.000000	64.905023 
4906.000000	64.938449 
4905.000000	64.978170 
4904.000000	65.013909 
4903.000000	65.034961 
4902.000000	65.033674 
4901.000000	65.008163 
4900.000000	64.963245 
4899.000000	64.909672 
4898.000000	64.860844 
4897.000000	64.829564 
4896.000000	64.823508 
4895.000000	64.843773 
4894.000000	64.883041 
4893.000000	64.928460 
4892.000000	64.963150 
4891.000000	64.971160 
4890.000000	64.940094 
4889.000000	64.864230 
4888.000000	64.745903 
4887.000000	64.593863 
4886.000000	64.422821 
4885.000000	64.249777 
4884.000000	64.091777 
4883.000000	63.962554 
4882.000000	63.871192 
4881.000000	63.821554 
4880.000000	63.811254 
4879.000000	63.832926 
4878.000000	63.875293 
4877.000000	63.925409 
4876.000000	63.970613 
4875.000000	64.000773 
4874.000000	64.009642 
4873.000000	63.996052 
4872.000000	63.964128 
4871.000000	63.922452 
4870.000000	63.881587 
4869.000000	63.851928 
4868.000000	63.841462 
4867.000000	63.854098 
4866.000000	63.888978 
4865.000000	63.940978 
4864.000000	64.001941 
4863.000000	64.063644 
4862.000000	64.118957 
4861.000000	64.165115 
4860.000000	64.202976 
4859.000000	64.237976 
4858.000000	64.277243 
4857.000000	64.328670 
4856.000000	64.397788 
4855.000000	64.486932 
4854.000000	64.594602 
4853.000000	64.714908 
4852.000000	64.838886 
4851.000000	64.955925 
4850.000000	65.056538 
4849.000000	65.132236 
4848.000000	65.177154 
4847.000000	65.188336 
4846.000000	65.166068 
4845.000000	65.113925 
4844.000000	65.038275 
4843.000000	64.947676 
4842.000000	64.851546 
4841.000000	64.759969 
4840.000000	64.681243 
4839.000000	64.622020 
4838.000000	64.585304 
4837.000000	64.570569 
4836.000000	64.574050 
4835.000000	64.589643 
4834.000000	64.610743 
4833.000000	64.631485 
4832.000000	64.648151 
4831.000000	64.658832 
4830.000000	64.664196 
4829.000000	64.666390 
4828.000000	64.668059 
4827.000000	64.670562 
4826.000000	64.674282 
4825.000000	64.678645 
4824.000000	64.682102 
4823.000000	64.682960 
4822.000000	64.679861 
4821.000000	64.672470 
4820.000000	64.660716 
4819.000000	64.644932 
4818.000000	64.625453 
4817.000000	64.602875 
4816.000000	64.577865 
4815.000000	64.551806 
4814.000000	64.527058 
4813.000000	64.507389 
4812.000000	64.497900 
4811.000000	64.503836 
4810.000000	64.529132 
4809.000000	64.575028 
4808.000000	64.639329 
4807.000000	64.715766 
4806.000000	64.794874 
4805.000000	64.865493 
4804.000000	64.916920 
4803.000000	64.941549 
4802.000000	64.936542 
4801.000000	64.904189 
4800.000000	64.851593 
4799.000000	64.788603 
4798.000000	64.725470 
4797.000000	64.670801 
4796.000000	64.630150 
4795.000000	64.605283 
4794.000000	64.594841 
4793.000000	64.595460 
4792.000000	64.603590 
4791.000000	64.616537 
4790.000000	64.633488 
4789.000000	64.654564 
4788.000000	64.680647 
4787.000000	64.712071 
4786.000000	64.748072 
4785.000000	64.786219 
4784.000000	64.822673 
4783.000000	64.853382 
4782.000000	64.874100 
4781.000000	64.882206 
4780.000000	64.876103 
4779.000000	64.855837 
4778.000000	64.822912 
4777.000000	64.779376 
4776.000000	64.728951 
4775.000000	64.676523 
4774.000000	64.628219 
4773.000000	64.590501 
4772.000000	64.569520 
4771.000000	64.570164 
4770.000000	64.594125 
4769.000000	64.639043 
4768.000000	64.698147 
4767.000000	64.761161 
4766.000000	64.816045 
4765.000000	64.851808 
4764.000000	64.860796 
4763.000000	64.840793 
4762.000000	64.796066 
4761.000000	64.735937 
4760.000000	64.672422 
4759.000000	64.617276 
4758.000000	64.579558 
4757.000000	64.563155 
4756.000000	64.566731 
4755.000000	64.584207 
4754.000000	64.607477 
4753.000000	64.627885 
4752.000000	64.638805 
4751.000000	64.636445 
4750.000000	64.620447 
4749.000000	64.593291 
4748.000000	64.558792 
4747.000000	64.521026 
4746.000000	64.483261 
4745.000000	64.447236 
4744.000000	64.413094 
4743.000000	64.380049 
4742.000000	64.347577 
4741.000000	64.315366 
4740.000000	64.284014 
4739.000000	64.255189 
4738.000000	64.231610 
4737.000000	64.217066 
4736.000000	64.215779 
4735.000000	64.231252 
4734.000000	64.265847 
4733.000000	64.320015 
4732.000000	64.391994 
4731.000000	64.477252 
4730.000000	64.569544 
4729.000000	64.661931 
4728.000000	64.747786 
4727.000000	64.822196 
4726.000000	64.882183 
4725.000000	64.927077 
4724.000000	64.958047 
4723.000000	64.977240 
4722.000000	64.987301 
4721.000000	64.991068 
4720.000000	64.990830 
4719.000000	64.988541 
4718.000000	64.986133 
4717.000000	64.985704 
4716.000000	64.989542 
4715.000000	65.000009 
4714.000000	65.018296 
4713.000000	65.043997 
4712.000000	65.074682 
4711.000000	65.106177 
4710.000000	65.133380 
4709.000000	65.151429 
4708.000000	65.156865 
4707.000000	65.148377 
4706.000000	65.127205 
4705.000000	65.096521 
4704.000000	65.060901 
4703.000000	65.024709 
4702.000000	64.991641 
4701.000000	64.963412 
4700.000000	64.940047 
4699.000000	64.919519 
4698.000000	64.899230 
4697.000000	64.876055 
4696.000000	64.847159 
4695.000000	64.811038 
4694.000000	64.767813 
4693.000000	64.719390 
4692.000000	64.668607 
4691.000000	64.619565 
4690.000000	64.576482 
4689.000000	64.543199 
4688.000000	64.522266 
4687.000000	64.514040 
4686.000000	64.516615 
4685.000000	64.525723 
4684.000000	64.536118 
4683.000000	64.542245 
4682.000000	64.540052 
4681.000000	64.528083 
4680.000000	64.508223 
4679.000000	64.485025 
4678.000000	64.464926 
4677.000000	64.454364 
4676.000000	64.458227 
4675.000000	64.478063 
4674.000000	64.511561 
4673.000000	64.553093 
4672.000000	64.594650 
4671.000000	64.628005 
4670.000000	64.646434 
4669.000000	64.646291 
4668.000000	64.628005 
4667.000000	64.595341 
4666.000000	64.554786 
4665.000000	64.513421 
4664.000000	64.478254 
4663.000000	64.454436 
4662.000000	64.445018 
4661.000000	64.450883 
4660.000000	64.470815 
4659.000000	64.502453 
4658.000000	64.543056 
4657.000000	64.590191 
4656.000000	64.641571 
4655.000000	64.695286 
4654.000000	64.749765 
4653.000000	64.803290 
4652.000000	64.854145 
4651.000000	64.900159 
4650.000000	64.939308 
4649.000000	64.969396 
4648.000000	64.988803 
4647.000000	64.996218 
4646.000000	64.991402 
4645.000000	64.974641 
4644.000000	64.947676 
4643.000000	64.912390 
4642.000000	64.871048 
4641.000000	64.825558 
4640.000000	64.777946 
4639.000000	64.729619 
4638.000000	64.681243 
4637.000000	64.633965 
4636.000000	64.589548 
4635.000000	64.551091 
4634.000000	64.522719 
4633.000000	64.509129 
4632.000000	64.514470 
4631.000000	64.541769 
4630.000000	64.591550 
4629.000000	64.661145 
4628.000000	64.744567 
4627.000000	64.833307 
4626.000000	64.917802 
4625.000000	64.989614 
4624.000000	65.042352 
4623.000000	65.073299 
4622.000000	65.082311 
4621.000000	65.072464 
4620.000000	65.047192 
4619.000000	65.010094 
4618.000000	64.962530 
4617.000000	64.904689 
4616.000000	64.834666 
4615.000000	64.750742 
4614.000000	64.652085 
4613.000000	64.540386 
4612.000000	64.420819 
4611.000000	64.301443 
4610.000000	64.193010 
4609.000000	64.106678 
4608.000000	64.052700 
4607.000000	64.038181 
4606.000000	64.066243 
4605.000000	64.135098 
4604.000000	64.238357 
4603.000000	64.365601 
4602.000000	64.503407 
4601.000000	64.637207 
4600.000000	64.753031 
4599.000000	64.839863 
4598.000000	64.890933 
4597.000000	64.904832 
4596.000000	64.885592 
4595.000000	64.841103 
4594.000000	64.782285 
4593.000000	64.719653 
4592.000000	64.662098 
4591.000000	64.614653 
4590.000000	64.579582 
4589.000000	64.555382 
4588.000000	64.539074 
4587.000000	64.526987 
4586.000000	64.516425 
4585.000000	64.506244 
4584.000000	64.496803 
4583.000000	64.489507 
4582.000000	64.485549 
4581.000000	64.485859 
4580.000000	64.490294 
4579.000000	64.498043 
4578.000000	64.507842 
4577.000000	64.519381 
4576.000000	64.533782 
4575.000000	64.553380 
4574.000000	64.580845 
4573.000000	64.618325 
4572.000000	64.665937 
4571.000000	64.721608 
4570.000000	64.780449 
4569.000000	64.835381 
4568.000000	64.877843 
4567.000000	64.900207 
4566.000000	64.896345 
4565.000000	64.864397 
4564.000000	64.805626 
4563.000000	64.724588 
4562.000000	64.627647 
4561.000000	64.522886 
4560.000000	64.417839 
4559.000000	64.318418 
4558.000000	64.229083 
4557.000000	64.152884 
4556.000000	64.092874 
4555.000000	64.052271 
4554.000000	64.034843 
4553.000000	64.043903 
4552.000000	64.081382 
4551.000000	64.146232 
4550.000000	64.233088 
4549.000000	64.332461 
4548.000000	64.431667 
4547.000000	64.517140 
4546.000000	64.576935 
4545.000000	64.604067 
4544.000000	64.597249 
4543.000000	64.562797 
4542.000000	64.512777 
4541.000000	64.463496 
4540.000000	64.432692 
4539.000000	64.435291 
4538.000000	64.481115 
4537.000000	64.571595 
4536.000000	64.700746 
4535.000000	64.854478 
4534.000000	65.014266 
4533.000000	65.160012 
4532.000000	65.274214 
4531.000000	65.345239 
4530.000000	65.368962 
4529.000000	65.349102 
4528.000000	65.295243 
4527.000000	65.220904 
4526.000000	65.140342 
4525.000000	65.065479 
4524.000000	65.004348 
4523.000000	64.960432 
4522.000000	64.933633 
4521.000000	64.922022 
4520.000000	64.923429 
4519.000000	64.936685 
4518.000000	64.961719 
4517.000000	64.998817 
4516.000000	65.047526 
4515.000000	65.104818 
4514.000000	65.164756 
4513.000000	65.219211 
4512.000000	65.258669 
4511.000000	65.274763 
4510.000000	65.261554 
4509.000000	65.217065 
4508.000000	65.143823 
4507.000000	65.048933 
4506.000000	64.942240 
4505.000000	64.835190 
4504.000000	64.738202 
4503.000000	64.659166 
4502.000000	64.602327 
4501.000000	64.568352 
4500.000000	64.554023 
4499.000000	64.553618 
4498.000000	64.560389 
4497.000000	64.568185 
4496.000000	64.572429 
4495.000000	64.571070 
4494.000000	64.564609 
4493.000000	64.555764 
4492.000000	64.548587 
4491.000000	64.547586 
4490.000000	64.556527 
4489.000000	64.577817 
4488.000000	64.611673 
4487.000000	64.656352 
4486.000000	64.708709 
4485.000000	64.764904 
4484.000000	64.820981 
4483.000000	64.873528 
4482.000000	64.920115 
4481.000000	64.959621 
4480.000000	64.991474 
4479.000000	65.016055 
4478.000000	65.034294 
4477.000000	65.047454 
4476.000000	65.056920 
4475.000000	65.063762 
4474.000000	65.068769 
4473.000000	65.072655 
4472.000000	65.076446 
4471.000000	65.081048 
4470.000000	65.087127 
4469.000000	65.095305 
4468.000000	65.106034 
4467.000000	65.118670 
4466.000000	65.131497 
4465.000000	65.142011 
4464.000000	65.147280 
4463.000000	65.144658 
4462.000000	65.132522 
4461.000000	65.111064 
4460.000000	65.082287 
4459.000000	65.049767 
4458.000000	65.017509 
4457.000000	64.989757 
4456.000000	64.969086 
4455.000000	64.955925 
4454.000000	64.948129 
4453.000000	64.941692 
4452.000000	64.931797 
4451.000000	64.914369 
4450.000000	64.887046 
4449.000000	64.849877 
4448.000000	64.805841 
4447.000000	64.759969 
4446.000000	64.718532 
4445.000000	64.687418 
4444.000000	64.671587 
4443.000000	64.673733 
4442.000000	64.694094 
4441.000000	64.730453 
4440.000000	64.778780 
4439.000000	64.834094 
4438.000000	64.890861 
4437.000000	64.944481 
4436.000000	64.991378 
4435.000000	65.030598 
4434.000000	65.062975 
4433.000000	65.091681 
4432.000000	65.121388 
4431.000000	65.156722 
4430.000000	65.201520 
4429.000000	65.256690 
4428.000000	65.320396 
4427.000000	65.387105 
4426.000000	65.449023 
4425.000000	65.497636 
4424.000000	65.526056 
4423.000000	65.531086 
4422.000000	65.514540 
4421.000000	65.482473 
4420.000000	65.443897 
4419.000000	65.408015 
4418.000000	65.381908 
4417.000000	65.368556 
4416.000000	65.366387 
4415.000000	65.369701 
4414.000000	65.370917 
4413.000000	65.362524 
4412.000000	65.339851 
4411.000000	65.303206 
4410.000000	65.257883 
4409.000000	65.212726 
4408.000000	65.177106 
4407.000000	65.159511 
4406.000000	65.163087 
4405.000000	65.183234 
4404.000000	65.208578 
4403.000000	65.224075 
4402.000000	65.215492 
4401.000000	65.172719 
4400.000000	65.094518 
4399.000000	64.990305 
4398.000000	64.876866 
4397.000000	64.774417 
4396.000000	64.700055 
4395.000000	64.661383 
4394.000000	64.657878 
4393.000000	64.682674 
4392.000000	64.722061 
4391.000000	64.759898 
4390.000000	64.781403 
4389.000000	64.777302 
4388.000000	64.748072 
4387.000000	64.704585 
4386.000000	64.664244 
4385.000000	64.648699 
4384.000000	64.675545 
4383.000000	64.756608 
4382.000000	64.900588 
4381.000000	65.109491 
4380.000000	65.373206 
4379.000000	65.675091 
4378.000000	65.992736 
4377.000000	66.306376 
4376.000000	66.602134 
4375.000000	66.874504 
4374.000000	67.131400 
4373.000000	67.378115 
4372.000000	67.626762 
4371.000000	67.862486 
4370.000000	68.043017 
4369.000000	68.100643 
4368.000000	67.956256 
4367.000000	67.553305 
4366.000000	66.878676 
4365.000000	65.991282 
4364.000000	65.019011 
4363.000000	64.137268 
4362.000000	63.526868 
4361.000000	63.323497 
4360.000000	63.574028 
4359.000000	64.210772 
4358.000000	65.058445 
4357.000000	65.868401 
4356.000000	66.381669 
4355.000000	66.387438 
4354.000000	65.789103 
4353.000000	64.621186 
4352.000000	63.060069 
4351.000000	61.374473 
4350.000000	59.874176 
4349.000000	58.828783 
4348.000000	58.415675 
4347.000000	58.683514 
4346.000000	59.550309 
4345.000000	60.832953 
4344.000000	62.298583 
4343.000000	63.727855 
4342.000000	64.955091 
4341.000000	65.893197 
4340.000000	66.532254 
4339.000000	66.912150 
4338.000000	67.098140 
4337.000000	67.143607 
4336.000000	67.087674 
4335.000000	66.946530 
4334.000000	66.733241 
4333.000000	66.465640 
4332.000000	66.170597 
4331.000000	65.884637 
4330.000000	65.648555 
4329.000000	65.498924 
4328.000000	65.456533 
4327.000000	65.522527 
4326.000000	65.678381 
4325.000000	65.889763 
4324.000000	66.116070 
4323.000000	66.317057 
4322.000000	66.460514 
4321.000000	66.527318 
4320.000000	66.511130 
4319.000000	66.419386 
4318.000000	66.270685 
4317.000000	66.087174 
4316.000000	65.886807 
4315.000000	65.683484 
4314.000000	65.487456 
4313.000000	65.305471 
4312.000000	65.145874 
4311.000000	65.012502 
4310.000000	64.904999 
4309.000000	64.822196 
4308.000000	64.763212 
4307.000000	64.723706 
4306.000000	64.696907 
4305.000000	64.674496 
4304.000000	64.648938 
4303.000000	64.614486 
4302.000000	64.569902 
4301.000000	64.517974 
4300.000000	64.466071 
4299.000000	64.424061 
4298.000000	64.402174 
4297.000000	64.406919 
4296.000000	64.440250 
4295.000000	64.497566 
4294.000000	64.570665 
4293.000000	64.649367 
4292.000000	64.724874 
4291.000000	64.790821 
4290.000000	64.846110 
4289.000000	64.894056 
4288.000000	64.941191 
4287.000000	64.994597 
4286.000000	65.059089 
4285.000000	65.134859 
4284.000000	65.217804 
4283.000000	65.300941 
4282.000000	65.374779 
4281.000000	65.429854 
4280.000000	65.459823 
4279.000000	65.463304 
4278.000000	65.443825 
4277.000000	65.408778 
4276.000000	65.368247 
4275.000000	65.331411 
4274.000000	65.304899 
4273.000000	65.289926 
4272.000000	65.283131 
4271.000000	65.276503 
4270.000000	65.260219 
4269.000000	65.224981 
4268.000000	65.164685 
4267.000000	65.078997 
4266.000000	64.973020 
4265.000000	64.858007 
4264.000000	64.747548 
4263.000000	64.656662 
4262.000000	64.597892 
4261.000000	64.579391 
4260.000000	64.602661 
4259.000000	64.663434 
4258.000000	64.752674 
4257.000000	64.857912 
4256.000000	64.965653 
4255.000000	65.063309 
4254.000000	65.141034 
4253.000000	65.192317 
4252.000000	65.214467 
4251.000000	65.208554 
4250.000000	65.178394 
4249.000000	65.130186 
4248.000000	65.070915 
4247.000000	65.007853 
4246.000000	64.947152 
4245.000000	64.894080 
4244.000000	64.851593 
4243.000000	64.820837 
4242.000000	64.800834 
4241.000000	64.789533 
4240.000000	64.784097 
4239.000000	64.781641 
4238.000000	64.779901 
4237.000000	64.777278 
4236.000000	64.773225 
4235.000000	64.767265 
4234.000000	64.759755 
4233.000000	64.750909 
4232.000000	64.741921 
4231.000000	64.734315 
4230.000000	64.730501 
4229.000000	64.733314 
4228.000000	64.745593 
4227.000000	64.769458 
4226.000000	64.805245 
4225.000000	64.851140 
4224.000000	64.903759 
4223.000000	64.958524 
4222.000000	65.010190 
4221.000000	65.053629 
4220.000000	65.085220 
4219.000000	65.102982 
4218.000000	65.106439 
4217.000000	65.096664 
4216.000000	65.076398 
4215.000000	65.049147 
4214.000000	65.018963 
4213.000000	64.989709 
4212.000000	64.965438 
4211.000000	64.948964 
4210.000000	64.942264 
4209.000000	64.945197 
4208.000000	64.955997 
4207.000000	64.970707 
4206.000000	64.984416 
4205.000000	64.991354 
4204.000000	64.985871 
4203.000000	64.964485 
4202.000000	64.926886 
4201.000000	64.876031 
4200.000000	64.817357 
4199.000000	64.758300 
4198.000000	64.706158 
4197.000000	64.665699 
4196.000000	64.637398 
4195.000000	64.617633 
4194.000000	64.598894 
4193.000000	64.571809 
4192.000000	64.527320 
4191.000000	64.459276 
4190.000000	64.365863 
4189.000000	64.250230 
4188.000000	64.119887 
4187.000000	63.984203 
4186.000000	63.853645 
4185.000000	63.736629 
4184.000000	63.640403 
4183.000000	63.568663 
4182.000000	63.524770 
4181.000000	63.511157 
4180.000000	63.531351 
4179.000000	63.588333 
4178.000000	63.684940 
4177.000000	63.821101 
4176.000000	63.993215 
4175.000000	64.192438 
4174.000000	64.405727 
4173.000000	64.616990 
4172.000000	64.810299 
4171.000000	64.972233 
4170.000000	65.094184 
4169.000000	65.173244 
4168.000000	65.212893 
4167.000000	65.220999 
4166.000000	65.207600 
4165.000000	65.181970 
4164.000000	65.152478 
4163.000000	65.123820 
4162.000000	65.098452 
4161.000000	65.075373 
4160.000000	65.053725 
4159.000000	65.031647 
