PE IR       SPECTRUM    SPECTRUM    ASCII       PEDS        1.60        
  -1
C-468B~1.ASC
17/03/28
00:40:25.00
17/03/28
00:40:25.00
tln
$C-4040-8_t0121$<tbV0>[-13.0,13.0,8.0,0.0,27,1,0]
370.000000
64









2002,4.07    
MIRTGS : RIGHTBACK : INTERNAL 2
MIR : ON : INTERNAL 2
OPTKBR

0.200000
8
8.000000
FILLER
RATIO
SPECTRUM
UNLOCKED 256

DOUBLE
64
COMBINED
1
0
0


1.000000
RATIO


1
0
TRUE
51149
0
LEFT NOT FITTED RIGHT NOT FITTED 0
NONE
NONE
15600
12.000000
4.427000
51148
TRUE
1 0 8 72 0 0 0 0 

15798.010000






#HDR
-1
-1
#GR
CM-1
%T
0.00002384185791015625
0.0
5000.000000
-1.000000
4631
8
84.163451
42.275786
#DATA
5000.000000	64.586448 
4999.000000	64.538788 
4998.000000	64.484262 
4997.000000	64.427280 
4996.000000	64.374542 
4995.000000	64.333438 
4994.000000	64.311218 
4993.000000	64.311766 
4992.000000	64.336872 
4991.000000	64.386081 
4990.000000	64.456582 
4989.000000	64.543223 
4988.000000	64.639878 
4987.000000	64.740085 
4986.000000	64.837193 
4985.000000	64.924573 
4984.000000	64.997196 
4983.000000	65.052199 
4982.000000	65.089273 
4981.000000	65.110349 
4980.000000	65.118694 
4979.000000	65.117502 
4978.000000	65.109753 
4977.000000	65.096879 
4976.000000	65.079021 
4975.000000	65.054678 
4974.000000	65.023064 
4973.000000	64.982938 
4972.000000	64.934134 
4971.000000	64.876341 
4970.000000	64.810919 
4969.000000	64.738678 
4968.000000	64.659690 
4967.000000	64.573073 
4966.000000	64.477920 
4965.000000	64.373207 
4964.000000	64.258360 
4963.000000	64.134621 
4962.000000	64.005780 
4961.000000	63.878154 
4960.000000	63.759517 
4959.000000	63.658809 
4958.000000	63.583922 
4957.000000	63.541817 
4956.000000	63.536858 
4955.000000	63.569927 
4954.000000	63.637995 
4953.000000	63.734817 
4952.000000	63.851690 
4951.000000	63.977646 
4950.000000	64.101672 
4949.000000	64.213895 
4948.000000	64.307856 
4947.000000	64.380168 
4946.000000	64.431953 
4945.000000	64.467597 
4944.000000	64.494538 
4943.000000	64.521145 
4942.000000	64.555311 
4941.000000	64.603233 
4940.000000	64.667940 
4939.000000	64.749836 
4938.000000	64.845991 
4937.000000	64.951038 
4936.000000	65.058088 
4935.000000	65.160894 
4934.000000	65.253353 
4933.000000	65.330624 
4932.000000	65.389585 
4931.000000	65.429520 
4930.000000	65.450429 
4929.000000	65.452623 
4928.000000	65.437555 
4927.000000	65.407490 
4926.000000	65.364742 
4925.000000	65.311455 
4924.000000	65.250110 
4923.000000	65.182614 
4922.000000	65.111756 
4921.000000	65.040016 
4920.000000	64.968967 
4919.000000	64.899539 
4918.000000	64.832878 
4917.000000	64.770388 
4916.000000	64.712715 
4915.000000	64.661169 
4914.000000	64.617252 
4913.000000	64.583063 
4912.000000	64.559888 
4911.000000	64.549112 
4910.000000	64.550304 
4909.000000	64.563155 
4908.000000	64.585876 
4907.000000	64.618420 
4906.000000	64.661693 
4905.000000	64.718556 
4904.000000	64.792203 
4903.000000	64.885878 
4902.000000	65.000605 
4901.000000	65.133190 
4900.000000	65.274691 
4899.000000	65.410780 
4898.000000	65.522909 
4897.000000	65.592026 
4896.000000	65.602278 
4895.000000	65.545082 
4894.000000	65.421628 
4893.000000	65.244150 
4892.000000	65.034151 
4891.000000	64.818239 
4890.000000	64.623832 
4889.000000	64.474201 
4888.000000	64.384794 
4887.000000	64.361906 
4886.000000	64.402008 
4885.000000	64.494180 
4884.000000	64.622187 
4883.000000	64.767813 
4882.000000	64.913702 
4881.000000	65.044736 
4880.000000	65.150117 
4879.000000	65.222883 
4878.000000	65.260815 
4877.000000	65.265274 
4876.000000	65.241193 
4875.000000	65.195965 
4874.000000	65.138673 
4873.000000	65.078639 
4872.000000	65.024256 
4871.000000	64.981484 
4870.000000	64.953398 
4869.000000	64.939594 
4868.000000	64.937281 
4867.000000	64.941477 
4866.000000	64.946746 
4865.000000	64.947533 
4864.000000	64.939570 
4863.000000	64.920091 
4862.000000	64.887547 
4861.000000	64.842414 
4860.000000	64.785790 
4859.000000	64.720988 
4858.000000	64.652895 
4857.000000	64.588236 
4856.000000	64.534330 
4855.000000	64.498424 
4854.000000	64.486622 
4853.000000	64.502072 
4852.000000	64.544248 
4851.000000	64.607787 
4850.000000	64.683151 
4849.000000	64.758729 
4848.000000	64.823341 
4847.000000	64.868474 
4846.000000	64.889979 
4845.000000	64.889144 
4844.000000	64.871716 
4843.000000	64.846539 
4842.000000	64.822435 
4841.000000	64.805865 
4840.000000	64.798521 
4839.000000	64.797997 
4838.000000	64.797973 
4837.000000	64.791059 
4836.000000	64.770913 
4835.000000	64.734911 
4834.000000	64.685106 
4833.000000	64.627552 
4832.000000	64.571356 
4831.000000	64.525747 
4830.000000	64.497995 
4829.000000	64.491128 
4828.000000	64.503788 
4827.000000	64.530467 
4826.000000	64.563298 
4825.000000	64.594292 
4824.000000	64.617395 
4823.000000	64.629960 
4822.000000	64.633226 
4821.000000	64.631557 
4820.000000	64.631032 
4819.000000	64.637374 
4818.000000	64.654588 
4817.000000	64.683270 
4816.000000	64.720916 
4815.000000	64.761686 
4814.000000	64.798164 
4813.000000	64.822769 
4812.000000	64.829540 
4811.000000	64.815831 
4810.000000	64.783120 
4809.000000	64.737105 
4808.000000	64.686322 
4807.000000	64.640474 
4806.000000	64.608526 
4805.000000	64.596080 
4804.000000	64.604496 
4803.000000	64.630174 
4802.000000	64.666175 
4801.000000	64.703130 
4800.000000	64.731907 
4799.000000	64.745545 
4798.000000	64.740729 
4797.000000	64.718770 
4796.000000	64.684677 
4795.000000	64.646673 
4794.000000	64.613771 
4793.000000	64.594244 
4792.000000	64.593625 
4791.000000	64.613747 
4790.000000	64.652085 
4789.000000	64.703011 
4788.000000	64.758443 
4787.000000	64.810013 
4786.000000	64.850211 
4785.000000	64.873743 
4784.000000	64.878034 
4783.000000	64.863014 
4782.000000	64.830660 
4781.000000	64.784407 
4780.000000	64.727950 
4779.000000	64.664888 
4778.000000	64.598011 
4777.000000	64.530205 
4776.000000	64.463520 
4775.000000	64.399862 
4774.000000	64.341235 
4773.000000	64.289665 
4772.000000	64.247751 
4771.000000	64.217591 
4770.000000	64.201402 
4769.000000	64.200639 
4768.000000	64.216637 
4767.000000	64.249706 
4766.000000	64.298844 
4765.000000	64.361310 
4764.000000	64.432191 
4763.000000	64.505028 
4762.000000	64.571905 
4761.000000	64.625191 
4760.000000	64.659118 
4759.000000	64.671325 
4758.000000	64.663505 
4757.000000	64.641475 
4756.000000	64.613986 
4755.000000	64.590907 
4754.000000	64.580845 
4753.000000	64.589190 
4752.000000	64.617323 
4751.000000	64.662265 
4750.000000	64.718127 
4749.000000	64.777278 
4748.000000	64.832186 
4747.000000	64.877343 
4746.000000	64.910340 
4745.000000	64.931893 
4744.000000	64.944887 
4743.000000	64.953207 
4742.000000	64.960074 
4741.000000	64.966654 
4740.000000	64.971375 
4739.000000	64.970517 
4738.000000	64.959216 
4737.000000	64.933300 
4736.000000	64.890527 
4735.000000	64.831590 
4734.000000	64.760088 
4733.000000	64.682173 
4732.000000	64.605188 
4731.000000	64.535689 
4730.000000	64.478564 
4729.000000	64.436101 
4728.000000	64.408278 
4727.000000	64.393401 
4726.000000	64.389061 
4725.000000	64.393258 
4724.000000	64.404821 
4723.000000	64.423274 
4722.000000	64.447903 
4721.000000	64.476799 
4720.000000	64.506578 
4719.000000	64.531993 
4718.000000	64.547801 
4717.000000	64.549875 
4716.000000	64.536714 
4715.000000	64.509844 
4714.000000	64.473772 
4713.000000	64.434933 
4712.000000	64.399528 
4711.000000	64.372229 
4710.000000	64.355111 
4709.000000	64.347672 
4708.000000	64.347290 
4707.000000	64.350724 
4706.000000	64.355516 
4705.000000	64.361166 
4704.000000	64.369225 
4703.000000	64.383006 
4702.000000	64.405560 
4701.000000	64.439105 
4700.000000	64.483594 
4699.000000	64.536762 
4698.000000	64.593887 
4697.000000	64.649152 
4696.000000	64.697432 
4695.000000	64.734411 
4694.000000	64.757442 
4693.000000	64.765572 
4692.000000	64.759707 
4691.000000	64.741992 
4690.000000	64.715433 
4689.000000	64.682984 
4688.000000	64.647579 
4687.000000	64.610886 
4686.000000	64.573621 
4685.000000	64.535021 
4684.000000	64.493751 
4683.000000	64.448285 
4682.000000	64.398241 
4681.000000	64.344620 
4680.000000	64.290618 
4679.000000	64.241194 
4678.000000	64.202594 
4677.000000	64.180564 
4676.000000	64.179611 
4675.000000	64.200711 
4674.000000	64.242005 
4673.000000	64.297819 
4672.000000	64.361000 
4671.000000	64.424061 
4670.000000	64.481520 
4669.000000	64.530253 
4668.000000	64.570450 
4667.000000	64.604473 
4666.000000	64.635634 
4665.000000	64.666485 
4664.000000	64.697885 
4663.000000	64.728617 
4662.000000	64.755702 
4661.000000	64.775562 
4660.000000	64.785003 
4659.000000	64.782452 
4658.000000	64.768338 
4657.000000	64.745235 
4656.000000	64.716339 
4655.000000	64.685010 
4654.000000	64.653587 
4653.000000	64.623570 
4652.000000	64.596176 
4651.000000	64.572644 
4650.000000	64.554858 
4649.000000	64.545154 
4648.000000	64.545917 
4647.000000	64.558959 
4646.000000	64.583969 
4645.000000	64.619016 
4644.000000	64.659929 
4643.000000	64.701604 
4642.000000	64.738821 
4641.000000	64.767384 
4640.000000	64.784741 
4639.000000	64.790534 
4638.000000	64.786553 
4637.000000	64.775967 
4636.000000	64.762449 
4635.000000	64.749455 
4634.000000	64.739847 
4633.000000	64.735317 
4632.000000	64.736342 
4631.000000	64.742255 
4630.000000	64.751076 
4629.000000	64.759540 
4628.000000	64.763092 
4627.000000	64.756441 
4626.000000	64.734411 
4625.000000	64.693260 
4624.000000	64.631772 
4623.000000	64.552116 
4622.000000	64.460134 
4621.000000	64.363861 
4620.000000	64.273333 
4619.000000	64.197683 
4618.000000	64.145255 
4617.000000	64.121389 
4616.000000	64.129161 
4615.000000	64.168167 
4614.000000	64.236426 
4613.000000	64.329791 
4612.000000	64.443373 
4611.000000	64.571189 
4610.000000	64.706754 
4609.000000	64.842557 
4608.000000	64.970660 
4607.000000	65.082859 
4606.000000	65.171456 
4605.000000	65.230131 
4604.000000	65.255379 
4603.000000	65.247011 
4602.000000	65.208554 
4601.000000	65.146374 
4600.000000	65.069341 
4599.000000	64.986944 
4598.000000	64.908552 
4597.000000	64.841485 
4596.000000	64.790773 
4595.000000	64.758276 
4594.000000	64.742898 
4593.000000	64.741349 
4592.000000	64.748907 
4591.000000	64.761567 
4590.000000	64.776062 
4589.000000	64.791798 
4588.000000	64.810013 
4587.000000	64.833950 
4586.000000	64.866709 
4585.000000	64.911127 
4584.000000	64.968276 
4583.000000	65.037178 
4582.000000	65.114736 
4581.000000	65.195870 
4580.000000	65.274381 
4579.000000	65.343618 
4578.000000	65.397667 
4577.000000	65.431523 
4576.000000	65.441846 
4575.000000	65.427660 
4574.000000	65.390586 
4573.000000	65.334653 
4572.000000	65.265941 
4571.000000	65.192365 
4570.000000	65.122079 
4569.000000	65.062808 
4568.000000	65.020203 
4567.000000	64.996790 
4566.000000	64.992260 
4565.000000	65.003013 
4564.000000	65.024995 
4563.000000	65.054106 
4562.000000	65.088701 
4561.000000	65.128755 
4560.000000	65.176367 
4559.000000	65.234041 
4558.000000	65.303468 
4557.000000	65.383434 
4556.000000	65.469956 
4555.000000	65.556502 
4554.000000	65.635180 
4553.000000	65.698671 
4552.000000	65.742039 
4551.000000	65.763974 
4550.000000	65.766668 
4549.000000	65.754890 
4548.000000	65.735030 
4547.000000	65.712952 
4546.000000	65.692925 
4545.000000	65.676426 
4544.000000	65.662932 
4543.000000	65.649533 
4542.000000	65.633416 
4541.000000	65.611338 
4540.000000	65.580868 
4539.000000	65.540456 
4538.000000	65.489435 
4537.000000	65.428900 
4536.000000	65.360832 
4535.000000	65.289497 
4534.000000	65.220093 
4533.000000	65.159344 
4532.000000	65.114283 
4531.000000	65.090823 
4530.000000	65.092349 
4529.000000	65.118193 
4528.000000	65.163564 
4527.000000	65.219569 
4526.000000	65.274810 
4525.000000	65.318179 
4524.000000	65.341258 
4523.000000	65.340256 
4522.000000	65.316891 
4521.000000	65.278291 
4520.000000	65.235090 
4519.000000	65.198373 
4518.000000	65.176892 
4517.000000	65.175604 
4516.000000	65.194344 
4515.000000	65.228772 
4514.000000	65.271019 
4513.000000	65.311980 
4512.000000	65.343189 
4511.000000	65.359115 
4510.000000	65.357947 
4509.000000	65.340662 
4508.000000	65.311694 
4507.000000	65.276694 
4506.000000	65.242457 
4505.000000	65.214681 
4504.000000	65.198135 
4503.000000	65.195989 
4502.000000	65.210318 
4501.000000	65.242123 
4500.000000	65.291118 
4499.000000	65.355420 
4498.000000	65.430307 
4497.000000	65.508270 
4496.000000	65.579223 
4495.000000	65.631771 
4494.000000	65.654945 
4493.000000	65.640640 
4492.000000	65.585994 
4491.000000	65.494871 
4490.000000	65.376710 
4489.000000	65.246248 
4488.000000	65.120720 
4487.000000	65.017890 
4486.000000	64.953303 
4485.000000	64.937257 
4484.000000	64.974045 
4483.000000	65.059757 
4482.000000	65.183520 
4481.000000	65.327835 
4480.000000	65.471649 
4479.000000	65.593838 
4478.000000	65.676569 
4477.000000	65.708804 
4476.000000	65.687632 
4475.000000	65.618729 
4474.000000	65.514349 
4473.000000	65.391826 
4472.000000	65.270113 
4471.000000	65.167522 
4470.000000	65.099334 
4469.000000	65.076375 
4468.000000	65.103769 
4467.000000	65.181422 
4466.000000	65.303730 
4465.000000	65.460753 
4464.000000	65.638899 
4463.000000	65.821480 
4462.000000	65.991210 
4461.000000	66.131329 
4460.000000	66.228866 
4459.000000	66.276478 
4458.000000	66.274046 
4457.000000	66.229605 
4456.000000	66.156625 
4455.000000	66.071105 
4454.000000	65.988779 
4453.000000	65.922474 
4452.000000	65.880680 
4451.000000	65.868592 
4450.000000	65.886545 
4449.000000	65.932369 
4448.000000	65.999341 
4447.000000	66.077947 
4446.000000	66.155147 
4445.000000	66.215634 
4444.000000	66.249155 
4443.000000	66.253113 
4442.000000	66.232514 
4441.000000	66.198301 
4440.000000	66.165566 
4439.000000	66.149568 
4438.000000	66.156387 
4437.000000	66.183972 
4436.000000	66.229486 
4435.000000	66.287875 
4434.000000	66.354966 
4433.000000	66.425800 
4432.000000	66.495823 
4431.000000	66.559839 
4430.000000	66.605877 
4429.000000	66.624236 
4428.000000	66.615772 
4427.000000	66.586494 
4426.000000	66.543626 
4425.000000	66.496706 
4424.000000	66.458344 
4423.000000	66.435360 
4422.000000	66.430950 
4421.000000	66.433620 
4420.000000	66.418457 
4419.000000	66.355609 
4418.000000	66.219139 
4417.000000	65.991139 
4416.000000	65.664577 
4415.000000	65.245103 
4414.000000	64.746499 
4413.000000	64.163422 
4412.000000	63.479280 
4411.000000	62.668824 
4410.000000	61.721467 
4409.000000	60.670304 
4408.000000	59.585070 
4407.000000	58.594942 
4406.000000	57.818222 
4405.000000	57.325339 
4404.000000	57.097220 
4403.000000	57.001686 
4402.000000	56.844258 
4401.000000	56.407856 
4400.000000	55.542635 
4399.000000	54.213738 
4398.000000	52.536034 
4397.000000	50.741839 
4396.000000	49.143695 
4395.000000	48.034620 
4394.000000	47.646260 
4393.000000	48.081016 
4392.000000	49.303245 
4391.000000	51.147532 
4390.000000	53.358817 
4389.000000	55.652451 
4388.000000	57.771277 
4387.000000	59.538269 
4386.000000	60.886931 
4385.000000	61.858105 
4384.000000	62.571859 
4383.000000	63.176250 
4382.000000	63.789653 
4381.000000	64.465022 
4380.000000	65.188670 
4379.000000	65.884590 
4378.000000	66.469216 
4377.000000	66.863560 
4376.000000	67.060899 
4375.000000	67.091846 
4374.000000	67.020106 
4373.000000	66.912913 
4372.000000	66.813468 
4371.000000	66.736388 
4370.000000	66.667127 
4369.000000	66.576051 
4368.000000	66.446733 
4367.000000	66.269540 
4366.000000	66.054010 
4365.000000	65.818214 
4364.000000	65.584039 
4363.000000	65.370464 
4362.000000	65.188121 
4361.000000	65.041780 
4360.000000	64.930105 
4359.000000	64.851284 
4358.000000	64.804792 
4357.000000	64.782547 
4356.000000	64.774560 
4355.000000	64.778709 
4354.000000	64.797902 
4353.000000	64.831352 
4352.000000	64.877581 
4351.000000	64.933681 
4350.000000	64.995574 
4349.000000	65.056109 
4348.000000	65.108609 
4347.000000	65.150117 
4346.000000	65.180134 
4345.000000	65.199136 
4344.000000	65.209531 
4343.000000	65.215420 
4342.000000	65.220832 
4341.000000	65.229296 
4340.000000	65.242552 
4339.000000	65.260243 
4338.000000	65.281081 
4337.000000	65.303945 
4336.000000	65.328788 
4335.000000	65.356945 
4334.000000	65.391564 
4333.000000	65.436649 
4332.000000	65.494489 
4331.000000	65.564560 
4330.000000	65.643382 
4329.000000	65.724802 
4328.000000	65.800952 
4327.000000	65.864205 
4326.000000	65.909457 
4325.000000	65.934848 
4324.000000	65.942573 
4323.000000	65.937399 
4322.000000	65.925741 
4321.000000	65.913200 
4320.000000	65.903997 
4319.000000	65.899205 
4318.000000	65.897703 
4317.000000	65.895605 
4316.000000	65.888571 
4315.000000	65.872025 
4314.000000	65.842962 
4313.000000	65.800738 
4312.000000	65.747547 
4311.000000	65.687918 
4310.000000	65.627479 
4309.000000	65.572071 
4308.000000	65.526413 
4307.000000	65.493321 
4306.000000	65.473055 
4305.000000	65.464186 
4304.000000	65.463876 
4303.000000	65.468001 
4302.000000	65.472221 
4301.000000	65.472388 
4300.000000	65.465664 
4299.000000	65.449452 
4298.000000	65.423274 
4297.000000	65.388774 
4296.000000	65.349984 
4295.000000	65.312266 
4294.000000	65.281558 
4293.000000	65.263462 
4292.000000	65.261244 
4291.000000	65.275335 
4290.000000	65.302515 
4289.000000	65.336465 
4288.000000	65.369176 
4287.000000	65.392732 
4286.000000	65.401434 
4285.000000	65.392923 
4284.000000	65.368819 
4283.000000	65.334057 
4282.000000	65.295195 
4281.000000	65.258407 
4280.000000	65.227913 
4279.000000	65.204811 
4278.000000	65.186834 
4277.000000	65.169000 
4276.000000	65.145969 
4275.000000	65.113186 
4274.000000	65.068316 
4273.000000	65.011739 
4272.000000	64.946293 
4271.000000	64.877367 
4270.000000	64.810800 
4269.000000	64.752793 
4268.000000	64.707994 
4267.000000	64.679408 
4266.000000	64.667916 
4265.000000	64.672446 
4264.000000	64.690494 
4263.000000	64.717984 
4262.000000	64.749312 
4261.000000	64.778518 
4260.000000	64.799952 
4259.000000	64.809608 
4258.000000	64.805483 
4257.000000	64.788651 
4256.000000	64.762902 
4255.000000	64.734292 
4254.000000	64.709949 
4253.000000	64.696288 
4252.000000	64.697670 
4251.000000	64.715671 
4250.000000	64.748525 
4249.000000	64.792084 
4248.000000	64.840459 
4247.000000	64.887189 
4246.000000	64.926648 
4245.000000	64.954781 
4244.000000	64.970088 
4243.000000	64.972591 
4242.000000	64.964962 
4241.000000	64.951014 
4240.000000	64.936590 
4239.000000	64.927816 
4238.000000	64.931178 
4237.000000	64.952707 
4236.000000	64.996218 
4235.000000	65.062952 
4234.000000	65.149879 
4233.000000	65.250062 
4232.000000	65.353155 
4231.000000	65.447306 
4230.000000	65.520977 
4229.000000	65.565109 
4228.000000	65.574908 
4227.000000	65.550732 
4226.000000	65.497636 
4225.000000	65.424203 
4224.000000	65.341186 
4223.000000	65.259671 
4222.000000	65.188360 
4221.000000	65.132808 
4220.000000	65.096378 
4219.000000	65.080094 
4218.000000	65.082716 
4217.000000	65.101909 
4216.000000	65.135526 
4215.000000	65.181088 
4214.000000	65.235614 
4213.000000	65.294837 
4212.000000	65.352559 
4211.000000	65.401244 
4210.000000	65.433263 
4209.000000	65.441870 
4208.000000	65.421962 
4207.000000	65.372419 
4206.000000	65.296983 
4205.000000	65.203905 
4204.000000	65.104985 
4203.000000	65.012669 
4202.000000	64.937520 
4201.000000	64.885377 
4200.000000	64.855766 
4199.000000	64.840984 
4198.000000	64.827656 
4197.000000	64.798569 
4196.000000	64.736652 
4195.000000	64.628195 
4194.000000	64.467120 
4193.000000	64.255285 
4192.000000	64.005041 
4191.000000	63.735699 
4190.000000	63.473510 
4189.000000	63.245224 
4188.000000	63.077044 
4187.000000	62.988567 
4186.000000	62.992048 
4185.000000	63.090467 
4184.000000	63.276720 
4183.000000	63.534116 
4182.000000	63.837790 
4181.000000	64.156866 
4180.000000	64.458441 
4179.000000	64.710783 
4178.000000	64.889502 
4177.000000	64.980125 
4176.000000	64.981722 
4175.000000	64.906239 
4174.000000	64.776134 
4173.000000	64.619636 
4172.000000	64.466094 
4171.000000	64.340424 
4170.000000	64.259362 
4169.000000	64.229035 
4168.000000	64.246630 
4167.000000	64.301800 
4166.000000	64.379835 
4165.000000	64.465379 
4164.000000	64.545321 
4163.000000	64.611506 
4162.000000	64.659476 
4161.000000	64.689946 
4160.000000	64.706277 
4159.000000	64.713811 
