PE IR       SPECTRUM    SPECTRUM    ASCII       PEDS        1.60        
  -1
C-1AEE~1.ASC
17/03/27
15:40:46.00
17/03/27
15:40:46.00
tln
$C-4040-8_t0015$<tbV0>[5.2,-10.4,8.0,0.0,27,1,0]
370.000000
64









2002,4.07    
MIRTGS : RIGHTBACK : INTERNAL 2
MIR : ON : INTERNAL 2
OPTKBR

0.200000
8
8.000000
FILLER
RATIO
SPECTRUM
UNLOCKED 256

DOUBLE
64
COMBINED
1
0
0


1.000000
RATIO


1
0
TRUE
51149
0
LEFT NOT FITTED RIGHT NOT FITTED 0
NONE
NONE
15600
12.000000
4.427000
51148
TRUE
1 0 8 72 0 0 0 0 

15798.010000






#HDR
-1
-1
#GR
CM-1
%T
0.00002384185791015625
0.0
5000.000000
-1.000000
4631
8
79.162263
0.604295
#DATA
5000.000000	63.292527 
4999.000000	63.274407 
4998.000000	63.287210 
4997.000000	63.336229 
4996.000000	63.422465 
4995.000000	63.542723 
4994.000000	63.688683 
4993.000000	63.847875 
4992.000000	64.004874 
4991.000000	64.144110 
4990.000000	64.251136 
4989.000000	64.315223 
4988.000000	64.330363 
4987.000000	64.296030 
4986.000000	64.217257 
4985.000000	64.103937 
4984.000000	63.968253 
4983.000000	63.822746 
4982.000000	63.678431 
4981.000000	63.543367 
4980.000000	63.421750 
4979.000000	63.315057 
4978.000000	63.222241 
4977.000000	63.142561 
4976.000000	63.078141 
4975.000000	63.033890 
4974.000000	63.015794 
4973.000000	63.028430 
4972.000000	63.072252 
4971.000000	63.141202 
4970.000000	63.221669 
4969.000000	63.295149 
4968.000000	63.340544 
4967.000000	63.341188 
4966.000000	63.288831 
4965.000000	63.187146 
4964.000000	63.051033 
4963.000000	62.904191 
4962.000000	62.773537 
4961.000000	62.682795 
4960.000000	62.647199 
4959.000000	62.669682 
4958.000000	62.740540 
4957.000000	62.841534 
4956.000000	62.950587 
4955.000000	63.046884 
4954.000000	63.114690 
4953.000000	63.143515 
4952.000000	63.128519 
4951.000000	63.068604 
4950.000000	62.966394 
4949.000000	62.825703 
4948.000000	62.653374 
4947.000000	62.460303 
4946.000000	62.261986 
4945.000000	62.077140 
4944.000000	61.926817 
4943.000000	61.831021 
4942.000000	61.806583 
4941.000000	61.862897 
4940.000000	62.000536 
4939.000000	62.209701 
4938.000000	62.471103 
4937.000000	62.758135 
4936.000000	63.040566 
4935.000000	63.288927 
4934.000000	63.478326 
4933.000000	63.591551 
4932.000000	63.622069 
4931.000000	63.574171 
4930.000000	63.462305 
4929.000000	63.308167 
4928.000000	63.137984 
4927.000000	62.977910 
4926.000000	62.850284 
4925.000000	62.770318 
4924.000000	62.744092 
4923.000000	62.769269 
4922.000000	62.836980 
4921.000000	62.934970 
4920.000000	63.049769 
4919.000000	63.170361 
4918.000000	63.287854 
4917.000000	63.397741 
4916.000000	63.497829 
4915.000000	63.588595 
4914.000000	63.669919 
4913.000000	63.742327 
4912.000000	63.806343 
4911.000000	63.862729 
4910.000000	63.913702 
4909.000000	63.961505 
4908.000000	64.009547 
4907.000000	64.059114 
4906.000000	64.110040 
4905.000000	64.157962 
4904.000000	64.195299 
4903.000000	64.213323 
4902.000000	64.204812 
4901.000000	64.165401 
4900.000000	64.095330 
4899.000000	63.999676 
4898.000000	63.887596 
4897.000000	63.770222 
4896.000000	63.659143 
4895.000000	63.563704 
4894.000000	63.490819 
4893.000000	63.444447 
4892.000000	63.426160 
4891.000000	63.435602 
4890.000000	63.470864 
4889.000000	63.527798 
4888.000000	63.600683 
4887.000000	63.681936 
4886.000000	63.762879 
4885.000000	63.832831 
4884.000000	63.883113 
4883.000000	63.908123 
4882.000000	63.907098 
4881.000000	63.884115 
4880.000000	63.846945 
4879.000000	63.805437 
4878.000000	63.768076 
4877.000000	63.740158 
4876.000000	63.721942 
4875.000000	63.709330 
4874.000000	63.695502 
4873.000000	63.673591 
4872.000000	63.639473 
4871.000000	63.593554 
4870.000000	63.541269 
4869.000000	63.491821 
4868.000000	63.454961 
4867.000000	63.438558 
4866.000000	63.446140 
4865.000000	63.475966 
4864.000000	63.520908 
4863.000000	63.570570 
4862.000000	63.614392 
4861.000000	63.643479 
4860.000000	63.652849 
4859.000000	63.641881 
4858.000000	63.613414 
4857.000000	63.573503 
4856.000000	63.529372 
4855.000000	63.488340 
4854.000000	63.456106 
4853.000000	63.436365 
4852.000000	63.431167 
4851.000000	63.440179 
4850.000000	63.461589 
4849.000000	63.491892 
4848.000000	63.526892 
4847.000000	63.561940 
4846.000000	63.592982 
4845.000000	63.617444 
4844.000000	63.634896 
4843.000000	63.647365 
4842.000000	63.658499 
4841.000000	63.672590 
4840.000000	63.692426 
4839.000000	63.718914 
4838.000000	63.749480 
4837.000000	63.778638 
4836.000000	63.798928 
4835.000000	63.803124 
4834.000000	63.785719 
4833.000000	63.744759 
4832.000000	63.682222 
4831.000000	63.604235 
4830.000000	63.519501 
4829.000000	63.437509 
4828.000000	63.366413 
4827.000000	63.311839 
4826.000000	63.275718 
4825.000000	63.256168 
4824.000000	63.248610 
4823.000000	63.247489 
4822.000000	63.246703 
4821.000000	63.241243 
4820.000000	63.227772 
4819.000000	63.205385 
4818.000000	63.175320 
4817.000000	63.140892 
4816.000000	63.106465 
4815.000000	63.076686 
4814.000000	63.055801 
4813.000000	63.046526 
4812.000000	63.049483 
4811.000000	63.063192 
4810.000000	63.084626 
4809.000000	63.110089 
4808.000000	63.135361 
4807.000000	63.157796 
4806.000000	63.176465 
4805.000000	63.192796 
4804.000000	63.209533 
4803.000000	63.230609 
4802.000000	63.259482 
4801.000000	63.298511 
4800.000000	63.348150 
4799.000000	63.406777 
4798.000000	63.470959 
4797.000000	63.536739 
4796.000000	63.600540 
4795.000000	63.659691 
4794.000000	63.712573 
4793.000000	63.758850 
4792.000000	63.798904 
4791.000000	63.833093 
4790.000000	63.860988 
4789.000000	63.881564 
4788.000000	63.892912 
4787.000000	63.892912 
4786.000000	63.879203 
4785.000000	63.850808 
4784.000000	63.807654 
4783.000000	63.751029 
4782.000000	63.683485 
4781.000000	63.608646 
4780.000000	63.530874 
4779.000000	63.454890 
4778.000000	63.385391 
4777.000000	63.326692 
4776.000000	63.282227 
4775.000000	63.254308 
4774.000000	63.243508 
4773.000000	63.248157 
4772.000000	63.265061 
4771.000000	63.289904 
4770.000000	63.317966 
4769.000000	63.344621 
4768.000000	63.367033 
4767.000000	63.384318 
4766.000000	63.397645 
4765.000000	63.409256 
4764.000000	63.422417 
4763.000000	63.439941 
4762.000000	63.462996 
4761.000000	63.490629 
4760.000000	63.519883 
4759.000000	63.546586 
4758.000000	63.566350 
4757.000000	63.576149 
4756.000000	63.575339 
4755.000000	63.565993 
4754.000000	63.552856 
4753.000000	63.541579 
4752.000000	63.537764 
4751.000000	63.544654 
4750.000000	63.563036 
4749.000000	63.590025 
4748.000000	63.619995 
4747.000000	63.645839 
4746.000000	63.661241 
4745.000000	63.661503 
4744.000000	63.644433 
4743.000000	63.611102 
4742.000000	63.565468 
4741.000000	63.512825 
4740.000000	63.458442 
4739.000000	63.407015 
4738.000000	63.361620 
4737.000000	63.323807 
4736.000000	63.293600 
4735.000000	63.270211 
4734.000000	63.252496 
4733.000000	63.239169 
4732.000000	63.229179 
4731.000000	63.221406 
4730.000000	63.214993 
4729.000000	63.209080 
4728.000000	63.203263 
4727.000000	63.197064 
4726.000000	63.190770 
4725.000000	63.184976 
4724.000000	63.180923 
4723.000000	63.179516 
4722.000000	63.182020 
4721.000000	63.189196 
4720.000000	63.202118 
4719.000000	63.221168 
4718.000000	63.247442 
4717.000000	63.282108 
4716.000000	63.326525 
4715.000000	63.381528 
4714.000000	63.446974 
4713.000000	63.521599 
4712.000000	63.602113 
4711.000000	63.683509 
4710.000000	63.759779 
4709.000000	63.825035 
4708.000000	63.875031 
4707.000000	63.907670 
4706.000000	63.923597 
4705.000000	63.925242 
4704.000000	63.917398 
4703.000000	63.904571 
4702.000000	63.890790 
4701.000000	63.877654 
4700.000000	63.864898 
4699.000000	63.850259 
4698.000000	63.830971 
4697.000000	63.804054 
4696.000000	63.768386 
4695.000000	63.724303 
4694.000000	63.674259 
4693.000000	63.621735 
4692.000000	63.570523 
4691.000000	63.523316 
4690.000000	63.481259 
4689.000000	63.443470 
4688.000000	63.407659 
4687.000000	63.370609 
4686.000000	63.329792 
4685.000000	63.283753 
4684.000000	63.233447 
4683.000000	63.182711 
4682.000000	63.137936 
4681.000000	63.106060 
4680.000000	63.093566 
4679.000000	63.104796 
4678.000000	63.140749 
4677.000000	63.198041 
4676.000000	63.269281 
4675.000000	63.344740 
4674.000000	63.413763 
4673.000000	63.466787 
4672.000000	63.497304 
4671.000000	63.502407 
4670.000000	63.483738 
4669.000000	63.446545 
4668.000000	63.398957 
4667.000000	63.349890 
4666.000000	63.307857 
4665.000000	63.279891 
4664.000000	63.270163 
4663.000000	63.279891 
4662.000000	63.307404 
4661.000000	63.348770 
4660.000000	63.397765 
4659.000000	63.446950 
4658.000000	63.488602 
4657.000000	63.516259 
4656.000000	63.525199 
4655.000000	63.513588 
4654.000000	63.482761 
4653.000000	63.437104 
4652.000000	63.382840 
4651.000000	63.326954 
4650.000000	63.276100 
4649.000000	63.235425 
4648.000000	63.207888 
4647.000000	63.194012 
4646.000000	63.192629 
4645.000000	63.201069 
4644.000000	63.216757 
4643.000000	63.237047 
4642.000000	63.259243 
4641.000000	63.281393 
4640.000000	63.301634 
4639.000000	63.318800 
4638.000000	63.331365 
4637.000000	63.338971 
4636.000000	63.341975 
4635.000000	63.342285 
4634.000000	63.342881 
4633.000000	63.347101 
4632.000000	63.357663 
4631.000000	63.375902 
4630.000000	63.401317 
4629.000000	63.431811 
4628.000000	63.464140 
4627.000000	63.494849 
4626.000000	63.521146 
4625.000000	63.541817 
4624.000000	63.557219 
4623.000000	63.569092 
4622.000000	63.579511 
4621.000000	63.590145 
4620.000000	63.601040 
4619.000000	63.611030 
4618.000000	63.617324 
4617.000000	63.616108 
4616.000000	63.603591 
4615.000000	63.577628 
4614.000000	63.538169 
4613.000000	63.487601 
4612.000000	63.430666 
4611.000000	63.373470 
4610.000000	63.322591 
4609.000000	63.283634 
4608.000000	63.260269 
4607.000000	63.253641 
4606.000000	63.262033 
4605.000000	63.281226 
4604.000000	63.305139 
4603.000000	63.326978 
4602.000000	63.340926 
4601.000000	63.343286 
4600.000000	63.332509 
4599.000000	63.309669 
4598.000000	63.277959 
4597.000000	63.242101 
4596.000000	63.207125 
4595.000000	63.177585 
4594.000000	63.157200 
4593.000000	63.147997 
4592.000000	63.150453 
4591.000000	63.163161 
4590.000000	63.182950 
4589.000000	63.205909 
4588.000000	63.227748 
4587.000000	63.245320 
4586.000000	63.257098 
4585.000000	63.264060 
4584.000000	63.269066 
4583.000000	63.276267 
4582.000000	63.289618 
4581.000000	63.311076 
4580.000000	63.339972 
4579.000000	63.371467 
4578.000000	63.397622 
4577.000000	63.408946 
4576.000000	63.397145 
4575.000000	63.357520 
4574.000000	63.290834 
4573.000000	63.203644 
4572.000000	63.107442 
4571.000000	63.016009 
4570.000000	62.942671 
4569.000000	62.896943 
4568.000000	62.882852 
4567.000000	62.898588 
4566.000000	62.937617 
4565.000000	62.990546 
4564.000000	63.047647 
4563.000000	63.101172 
4562.000000	63.146305 
4561.000000	63.180875 
4560.000000	63.205194 
4559.000000	63.220095 
4558.000000	63.227105 
4557.000000	63.226699 
4556.000000	63.219976 
4555.000000	63.208794 
4554.000000	63.196229 
4553.000000	63.186669 
4552.000000	63.183641 
4551.000000	63.189148 
4550.000000	63.202023 
4549.000000	63.218092 
4548.000000	63.230586 
4547.000000	63.232016 
4546.000000	63.216733 
4545.000000	63.182449 
4544.000000	63.131570 
4543.000000	63.070249 
4542.000000	63.007140 
4541.000000	62.950205 
4540.000000	62.904214 
4539.000000	62.869644 
4538.000000	62.842488 
4537.000000	62.815928 
4536.000000	62.783098 
4535.000000	62.739181 
4534.000000	62.684106 
4533.000000	62.621808 
4532.000000	62.558984 
4531.000000	62.503290 
4530.000000	62.459874 
4529.000000	62.432050 
4528.000000	62.420344 
4527.000000	62.423706 
4526.000000	62.439918 
4525.000000	62.466740 
4524.000000	62.502241 
4523.000000	62.544298 
4522.000000	62.590336 
4521.000000	62.637114 
4520.000000	62.680697 
4519.000000	62.716627 
4518.000000	62.740445 
4517.000000	62.747955 
4516.000000	62.736487 
4515.000000	62.705659 
4514.000000	62.658452 
4513.000000	62.601161 
4512.000000	62.542867 
4511.000000	62.494850 
4510.000000	62.467384 
4509.000000	62.467336 
4508.000000	62.496423 
4507.000000	62.551569 
4506.000000	62.624216 
4505.000000	62.702655 
4504.000000	62.773656 
4503.000000	62.825441 
4502.000000	62.849235 
4501.000000	62.840652 
4500.000000	62.800192 
4499.000000	62.733054 
4498.000000	62.647318 
4497.000000	62.552499 
4496.000000	62.458348 
4495.000000	62.373304 
4494.000000	62.304234 
4493.000000	62.255716 
4492.000000	62.229847 
4491.000000	62.226533 
4490.000000	62.241864 
4489.000000	62.270951 
4488.000000	62.307167 
4487.000000	62.346744 
4486.000000	62.388873 
4485.000000	62.436890 
4484.000000	62.499237 
4483.000000	62.583279 
4482.000000	62.689232 
4481.000000	62.810516 
4480.000000	62.934684 
4479.000000	63.045144 
4478.000000	63.124108 
4477.000000	63.159704 
4476.000000	63.151121 
4475.000000	63.106751 
4474.000000	63.042759 
4473.000000	62.977337 
4472.000000	62.925434 
4471.000000	62.896895 
4470.000000	62.895011 
4469.000000	62.915110 
4468.000000	62.947249 
4467.000000	62.984681 
4466.000000	63.025736 
4465.000000	63.071441 
4464.000000	63.126206 
4463.000000	63.192844 
4462.000000	63.275742 
4461.000000	63.371515 
4460.000000	63.481116 
4459.000000	63.609099 
4458.000000	63.771080 
4457.000000	63.989400 
4456.000000	64.291143 
4455.000000	64.700603 
4454.000000	65.229344 
4453.000000	65.867996 
4452.000000	66.583371 
4451.000000	67.323732 
4450.000000	68.023252 
4449.000000	68.618106 
4448.000000	69.051313 
4447.000000	69.286990 
4446.000000	69.307398 
4445.000000	69.117712 
4444.000000	68.732094 
4443.000000	68.171334 
4442.000000	67.457604 
4441.000000	66.615629 
4440.000000	65.677165 
4439.000000	64.683222 
4438.000000	63.689589 
4437.000000	62.760019 
4436.000000	61.957812 
4435.000000	61.334991 
4434.000000	60.915541 
4433.000000	60.696983 
4432.000000	60.648274 
4431.000000	60.722398 
4430.000000	60.860848 
4429.000000	61.011695 
4428.000000	61.132931 
4427.000000	61.203622 
4426.000000	61.213636 
4425.000000	61.172318 
4424.000000	61.095809 
4423.000000	61.007642 
4422.000000	60.932326 
4421.000000	60.885834 
4420.000000	60.868430 
4419.000000	60.876083 
4418.000000	60.905909 
4417.000000	60.951161 
4416.000000	61.004114 
4415.000000	61.058807 
4414.000000	61.110973 
4413.000000	61.158561 
4412.000000	61.199641 
4411.000000	61.229300 
4410.000000	61.239957 
4409.000000	61.220574 
4408.000000	61.162090 
4407.000000	61.061978 
4406.000000	60.926175 
4405.000000	60.775160 
4404.000000	60.632610 
4403.000000	60.522341 
4402.000000	60.458159 
4401.000000	60.426497 
4400.000000	60.413217 
4399.000000	60.382652 
4398.000000	60.343766 
4397.000000	60.342431 
4396.000000	60.492968 
4395.000000	60.946583 
4394.000000	61.868929 
4393.000000	63.389444 
4392.000000	65.543150 
4391.000000	68.239235 
4390.000000	71.242642 
4389.000000	74.207353 
4388.000000	76.737403 
4387.000000	78.470373 
4386.000000	79.162263 
4385.000000	78.739595 
4384.000000	77.327442 
4383.000000	75.207376 
4382.000000	72.752928 
4381.000000	70.334291 
4380.000000	68.249607 
4379.000000	66.661620 
4378.000000	65.604996 
4377.000000	64.990043 
4376.000000	64.678907 
4375.000000	64.515829 
4374.000000	64.383339 
4373.000000	64.220690 
4372.000000	64.009618 
4371.000000	63.780975 
4370.000000	63.565707 
4369.000000	63.397264 
4368.000000	63.272976 
4367.000000	63.179373 
4366.000000	63.092803 
4365.000000	62.996244 
4364.000000	62.888550 
4363.000000	62.785220 
4362.000000	62.715530 
4361.000000	62.701654 
4360.000000	62.750124 
4359.000000	62.854361 
4358.000000	62.994122 
4357.000000	63.138723 
4356.000000	63.254666 
4355.000000	63.319945 
4354.000000	63.325095 
4353.000000	63.270664 
4352.000000	63.167881 
4351.000000	63.028788 
4350.000000	62.868165 
4349.000000	62.709259 
4348.000000	62.571883 
4347.000000	62.464642 
4346.000000	62.389111 
4345.000000	62.345290 
4344.000000	62.328338 
4343.000000	62.330746 
4342.000000	62.344408 
4341.000000	62.361550 
4340.000000	62.376475 
4339.000000	62.385153 
4338.000000	62.386655 
4337.000000	62.382173 
4336.000000	62.372612 
4335.000000	62.357330 
4334.000000	62.333679 
4333.000000	62.298083 
4332.000000	62.248134 
4331.000000	62.184619 
4330.000000	62.113690 
4329.000000	62.046051 
4328.000000	61.994767 
4327.000000	61.972165 
4326.000000	61.986279 
4325.000000	62.038755 
4324.000000	62.124276 
4323.000000	62.231206 
4322.000000	62.344694 
4321.000000	62.449145 
4320.000000	62.530851 
4319.000000	62.581324 
4318.000000	62.598395 
4317.000000	62.585997 
4316.000000	62.552261 
4315.000000	62.507605 
4314.000000	62.462377 
4313.000000	62.423920 
4312.000000	62.395620 
4311.000000	62.376546 
4310.000000	62.362790 
4309.000000	62.349247 
4308.000000	62.331962 
4307.000000	62.309098 
4306.000000	62.281966 
4305.000000	62.254238 
4304.000000	62.231326 
4303.000000	62.218093 
4302.000000	62.218141 
4301.000000	62.232565 
4300.000000	62.260437 
4299.000000	62.299418 
4298.000000	62.346935 
4297.000000	62.400746 
4296.000000	62.459588 
4295.000000	62.523365 
4294.000000	62.591624 
4293.000000	62.662768 
4292.000000	62.732911 
4291.000000	62.795972 
4290.000000	62.844395 
4289.000000	62.871050 
4288.000000	62.870311 
4287.000000	62.840437 
4286.000000	62.783384 
4285.000000	62.705445 
4284.000000	62.615442 
4283.000000	62.523341 
4282.000000	62.437868 
4281.000000	62.365245 
4280.000000	62.308430 
4279.000000	62.267351 
4278.000000	62.239885 
4277.000000	62.223267 
4276.000000	62.214779 
4275.000000	62.213158 
4274.000000	62.218499 
4273.000000	62.232708 
4272.000000	62.257146 
4271.000000	62.293267 
4270.000000	62.341046 
4269.000000	62.399482 
4268.000000	62.465953 
4267.000000	62.536621 
4266.000000	62.607383 
4265.000000	62.673592 
4264.000000	62.731361 
4263.000000	62.777304 
4262.000000	62.809419 
4261.000000	62.826752 
4260.000000	62.829995 
4259.000000	62.820887 
4258.000000	62.802267 
4257.000000	62.777495 
4256.000000	62.750339 
4255.000000	62.723851 
4254.000000	62.699866 
4253.000000	62.679052 
4252.000000	62.660861 
4251.000000	62.643098 
4250.000000	62.622308 
4249.000000	62.595295 
4248.000000	62.559556 
4247.000000	62.513494 
4246.000000	62.457442 
4245.000000	62.393307 
4244.000000	62.325048 
4243.000000	62.257814 
4242.000000	62.197899 
4241.000000	62.150883 
4240.000000	62.121605 
4239.000000	62.112760 
4238.000000	62.125062 
4237.000000	62.156152 
4236.000000	62.201929 
4235.000000	62.257003 
4234.000000	62.315773 
4233.000000	62.372589 
4232.000000	62.423467 
4231.000000	62.466335 
4230.000000	62.501096 
4229.000000	62.529063 
4228.000000	62.553095 
4227.000000	62.576723 
4226.000000	62.603569 
4225.000000	62.636375 
4224.000000	62.676262 
4223.000000	62.722158 
4222.000000	62.771439 
4221.000000	62.820124 
4220.000000	62.863874 
4219.000000	62.898826 
4218.000000	62.922644 
4217.000000	62.934780 
4216.000000	62.936568 
4215.000000	62.930536 
4214.000000	62.920165 
4213.000000	62.908625 
4212.000000	62.898731 
4211.000000	62.891793 
4210.000000	62.887835 
4209.000000	62.885308 
4208.000000	62.882113 
4207.000000	62.875556 
4206.000000	62.862920 
4205.000000	62.842369 
4204.000000	62.813472 
4203.000000	62.777400 
4202.000000	62.736606 
4201.000000	62.695360 
4200.000000	62.658524 
4199.000000	62.631106 
4198.000000	62.616991 
4197.000000	62.617659 
4196.000000	62.631773 
4195.000000	62.655305 
4194.000000	62.682485 
4193.000000	62.707448 
4192.000000	62.725377 
4191.000000	62.733888 
4190.000000	62.732529 
4189.000000	62.722730 
4188.000000	62.706184 
4187.000000	62.684202 
4186.000000	62.656164 
4185.000000	62.620234 
4184.000000	62.573003 
4183.000000	62.511730 
4182.000000	62.434601 
4181.000000	62.342190 
4180.000000	62.237882 
4179.000000	62.127637 
4178.000000	62.019968 
4177.000000	61.924123 
4176.000000	61.849546 
4175.000000	61.803865 
4174.000000	61.792874 
4173.000000	61.819100 
4172.000000	61.881899 
4171.000000	61.976957 
4170.000000	62.095999 
4169.000000	62.227845 
4168.000000	62.359166 
4167.000000	62.476897 
4166.000000	62.569832 
4165.000000	62.630987 
4164.000000	62.658882 
4163.000000	62.657403 
4162.000000	62.634921 
4161.000000	62.601828 
4160.000000	62.569046 
4159.000000	62.544703 
