PE IR       SPECTRUM    SPECTRUM    ASCII       PEDS        1.60        
  -1
C-4B09~1.ASC
17/03/28
00:17:19.00
17/03/28
00:17:19.00
tln
$C-4040-8_t0116$<tbV0>[0.0,13.0,8.0,0.0,27,1,0]
370.000000
64









2002,4.07    
MIRTGS : RIGHTBACK : INTERNAL 2
MIR : ON : INTERNAL 2
OPTKBR

0.200000
8
8.000000
FILLER
RATIO
SPECTRUM
UNLOCKED 256

DOUBLE
64
COMBINED
1
0
0


1.000000
RATIO


1
0
TRUE
51149
0
LEFT NOT FITTED RIGHT NOT FITTED 0
NONE
NONE
15600
12.000000
4.427000
51148
TRUE
1 0 8 72 0 0 0 0 

15798.010000






#HDR
-1
-1
#GR
CM-1
%T
0.00002384185791015625
0.0
5000.000000
-1.000000
4631
8
88.403820
32.772850
#DATA
5000.000000	64.556050 
4999.000000	64.495086 
4998.000000	64.430546 
4997.000000	64.368224 
4996.000000	64.315915 
4995.000000	64.279961 
4994.000000	64.265871 
4993.000000	64.275264 
4992.000000	64.308357 
4991.000000	64.363265 
4990.000000	64.438271 
4989.000000	64.531278 
4988.000000	64.640879 
4987.000000	64.765453 
4986.000000	64.902067 
4985.000000	65.045642 
4984.000000	65.188193 
4983.000000	65.319108 
4982.000000	65.426039 
4981.000000	65.496778 
4980.000000	65.521693 
4979.000000	65.495586 
4978.000000	65.419483 
4977.000000	65.300369 
4976.000000	65.150570 
4975.000000	64.985609 
4974.000000	64.822530 
4973.000000	64.677071 
4972.000000	64.562177 
4971.000000	64.485979 
4970.000000	64.452314 
4969.000000	64.459657 
4968.000000	64.501142 
4967.000000	64.566683 
4966.000000	64.643740 
4965.000000	64.720559 
4964.000000	64.786767 
4963.000000	64.836072 
4962.000000	64.866209 
4961.000000	64.878797 
4960.000000	64.877748 
4959.000000	64.867401 
4958.000000	64.850902 
4957.000000	64.828681 
4956.000000	64.798331 
4955.000000	64.755129 
4954.000000	64.693689 
4953.000000	64.609932 
4952.000000	64.502811 
4951.000000	64.375281 
4950.000000	64.234757 
4949.000000	64.091277 
4948.000000	63.957214 
4947.000000	63.843750 
4946.000000	63.761115 
4945.000000	63.715982 
4944.000000	63.712334 
4943.000000	63.750243 
4942.000000	63.827013 
4941.000000	63.936161 
4940.000000	64.069223 
4939.000000	64.215159 
4938.000000	64.363074 
4937.000000	64.502263 
4936.000000	64.624667 
4935.000000	64.724540 
4934.000000	64.800167 
4933.000000	64.853096 
4932.000000	64.887857 
4931.000000	64.910960 
4930.000000	64.928507 
4929.000000	64.944982 
4928.000000	64.963364 
4927.000000	64.984917 
4926.000000	65.009522 
4925.000000	65.036082 
4924.000000	65.063905 
4923.000000	65.092277 
4922.000000	65.120482 
4921.000000	65.147352 
4920.000000	65.170955 
4919.000000	65.188550 
4918.000000	65.197348 
4917.000000	65.194630 
4916.000000	65.179133 
4915.000000	65.150475 
4914.000000	65.110301 
4913.000000	65.061068 
4912.000000	65.004968 
4911.000000	64.945006 
4910.000000	64.884543 
4909.000000	64.828634 
4908.000000	64.782309 
4907.000000	64.754009 
4906.000000	64.753961 
4905.000000	64.792943 
4904.000000	64.879107 
4903.000000	65.014910 
4902.000000	65.194845 
4901.000000	65.403699 
4900.000000	65.618324 
4899.000000	65.811848 
4898.000000	65.958857 
4897.000000	66.041231 
4896.000000	66.051077 
4895.000000	65.992712 
4894.000000	65.879893 
4893.000000	65.734052 
4892.000000	65.576529 
4891.000000	65.425491 
4890.000000	65.290021 
4889.000000	65.171790 
4888.000000	65.063977 
4887.000000	64.956307 
4886.000000	64.838361 
4885.000000	64.704489 
4884.000000	64.556622 
4883.000000	64.403462 
4882.000000	64.260482 
4881.000000	64.144253 
4880.000000	64.070820 
4879.000000	64.050316 
4878.000000	64.084863 
4877.000000	64.166975 
4876.000000	64.280319 
4875.000000	64.403223 
4874.000000	64.511942 
4873.000000	64.586448 
4872.000000	64.615440 
4871.000000	64.599370 
4870.000000	64.549660 
4869.000000	64.486098 
4868.000000	64.431929 
4867.000000	64.407634 
4866.000000	64.425921 
4865.000000	64.488506 
4864.000000	64.586687 
4863.000000	64.703798 
4862.000000	64.821219 
4861.000000	64.922237 
4860.000000	64.996385 
4859.000000	65.041136 
4858.000000	65.062332 
4857.000000	65.069937 
4856.000000	65.073394 
4855.000000	65.078735 
4854.000000	65.086603 
4853.000000	65.092039 
4852.000000	65.086913 
4851.000000	65.062904 
4850.000000	65.015673 
4849.000000	64.944696 
4848.000000	64.854431 
4847.000000	64.752459 
4846.000000	64.648485 
4845.000000	64.552044 
4844.000000	64.471697 
4843.000000	64.413118 
4842.000000	64.379382 
4841.000000	64.371871 
4840.000000	64.390206 
4839.000000	64.431929 
4838.000000	64.493227 
4837.000000	64.568257 
4836.000000	64.650487 
4835.000000	64.732336 
4834.000000	64.807176 
4833.000000	64.869618 
4832.000000	64.916706 
4831.000000	64.947986 
4830.000000	64.965081 
4829.000000	64.971232 
4828.000000	64.969682 
4827.000000	64.962816 
4826.000000	64.952111 
4825.000000	64.938664 
4824.000000	64.923524 
4823.000000	64.908456 
4822.000000	64.895009 
4821.000000	64.884328 
4820.000000	64.876413 
4819.000000	64.869570 
4818.000000	64.859914 
4817.000000	64.842319 
4816.000000	64.811873 
4815.000000	64.765858 
4814.000000	64.704966 
4813.000000	64.634466 
4812.000000	64.563751 
4811.000000	64.504671 
4810.000000	64.468622 
4809.000000	64.463806 
4808.000000	64.492654 
4807.000000	64.551067 
4806.000000	64.628887 
4805.000000	64.712119 
4804.000000	64.786052 
4803.000000	64.838528 
4802.000000	64.862513 
4801.000000	64.857292 
4800.000000	64.827561 
4799.000000	64.782333 
4798.000000	64.732217 
4797.000000	64.687180 
4796.000000	64.654445 
4795.000000	64.637970 
4794.000000	64.638352 
4793.000000	64.654040 
4792.000000	64.682197 
4791.000000	64.719533 
4790.000000	64.762806 
4789.000000	64.808559 
4788.000000	64.853262 
4787.000000	64.892816 
4786.000000	64.923214 
4785.000000	64.940667 
4784.000000	64.943194 
4783.000000	64.931178 
4782.000000	64.907836 
4781.000000	64.879465 
4780.000000	64.853644 
4779.000000	64.837598 
4778.000000	64.836263 
4777.000000	64.851641 
4776.000000	64.881467 
4775.000000	64.919829 
4774.000000	64.958691 
4773.000000	64.989733 
4772.000000	65.006732 
4771.000000	65.007257 
4770.000000	64.992570 
4769.000000	64.967346 
4768.000000	64.937853 
4767.000000	64.910149 
4766.000000	64.888596 
4765.000000	64.874720 
4764.000000	64.867639 
4763.000000	64.864110 
4762.000000	64.860248 
4761.000000	64.852333 
4760.000000	64.837908 
4759.000000	64.816522 
4758.000000	64.788937 
4757.000000	64.758110 
4756.000000	64.728260 
4755.000000	64.705371 
4754.000000	64.695143 
4753.000000	64.702820 
4752.000000	64.732217 
4751.000000	64.784216 
4750.000000	64.856529 
4749.000000	64.943075 
4748.000000	65.034675 
4747.000000	65.120768 
4746.000000	65.191364 
4745.000000	65.239238 
4744.000000	65.261149 
4743.000000	65.258812 
4742.000000	65.238380 
4741.000000	65.207982 
4740.000000	65.175533 
4739.000000	65.146636 
4738.000000	65.123105 
4737.000000	65.103173 
4736.000000	65.082263 
4735.000000	65.055465 
4734.000000	65.019059 
4733.000000	64.972090 
4732.000000	64.916586 
4731.000000	64.857006 
4730.000000	64.799261 
4729.000000	64.748406 
4728.000000	64.708256 
4727.000000	64.679503 
4726.000000	64.661145 
4725.000000	64.651012 
4724.000000	64.647102 
4723.000000	64.648246 
4722.000000	64.654898 
4721.000000	64.668679 
4720.000000	64.691925 
4719.000000	64.725613 
4718.000000	64.769840 
4717.000000	64.822912 
4716.000000	64.881539 
4715.000000	64.941072 
4714.000000	64.996385 
4713.000000	65.042805 
4712.000000	65.076613 
4711.000000	65.096044 
4710.000000	65.100860 
4709.000000	65.092635 
4708.000000	65.074729 
4707.000000	65.051531 
4706.000000	65.027737 
4705.000000	65.006709 
4704.000000	64.991164 
4703.000000	64.981055 
4702.000000	64.974522 
4701.000000	64.967226 
4700.000000	64.954113 
4699.000000	64.930224 
4698.000000	64.892101 
4697.000000	64.839005 
4696.000000	64.773535 
4695.000000	64.701151 
4694.000000	64.628839 
4693.000000	64.564323 
4692.000000	64.513921 
4691.000000	64.482378 
4690.000000	64.471673 
4689.000000	64.481616 
4688.000000	64.510035 
4687.000000	64.553952 
4686.000000	64.610147 
4685.000000	64.675283 
4684.000000	64.746165 
4683.000000	64.819717 
4682.000000	64.893102 
4681.000000	64.962816 
4680.000000	65.024876 
4679.000000	65.075492 
4678.000000	65.110945 
4677.000000	65.128946 
4676.000000	65.128254 
4675.000000	65.109658 
4674.000000	65.075516 
4673.000000	65.030145 
4672.000000	64.979076 
4671.000000	64.928555 
4670.000000	64.884686 
4669.000000	64.852881 
4668.000000	64.837074 
4667.000000	64.839315 
4666.000000	64.859127 
4665.000000	64.893865 
4664.000000	64.938735 
4663.000000	64.987349 
4662.000000	65.032982 
4661.000000	65.069699 
4660.000000	65.093064 
4659.000000	65.100550 
4658.000000	65.092277 
4657.000000	65.070199 
4656.000000	65.037703 
4655.000000	64.998412 
4654.000000	64.955449 
4653.000000	64.910936 
4652.000000	64.866662 
4651.000000	64.824008 
4650.000000	64.784312 
4649.000000	64.749073 
4648.000000	64.720511 
4647.000000	64.700579 
4646.000000	64.690208 
4645.000000	64.689183 
4644.000000	64.695358 
4643.000000	64.705586 
4642.000000	64.715528 
4641.000000	64.721536 
4640.000000	64.720940 
4639.000000	64.713716 
4638.000000	64.702391 
4637.000000	64.691710 
4636.000000	64.687037 
4635.000000	64.693331 
4634.000000	64.713382 
4633.000000	64.747071 
4632.000000	64.791107 
4631.000000	64.839625 
4630.000000	64.885377 
4629.000000	64.921522 
4628.000000	64.942812 
4627.000000	64.946961 
4626.000000	64.934396 
4625.000000	64.908027 
4624.000000	64.871978 
4623.000000	64.830851 
4622.000000	64.788389 
4621.000000	64.746665 
4620.000000	64.706587 
4619.000000	64.668226 
4618.000000	64.632177 
4617.000000	64.599871 
4616.000000	64.574599 
4615.000000	64.560699 
4614.000000	64.563035 
4613.000000	64.585161 
4612.000000	64.628481 
4611.000000	64.690756 
4610.000000	64.766430 
4609.000000	64.846944 
4608.000000	64.922380 
4607.000000	64.983463 
4606.000000	65.023159 
4605.000000	65.037918 
4604.000000	65.028381 
4603.000000	64.999127 
4602.000000	64.957427 
4601.000000	64.911341 
4600.000000	64.868474 
4599.000000	64.834284 
4598.000000	64.811754 
4597.000000	64.800691 
4596.000000	64.799022 
4595.000000	64.802837 
4594.000000	64.807534 
4593.000000	64.809203 
4592.000000	64.804959 
4591.000000	64.794421 
4590.000000	64.779019 
4589.000000	64.762449 
4588.000000	64.749360 
4587.000000	64.744830 
4586.000000	64.752674 
4585.000000	64.775013 
4584.000000	64.811325 
4583.000000	64.859390 
4582.000000	64.915919 
4581.000000	64.977240 
4580.000000	65.039873 
4579.000000	65.100836 
4578.000000	65.157699 
4577.000000	65.208339 
4576.000000	65.250849 
4575.000000	65.283179 
4574.000000	65.303277 
4573.000000	65.309906 
4572.000000	65.302991 
4571.000000	65.284991 
4570.000000	65.260410 
4569.000000	65.235161 
4568.000000	65.215229 
4567.000000	65.206289 
4566.000000	65.211462 
4565.000000	65.230703 
4564.000000	65.260672 
4563.000000	65.296411 
4562.000000	65.331482 
4561.000000	65.359687 
4560.000000	65.375447 
4559.000000	65.374898 
4558.000000	65.356111 
4557.000000	65.318965 
4556.000000	65.266466 
4555.000000	65.204071 
4554.000000	65.140509 
4553.000000	65.086317 
4552.000000	65.053391 
4551.000000	65.052318 
4550.000000	65.090298 
4549.000000	65.168094 
4548.000000	65.278840 
4547.000000	65.407681 
4546.000000	65.533781 
4545.000000	65.633440 
4544.000000	65.684723 
4543.000000	65.671801 
4542.000000	65.588927 
4541.000000	65.441155 
4540.000000	65.243053 
4539.000000	65.015983 
4538.000000	64.784026 
4537.000000	64.569449 
4536.000000	64.389252 
4535.000000	64.253425 
4534.000000	64.165115 
4533.000000	64.121317 
4532.000000	64.115309 
4531.000000	64.138722 
4530.000000	64.182782 
4529.000000	64.240097 
4528.000000	64.304113 
4527.000000	64.369583 
4526.000000	64.431190 
4525.000000	64.484357 
4524.000000	64.525032 
4523.000000	64.550995 
4522.000000	64.561915 
4521.000000	64.560389 
4520.000000	64.551448 
4519.000000	64.541864 
4518.000000	64.539027 
4517.000000	64.549612 
4516.000000	64.578247 
4515.000000	64.626431 
4514.000000	64.692401 
4513.000000	64.771747 
4512.000000	64.858150 
4511.000000	64.944672 
4510.000000	65.024733 
4509.000000	65.092730 
4508.000000	65.144872 
4507.000000	65.179872 
4506.000000	65.198063 
4505.000000	65.200638 
4504.000000	65.190076 
4503.000000	65.169930 
4502.000000	65.144181 
4501.000000	65.117454 
4500.000000	65.093994 
4499.000000	65.077638 
4498.000000	65.070176 
4497.000000	65.071177 
4496.000000	65.077662 
4495.000000	65.084671 
4494.000000	65.086197 
4493.000000	65.076518 
4492.000000	65.052103 
4491.000000	65.012335 
4490.000000	64.959192 
4489.000000	64.897155 
4488.000000	64.832067 
4487.000000	64.770531 
4486.000000	64.718937 
4485.000000	64.682340 
4484.000000	64.663887 
4483.000000	64.663720 
4482.000000	64.679574 
4481.000000	64.705967 
4480.000000	64.734816 
4479.000000	64.757251 
4478.000000	64.765644 
4477.000000	64.754843 
4476.000000	64.722824 
4475.000000	64.672112 
4474.000000	64.609098 
4473.000000	64.543604 
4472.000000	64.486908 
4471.000000	64.450716 
4470.000000	64.444994 
4469.000000	64.477157 
4468.000000	64.550590 
4467.000000	64.664053 
4466.000000	64.811325 
4465.000000	64.982557 
4464.000000	65.164923 
4463.000000	65.343523 
4462.000000	65.503287 
4461.000000	65.631079 
4460.000000	65.716981 
4459.000000	65.756130 
4458.000000	65.748000 
4457.000000	65.698409 
4456.000000	65.615415 
4455.000000	65.508913 
4454.000000	65.387797 
4453.000000	65.260529 
4452.000000	65.133666 
4451.000000	65.013504 
4450.000000	64.905333 
4449.000000	64.814710 
4448.000000	64.746141 
4447.000000	64.702820 
4446.000000	64.685153 
4445.000000	64.689564 
4444.000000	64.712190 
4443.000000	64.749097 
4442.000000	64.799189 
4441.000000	64.863896 
4440.000000	64.943194 
4439.000000	65.034770 
4438.000000	65.134549 
4437.000000	65.236902 
4436.000000	65.333366 
4435.000000	65.415072 
4434.000000	65.479779 
4433.000000	65.527510 
4432.000000	65.556955 
4431.000000	65.567612 
4430.000000	65.554881 
4429.000000	65.517520 
4428.000000	65.468549 
4427.000000	65.423083 
4426.000000	65.393257 
4425.000000	65.385460 
4424.000000	65.402650 
4423.000000	65.435218 
4422.000000	65.462732 
4421.000000	65.459609 
4420.000000	65.401148 
4419.000000	65.275835 
4418.000000	65.090107 
4417.000000	64.875936 
4416.000000	64.685392 
4415.000000	64.580249 
4414.000000	64.619517 
4413.000000	64.833354 
4412.000000	65.225315 
4411.000000	65.769648 
4410.000000	66.429400 
4409.000000	67.189407 
4408.000000	68.039894 
4407.000000	69.008421 
4406.000000	70.086264 
4405.000000	71.211171 
4404.000000	72.233176 
4403.000000	72.924280 
4402.000000	73.031258 
4401.000000	72.345423 
4400.000000	70.770382 
4399.000000	68.388509 
4398.000000	65.440607 
4397.000000	62.289905 
4396.000000	59.343385 
4395.000000	56.956791 
4394.000000	55.380058 
4393.000000	54.711961 
4392.000000	54.898929 
4391.000000	55.766797 
4390.000000	57.060623 
4389.000000	58.511281 
4388.000000	59.877514 
4387.000000	60.994744 
4386.000000	61.801576 
4385.000000	62.338185 
4384.000000	62.712693 
4383.000000	63.059973 
4382.000000	63.490104 
4381.000000	64.056658 
4380.000000	64.744544 
4379.000000	65.477943 
4378.000000	66.169381 
4377.000000	66.730904 
4376.000000	67.126345 
4375.000000	67.353487 
4374.000000	67.445564 
4373.000000	67.449331 
4372.000000	67.399668 
4371.000000	67.318797 
4370.000000	67.212677 
4369.000000	67.077779 
4368.000000	66.922020 
4367.000000	66.750311 
4366.000000	66.571378 
4365.000000	66.393947 
4364.000000	66.228437 
4363.000000	66.076183 
4362.000000	65.928983 
4361.000000	65.779519 
4360.000000	65.623784 
4359.000000	65.462303 
4358.000000	65.301465 
4357.000000	65.145468 
4356.000000	64.998364 
4355.000000	64.867997 
4354.000000	64.763426 
4353.000000	64.687848 
4352.000000	64.641880 
4351.000000	64.623665 
4350.000000	64.630722 
4349.000000	64.658117 
4348.000000	64.702033 
4347.000000	64.761114 
4346.000000	64.834284 
4345.000000	64.916539 
4344.000000	65.001988 
4343.000000	65.083718 
4342.000000	65.154361 
4341.000000	65.206933 
4340.000000	65.236401 
4339.000000	65.240573 
4338.000000	65.221357 
4337.000000	65.184640 
4336.000000	65.138673 
4335.000000	65.092253 
4334.000000	65.053725 
4333.000000	65.029573 
4332.000000	65.022134 
4331.000000	65.029954 
4330.000000	65.049314 
4329.000000	65.075492 
4328.000000	65.103816 
4327.000000	65.130925 
4326.000000	65.156102 
4325.000000	65.180063 
4324.000000	65.203428 
4323.000000	65.225458 
4322.000000	65.243840 
4321.000000	65.254497 
4320.000000	65.252017 
4319.000000	65.231323 
4318.000000	65.189576 
4317.000000	65.127038 
4316.000000	65.047788 
4315.000000	64.959096 
4314.000000	64.870095 
4313.000000	64.790058 
4312.000000	64.726758 
4311.000000	64.684867 
4310.000000	64.664983 
4309.000000	64.664244 
4308.000000	64.677309 
4307.000000	64.697670 
4306.000000	64.719414 
4305.000000	64.738368 
4304.000000	64.753270 
4303.000000	64.765453 
4302.000000	64.778280 
4301.000000	64.796090 
4300.000000	64.822554 
4299.000000	64.859366 
4298.000000	64.905309 
4297.000000	64.956665 
4296.000000	65.007710 
4295.000000	65.051627 
4294.000000	65.082740 
4293.000000	65.097808 
4292.000000	65.097308 
4291.000000	65.085315 
4290.000000	65.068459 
4289.000000	65.054893 
4288.000000	65.051245 
4287.000000	65.061664 
4286.000000	65.085983 
4285.000000	65.120148 
4284.000000	65.157175 
4283.000000	65.189433 
4282.000000	65.210652 
4281.000000	65.217590 
4280.000000	65.211367 
4279.000000	65.196943 
4278.000000	65.181016 
4277.000000	65.169334 
4276.000000	65.164899 
4275.000000	65.166354 
4274.000000	65.168619 
4273.000000	65.163993 
4272.000000	65.144586 
4271.000000	65.105056 
4270.000000	65.044760 
4269.000000	64.968490 
4268.000000	64.885663 
4267.000000	64.807915 
4266.000000	64.746379 
4265.000000	64.708399 
4264.000000	64.695882 
4263.000000	64.704704 
4262.000000	64.725804 
4261.000000	64.747905 
4260.000000	64.760422 
4259.000000	64.756774 
4258.000000	64.735865 
4257.000000	64.702749 
4256.000000	64.666700 
4255.000000	64.639306 
4254.000000	64.630699 
4253.000000	64.646983 
4252.000000	64.687919 
4251.000000	64.747047 
4250.000000	64.812874 
4249.000000	64.871525 
4248.000000	64.910387 
4247.000000	64.920306 
4246.000000	64.898419 
4245.000000	64.848589 
4244.000000	64.780902 
4243.000000	64.708924 
4242.000000	64.646887 
4241.000000	64.606809 
4240.000000	64.595842 
4239.000000	64.615201 
4238.000000	64.660310 
4237.000000	64.722609 
4236.000000	64.791727 
4235.000000	64.857721 
4234.000000	64.913392 
4233.000000	64.955496 
4232.000000	64.983963 
4231.000000	65.000700 
4230.000000	65.008378 
4229.000000	65.008831 
4228.000000	65.002822 
4227.000000	64.989995 
4226.000000	64.970231 
4225.000000	64.944434 
4224.000000	64.915966 
4223.000000	64.890480 
4222.000000	64.875078 
4221.000000	64.876770 
4220.000000	64.900922 
4219.000000	64.949417 
4218.000000	65.018749 
4217.000000	65.100717 
4216.000000	65.184164 
4215.000000	65.257501 
4214.000000	65.311050 
4213.000000	65.339279 
4212.000000	65.341472 
4211.000000	65.322184 
4210.000000	65.289831 
4209.000000	65.254616 
4208.000000	65.225815 
4207.000000	65.210008 
4206.000000	65.209937 
4205.000000	65.224313 
4204.000000	65.249061 
4203.000000	65.278697 
4202.000000	65.307998 
4201.000000	65.334153 
4200.000000	65.357089 
4199.000000	65.378332 
4198.000000	65.399098 
4197.000000	65.418028 
4196.000000	65.430068 
4195.000000	65.425944 
4194.000000	65.394687 
4193.000000	65.326929 
4192.000000	65.219235 
4191.000000	65.076255 
4190.000000	64.912056 
4189.000000	64.748001 
4188.000000	64.609193 
4187.000000	64.518451 
4186.000000	64.491701 
4185.000000	64.533758 
4184.000000	64.637279 
4183.000000	64.783930 
4182.000000	64.948821 
4181.000000	65.105867 
4180.000000	65.233016 
4179.000000	65.315985 
4178.000000	65.349698 
4177.000000	65.337324 
4176.000000	65.288114 
4175.000000	65.213871 
4174.000000	65.125989 
4173.000000	65.033125 
4172.000000	64.940714 
4171.000000	64.851212 
4170.000000	64.764761 
4169.000000	64.680624 
4168.000000	64.598155 
4167.000000	64.518260 
4166.000000	64.443111 
4165.000000	64.377117 
4164.000000	64.325118 
4163.000000	64.292597 
4162.000000	64.283394 
4161.000000	64.299750 
4160.000000	64.340972 
4159.000000	64.403533 
