PE IR       SPECTRUM    SPECTRUM    ASCII       PEDS        1.60        
  -1
C-4709~1.ASC
17/03/27
23:44:24.00
17/03/27
23:44:24.00
tln
$C-4040-8_t0112$<tbV0>[10.4,13.0,8.0,0.0,27,1,0]
370.000000
64









2002,4.07    
MIRTGS : RIGHTBACK : INTERNAL 2
MIR : ON : INTERNAL 2
OPTKBR

0.200000
8
8.000000
FILLER
RATIO
SPECTRUM
UNLOCKED 256

DOUBLE
64
COMBINED
1
0
0


1.000000
RATIO


1
0
TRUE
51149
0
LEFT NOT FITTED RIGHT NOT FITTED 0
NONE
NONE
15600
12.000000
4.427000
51148
TRUE
1 0 8 72 0 0 0 0 

15798.010000






#HDR
-1
-1
#GR
CM-1
%T
0.00002384185791015625
0.0
5000.000000
-1.000000
4631
8
68.990898
22.788166
#DATA
5000.000000	64.680027 
4999.000000	64.725041 
4998.000000	64.751935 
4997.000000	64.752578 
4996.000000	64.724278 
4995.000000	64.669752 
4994.000000	64.597725 
4993.000000	64.520215 
4992.000000	64.451217 
4991.000000	64.403510 
4990.000000	64.385914 
4989.000000	64.402341 
4988.000000	64.449739 
4987.000000	64.519166 
4986.000000	64.597654 
4985.000000	64.671611 
4984.000000	64.728832 
4983.000000	64.760875 
4982.000000	64.764833 
4981.000000	64.743328 
4980.000000	64.703607 
4979.000000	64.654827 
4978.000000	64.606142 
4977.000000	64.563393 
4976.000000	64.528918 
4975.000000	64.499950 
4974.000000	64.470553 
4973.000000	64.432787 
4972.000000	64.379763 
4971.000000	64.307451 
4970.000000	64.215517 
4969.000000	64.108967 
4968.000000	63.996076 
4967.000000	63.888883 
4966.000000	63.798761 
4965.000000	63.737511 
4964.000000	63.713669 
4963.000000	63.733482 
4962.000000	63.799262 
4961.000000	63.910007 
4960.000000	64.060735 
4959.000000	64.243268 
4958.000000	64.446306 
4957.000000	64.655542 
4956.000000	64.854454 
4955.000000	65.025925 
4954.000000	65.154147 
4953.000000	65.227389 
4952.000000	65.239381 
4951.000000	65.191507 
4950.000000	65.091705 
4949.000000	64.953279 
4948.000000	64.791965 
4947.000000	64.624834 
4946.000000	64.466905 
4945.000000	64.329910 
4944.000000	64.221119 
4943.000000	64.144372 
4942.000000	64.100289 
4941.000000	64.086937 
4940.000000	64.101338 
4939.000000	64.138770 
4938.000000	64.195299 
4937.000000	64.266228 
4936.000000	64.348149 
4935.000000	64.437246 
4934.000000	64.530539 
4933.000000	64.624261 
4932.000000	64.714932 
4931.000000	64.798974 
4930.000000	64.872574 
4929.000000	64.932060 
4928.000000	64.974093 
4927.000000	64.996552 
4926.000000	65.000510 
4925.000000	64.990234 
4924.000000	64.972352 
4923.000000	64.954519 
4922.000000	64.945435 
4921.000000	64.951562 
4920.000000	64.975833 
4919.000000	65.015864 
4918.000000	65.065693 
4917.000000	65.115666 
4916.000000	65.155243 
4915.000000	65.175080 
4914.000000	65.168595 
4913.000000	65.134406 
4912.000000	65.075492 
4911.000000	65.000724 
4910.000000	64.922547 
4909.000000	64.855837 
4908.000000	64.814829 
4907.000000	64.810967 
4906.000000	64.850711 
4905.000000	64.934062 
4904.000000	65.054416 
4903.000000	65.198230 
4902.000000	65.346908 
4901.000000	65.479350 
4900.000000	65.575218 
4899.000000	65.617609 
4898.000000	65.596032 
4897.000000	65.508818 
4896.000000	65.362572 
4895.000000	65.171265 
4894.000000	64.952540 
4893.000000	64.726638 
4892.000000	64.510726 
4891.000000	64.317870 
4890.000000	64.153456 
4889.000000	64.016985 
4888.000000	63.902139 
4887.000000	63.799047 
4886.000000	63.698863 
4885.000000	63.594388 
4884.000000	63.486266 
4883.000000	63.380980 
4882.000000	63.292527 
4881.000000	63.236522 
4880.000000	63.228869 
4879.000000	63.279795 
4878.000000	63.391733 
4877.000000	63.556957 
4876.000000	63.760113 
4875.000000	63.980841 
4874.000000	64.198350 
4873.000000	64.395809 
4872.000000	64.564275 
4871.000000	64.703297 
4870.000000	64.819192 
4869.000000	64.921474 
4868.000000	65.019249 
4867.000000	65.117073 
4866.000000	65.214085 
4865.000000	65.303492 
4864.000000	65.376114 
4863.000000	65.422415 
4862.000000	65.439057 
4861.000000	65.427422 
4860.000000	65.394997 
4859.000000	65.352296 
4858.000000	65.311670 
4857.000000	65.282344 
4856.000000	65.268063 
4855.000000	65.266633 
4854.000000	65.271854 
4853.000000	65.274763 
4852.000000	65.267395 
4851.000000	65.244269 
4850.000000	65.204334 
4849.000000	65.149974 
4848.000000	65.086364 
4847.000000	65.018773 
4846.000000	64.951252 
4845.000000	64.886450 
4844.000000	64.825224 
4843.000000	64.767503 
4842.000000	64.712476 
4841.000000	64.660596 
4840.000000	64.612960 
4839.000000	64.570045 
4838.000000	64.532041 
4837.000000	64.497661 
4836.000000	64.465546 
4835.000000	64.432954 
4834.000000	64.399075 
4833.000000	64.365100 
4832.000000	64.335107 
4831.000000	64.314889 
4830.000000	64.310503 
4829.000000	64.326310 
4828.000000	64.362478 
4827.000000	64.413976 
4826.000000	64.471030 
4825.000000	64.521002 
4824.000000	64.552140 
4823.000000	64.556527 
4822.000000	64.532709 
4821.000000	64.486122 
4820.000000	64.428472 
4819.000000	64.374756 
4818.000000	64.339280 
4817.000000	64.332246 
4816.000000	64.357519 
4815.000000	64.412093 
4814.000000	64.487409 
4813.000000	64.571738 
4812.000000	64.654207 
4811.000000	64.726376 
4810.000000	64.783859 
4809.000000	64.825892 
4808.000000	64.854359 
4807.000000	64.871788 
4806.000000	64.879536 
4805.000000	64.877104 
4804.000000	64.862489 
4803.000000	64.833021 
4802.000000	64.787292 
4801.000000	64.726400 
4800.000000	64.655160 
4799.000000	64.581632 
4798.000000	64.515852 
4797.000000	64.467883 
4796.000000	64.445471 
4795.000000	64.452672 
4794.000000	64.488935 
4793.000000	64.548730 
4792.000000	64.622735 
4791.000000	64.699506 
4790.000000	64.768028 
4789.000000	64.819002 
4788.000000	64.847016 
4787.000000	64.851260 
4786.000000	64.835882 
4785.000000	64.808654 
4784.000000	64.779138 
4783.000000	64.756298 
4782.000000	64.746236 
4781.000000	64.751291 
4780.000000	64.769220 
4779.000000	64.794945 
4778.000000	64.821338 
4777.000000	64.841747 
4776.000000	64.851474 
4775.000000	64.848828 
4774.000000	64.835333 
4773.000000	64.814972 
4772.000000	64.792752 
4771.000000	64.773035 
4770.000000	64.758419 
4769.000000	64.748978 
4768.000000	64.742302 
4767.000000	64.734458 
4766.000000	64.721274 
4765.000000	64.699792 
4764.000000	64.669251 
4763.000000	64.631652 
4762.000000	64.590764 
4761.000000	64.551734 
4760.000000	64.519906 
4759.000000	64.500045 
4758.000000	64.494419 
4757.000000	64.503240 
4756.000000	64.524674 
4755.000000	64.555740 
4754.000000	64.592599 
4753.000000	64.631962 
4752.000000	64.671063 
4751.000000	64.708423 
4750.000000	64.743542 
4749.000000	64.776611 
4748.000000	64.807462 
4747.000000	64.835739 
4746.000000	64.860677 
4745.000000	64.881324 
4744.000000	64.896893 
4743.000000	64.906787 
4742.000000	64.910960 
4741.000000	64.909029 
4740.000000	64.900255 
4739.000000	64.883279 
4738.000000	64.856219 
4737.000000	64.817380 
4736.000000	64.765548 
4735.000000	64.701366 
4734.000000	64.627504 
4733.000000	64.548277 
4732.000000	64.469528 
4731.000000	64.397668 
4730.000000	64.338946 
4729.000000	64.297771 
4728.000000	64.276981 
4727.000000	64.276528 
4726.000000	64.294886 
4725.000000	64.329218 
4724.000000	64.376187 
4723.000000	64.431548 
4722.000000	64.491319 
4721.000000	64.551544 
4720.000000	64.608645 
4719.000000	64.658665 
4718.000000	64.698505 
4717.000000	64.726281 
4716.000000	64.741349 
4715.000000	64.744281 
4714.000000	64.736342 
4713.000000	64.719295 
4712.000000	64.695072 
4711.000000	64.665961 
4710.000000	64.634871 
4709.000000	64.605474 
4708.000000	64.583063 
4707.000000	64.573383 
4706.000000	64.581751 
4705.000000	64.611005 
4704.000000	64.661169 
4703.000000	64.727377 
4702.000000	64.800262 
4701.000000	64.866876 
4700.000000	64.913654 
4699.000000	64.928841 
4698.000000	64.905023 
4697.000000	64.841032 
4696.000000	64.742922 
4695.000000	64.622449 
4694.000000	64.494538 
4693.000000	64.374208 
4692.000000	64.273333 
4691.000000	64.199113 
4690.000000	64.153623 
4689.000000	64.134263 
4688.000000	64.135479 
4687.000000	64.150977 
4686.000000	64.175558 
4685.000000	64.205908 
4684.000000	64.241051 
4683.000000	64.281296 
4682.000000	64.327549 
4681.000000	64.379930 
4680.000000	64.437127 
4679.000000	64.496040 
4678.000000	64.552330 
4677.000000	64.601755 
4676.000000	64.641094 
4675.000000	64.669561 
4674.000000	64.688420 
4673.000000	64.701151 
4672.000000	64.711570 
4671.000000	64.723157 
4670.000000	64.737415 
4669.000000	64.753413 
4668.000000	64.767694 
4667.000000	64.775776 
4666.000000	64.773225 
4665.000000	64.757394 
4664.000000	64.728236 
4663.000000	64.688515 
4662.000000	64.643979 
4661.000000	64.602351 
4660.000000	64.571881 
4659.000000	64.559626 
4658.000000	64.570641 
4657.000000	64.606952 
4656.000000	64.667272 
4655.000000	64.746975 
4654.000000	64.838719 
4653.000000	64.933276 
4652.000000	65.020895 
4651.000000	65.092349 
4650.000000	65.140008 
4649.000000	65.158629 
4648.000000	65.146756 
4647.000000	65.106105 
4646.000000	65.041756 
4645.000000	64.960861 
4644.000000	64.872217 
4643.000000	64.784479 
4642.000000	64.705395 
4641.000000	64.640593 
4640.000000	64.593672 
4639.000000	64.565968 
4638.000000	64.556860 
4637.000000	64.564156 
4636.000000	64.584350 
4635.000000	64.613413 
4634.000000	64.646935 
4633.000000	64.681029 
4632.000000	64.712500 
4631.000000	64.739227 
4630.000000	64.760112 
4629.000000	64.774775 
4628.000000	64.783382 
4627.000000	64.786410 
4626.000000	64.784359 
4625.000000	64.777660 
4624.000000	64.766216 
4623.000000	64.750170 
4622.000000	64.729142 
4621.000000	64.703249 
4620.000000	64.672732 
4619.000000	64.637970 
4618.000000	64.600157 
4617.000000	64.561057 
4616.000000	64.523339 
4615.000000	64.490151 
4614.000000	64.464831 
4613.000000	64.449834 
4612.000000	64.446902 
4611.000000	64.456844 
4610.000000	64.478754 
4609.000000	64.509701 
4608.000000	64.545655 
4607.000000	64.582157 
4606.000000	64.615154 
4605.000000	64.641571 
4604.000000	64.660096 
4603.000000	64.671134 
4602.000000	64.676666 
4601.000000	64.679574 
4600.000000	64.682579 
4599.000000	64.687728 
4598.000000	64.696550 
4597.000000	64.709210 
4596.000000	64.724993 
4595.000000	64.741730 
4594.000000	64.756441 
4593.000000	64.766001 
4592.000000	64.767718 
4591.000000	64.760804 
4590.000000	64.746356 
4589.000000	64.728546 
4588.000000	64.713811 
4587.000000	64.709997 
4586.000000	64.724254 
4585.000000	64.761567 
4584.000000	64.823317 
4583.000000	64.906382 
4582.000000	65.003538 
4581.000000	65.105009 
4580.000000	65.200591 
4579.000000	65.281128 
4578.000000	65.340018 
4577.000000	65.374422 
4576.000000	65.385079 
4575.000000	65.374422 
4574.000000	65.345311 
4573.000000	65.300202 
4572.000000	65.240836 
4571.000000	65.169119 
4570.000000	65.087628 
4569.000000	65.001082 
4568.000000	64.916181 
4567.000000	64.841532 
4566.000000	64.786076 
4565.000000	64.757132 
4564.000000	64.758753 
4563.000000	64.790534 
4562.000000	64.847636 
4561.000000	64.920473 
4560.000000	64.998030 
4559.000000	65.069580 
4558.000000	65.127897 
4557.000000	65.169072 
4556.000000	65.195512 
4555.000000	65.214443 
4554.000000	65.236949 
4553.000000	65.274310 
4552.000000	65.336632 
4551.000000	65.429878 
4550.000000	65.554261 
4549.000000	65.703415 
4548.000000	65.864849 
4547.000000	66.021919 
4546.000000	66.156888 
4545.000000	66.254258 
4544.000000	66.303968 
4543.000000	66.303372 
4542.000000	66.258502 
4541.000000	66.181635 
4540.000000	66.089606 
4539.000000	65.997934 
4538.000000	65.920209 
4537.000000	65.862059 
4536.000000	65.822672 
4535.000000	65.793395 
4534.000000	65.762686 
4533.000000	65.717887 
4532.000000	65.649914 
4531.000000	65.555310 
4530.000000	65.437150 
4529.000000	65.304899 
4528.000000	65.171575 
4527.000000	65.051126 
4526.000000	64.954495 
4525.000000	64.889550 
4524.000000	64.859580 
4523.000000	64.863753 
4522.000000	64.897918 
4521.000000	64.956283 
4520.000000	65.032625 
4519.000000	65.119695 
4518.000000	65.210151 
4517.000000	65.297079 
4516.000000	65.374350 
4515.000000	65.435767 
4514.000000	65.476369 
4513.000000	65.493321 
4512.000000	65.486240 
4511.000000	65.458083 
4510.000000	65.414309 
4509.000000	65.362119 
4508.000000	65.309166 
4507.000000	65.263628 
4506.000000	65.231227 
4505.000000	65.214538 
4504.000000	65.213108 
4503.000000	65.224075 
4502.000000	65.243339 
4501.000000	65.266513 
4500.000000	65.290307 
4499.000000	65.312910 
4498.000000	65.332865 
4497.000000	65.348577 
4496.000000	65.358018 
4495.000000	65.358543 
4494.000000	65.346717 
4493.000000	65.319156 
4492.000000	65.273523 
4491.000000	65.209627 
4490.000000	65.130043 
4489.000000	65.040779 
4488.000000	64.949369 
4487.000000	64.865589 
4486.000000	64.800071 
4485.000000	64.763188 
4484.000000	64.762473 
4483.000000	64.801335 
4482.000000	64.878821 
4481.000000	64.988112 
4480.000000	65.116930 
4479.000000	65.249419 
4478.000000	65.368175 
4477.000000	65.458416 
4476.000000	65.509724 
4475.000000	65.520143 
4474.000000	65.495777 
4473.000000	65.450763 
4472.000000	65.403747 
4471.000000	65.372753 
4470.000000	65.370488 
4469.000000	65.401053 
4468.000000	65.458774 
4467.000000	65.529775 
4466.000000	65.595316 
4465.000000	65.638256 
4464.000000	65.646505 
4463.000000	65.614700 
4462.000000	65.545248 
4461.000000	65.447402 
4460.000000	65.334749 
4459.000000	65.221381 
4458.000000	65.118741 
4457.000000	65.034794 
4456.000000	64.971256 
4455.000000	64.924025 
4454.000000	64.885568 
4453.000000	64.847087 
4452.000000	64.803194 
4451.000000	64.753556 
4450.000000	64.704370 
4449.000000	64.666104 
4448.000000	64.650249 
4447.000000	64.665007 
4446.000000	64.711689 
4445.000000	64.782166 
4444.000000	64.865541 
4443.000000	64.951705 
4442.000000	65.032911 
4441.000000	65.106582 
4440.000000	65.178227 
4439.000000	65.259575 
4438.000000	65.362334 
4437.000000	65.495538 
4436.000000	65.662789 
4435.000000	65.859699 
4434.000000	66.078329 
4433.000000	66.304254 
4432.000000	66.515779 
4431.000000	66.690421 
4430.000000	66.812396 
4429.000000	66.873979 
4428.000000	66.879010 
4427.000000	66.840338 
4426.000000	66.771984 
4425.000000	66.692781 
4424.000000	66.630291 
4423.000000	66.603207 
4422.000000	66.621065 
4421.000000	66.671800 
4420.000000	66.726160 
4419.000000	66.736960 
4418.000000	66.651272 
4417.000000	66.425347 
4416.000000	66.036820 
4415.000000	65.493226 
4414.000000	64.833450 
4413.000000	64.099216 
4412.000000	63.340330 
4411.000000	62.596392 
4410.000000	61.917567 
4409.000000	61.376571 
4408.000000	61.065673 
4407.000000	61.107516 
4406.000000	61.596536 
4405.000000	62.570738 
4404.000000	63.962054 
4403.000000	65.589070 
4402.000000	67.175412 
4401.000000	68.406534 
4400.000000	68.990898 
4399.000000	68.740630 
4398.000000	67.603754 
4397.000000	65.677070 
4396.000000	63.193702 
4395.000000	60.464262 
4394.000000	57.838916 
4393.000000	55.639100 
4392.000000	54.112911 
4391.000000	53.401541 
4390.000000	53.518080 
4389.000000	54.362535 
4388.000000	55.743527 
4387.000000	57.429146 
4386.000000	59.196662 
4385.000000	60.877060 
4384.000000	62.366652 
4383.000000	63.635516 
4382.000000	64.693379 
4381.000000	65.576767 
4380.000000	66.314363 
4379.000000	66.920065 
4378.000000	67.398858 
4377.000000	67.740702 
4376.000000	67.960715 
4375.000000	68.070816 
4374.000000	68.100500 
4373.000000	68.072032 
4372.000000	68.004751 
4371.000000	67.905354 
4370.000000	67.776679 
4369.000000	67.614626 
4368.000000	67.420077 
4367.000000	67.195320 
4366.000000	66.949272 
4365.000000	66.694855 
4364.000000	66.449236 
4363.000000	66.224694 
4362.000000	66.025757 
4361.000000	65.855646 
4360.000000	65.716409 
4359.000000	65.604829 
4358.000000	65.515565 
4357.000000	65.440392 
4356.000000	65.372347 
4355.000000	65.312218 
4354.000000	65.267062 
4353.000000	65.239572 
4352.000000	65.232086 
4351.000000	65.248131 
4350.000000	65.288877 
4349.000000	65.348291 
4348.000000	65.416479 
4347.000000	65.482711 
4346.000000	65.535998 
4345.000000	65.565681 
4344.000000	65.565848 
4343.000000	65.536761 
4342.000000	65.484666 
4341.000000	65.420532 
4340.000000	65.356707 
4339.000000	65.303587 
4338.000000	65.267539 
4337.000000	65.250062 
4336.000000	65.246748 
4335.000000	65.249037 
4334.000000	65.247726 
4333.000000	65.235829 
4332.000000	65.209007 
4331.000000	65.167498 
4330.000000	65.115880 
4329.000000	65.062594 
4328.000000	65.017080 
4327.000000	64.988398 
4326.000000	64.983439 
4325.000000	65.005040 
4324.000000	65.051460 
4323.000000	65.115952 
4322.000000	65.188717 
4321.000000	65.258336 
4320.000000	65.313863 
4319.000000	65.347242 
4318.000000	65.354394 
4317.000000	65.336060 
4316.000000	65.297222 
4315.000000	65.246224 
4314.000000	65.192699 
4313.000000	65.145969 
4312.000000	65.113520 
4311.000000	65.099620 
4310.000000	65.105247 
4309.000000	65.127539 
4308.000000	65.160989 
4307.000000	65.198588 
4306.000000	65.233612 
4305.000000	65.260601 
4304.000000	65.276408 
4303.000000	65.280485 
4302.000000	65.274572 
4301.000000	65.262103 
4300.000000	65.247249 
4299.000000	65.233445 
4298.000000	65.222716 
4297.000000	65.215682 
4296.000000	65.211486 
4295.000000	65.208601 
4294.000000	65.205454 
4293.000000	65.200996 
4292.000000	65.195608 
4291.000000	65.190505 
4290.000000	65.188026 
4289.000000	65.190172 
4288.000000	65.198588 
4287.000000	65.213513 
4286.000000	65.233850 
4285.000000	65.257191 
4284.000000	65.280437 
4283.000000	65.300703 
4282.000000	65.315437 
4281.000000	65.322852 
4280.000000	65.322184 
4279.000000	65.313458 
4278.000000	65.297007 
4277.000000	65.272974 
4276.000000	65.241169 
4275.000000	65.200924 
4274.000000	65.151524 
4273.000000	65.092706 
4272.000000	65.025043 
4271.000000	64.950561 
4270.000000	64.873027 
4269.000000	64.798331 
4268.000000	64.732694 
4267.000000	64.683461 
4266.000000	64.656782 
4265.000000	64.657711 
4264.000000	64.688014 
4263.000000	64.746499 
4262.000000	64.828538 
4261.000000	64.926838 
4260.000000	65.032076 
4259.000000	65.134572 
4258.000000	65.225386 
4257.000000	65.298080 
4256.000000	65.349268 
4255.000000	65.378761 
4254.000000	65.388870 
4253.000000	65.383958 
4252.000000	65.369081 
4251.000000	65.349221 
4250.000000	65.328025 
4249.000000	65.307998 
4248.000000	65.289759 
4247.000000	65.272474 
4246.000000	65.253996 
4245.000000	65.232205 
4244.000000	65.205097 
4243.000000	65.171718 
4242.000000	65.132308 
4241.000000	65.088176 
4240.000000	65.041828 
4239.000000	64.995884 
4238.000000	64.953446 
4237.000000	64.916729 
4236.000000	64.888215 
4235.000000	64.869761 
4234.000000	64.863300 
4233.000000	64.870238 
4232.000000	64.891505 
4231.000000	64.927053 
4230.000000	64.975285 
4229.000000	65.032458 
4228.000000	65.093111 
4227.000000	65.150761 
4226.000000	65.198636 
4225.000000	65.230965 
4224.000000	65.244531 
4223.000000	65.239453 
4222.000000	65.219163 
4221.000000	65.189266 
4220.000000	65.157318 
4219.000000	65.130090 
4218.000000	65.112137 
4217.000000	65.104579 
4216.000000	65.105557 
4215.000000	65.110039 
4214.000000	65.112423 
4213.000000	65.107154 
4212.000000	65.090441 
4211.000000	65.061140 
4210.000000	65.020871 
4209.000000	64.973998 
4208.000000	64.926171 
4207.000000	64.883780 
4206.000000	64.851927 
4205.000000	64.834165 
4204.000000	64.831519 
4203.000000	64.843177 
4202.000000	64.866852 
4201.000000	64.900040 
4200.000000	64.940285 
4199.000000	64.984846 
4198.000000	65.029883 
4197.000000	65.069079 
4196.000000	65.093398 
4195.000000	65.091633 
4194.000000	65.053153 
4193.000000	64.970517 
4192.000000	64.842605 
4191.000000	64.677000 
4190.000000	64.489078 
4189.000000	64.300107 
4188.000000	64.132404 
4187.000000	64.005327 
4186.000000	63.930583 
4185.000000	63.909626 
4184.000000	63.934469 
4183.000000	63.989400 
4182.000000	64.056372 
4181.000000	64.119005 
4180.000000	64.166569 
4179.000000	64.195346 
4178.000000	64.207816 
4177.000000	64.209342 
4176.000000	64.206123 
4175.000000	64.201855 
4174.000000	64.197659 
4173.000000	64.191937 
4172.000000	64.183187 
4171.000000	64.171457 
4170.000000	64.158964 
4169.000000	64.150214 
4168.000000	64.150762 
4167.000000	64.165592 
4166.000000	64.197134 
4165.000000	64.244723 
4164.000000	64.304184 
4163.000000	64.369106 
4162.000000	64.432215 
4161.000000	64.487051 
4160.000000	64.529871 
4159.000000	64.559388 
