PE IR       SPECTRUM    SPECTRUM    ASCII       PEDS        1.60        
  -1
C-9BE0~1.ASC
17/03/27
18:32:22.00
17/03/27
18:32:22.00
tln
$C-4040-8_t0049$<tbV0>[2.6,-2.6,8.0,0.0,27,1,0]
370.000000
64









2002,4.07    
MIRTGS : RIGHTBACK : INTERNAL 2
MIR : ON : INTERNAL 2
OPTKBR

0.200000
8
8.000000
FILLER
RATIO
SPECTRUM
UNLOCKED 256

DOUBLE
64
COMBINED
1
0
0


1.000000
RATIO


1
0
TRUE
51149
0
LEFT NOT FITTED RIGHT NOT FITTED 0
NONE
NONE
15600
12.000000
4.427000
51148
TRUE
1 0 8 72 0 0 0 0 

15798.010000






#HDR
-1
-1
#GR
CM-1
%T
0.00002384185791015625
0.0
5000.000000
-1.000000
4631
8
75.547432
21.758699
#DATA
5000.000000	64.035892 
4999.000000	64.112448 
4998.000000	64.189910 
4997.000000	64.255356 
4996.000000	64.300632 
4995.000000	64.323973 
4994.000000	64.330816 
4993.000000	64.331984 
4992.000000	64.340233 
4991.000000	64.365935 
4990.000000	64.414167 
4989.000000	64.483475 
4988.000000	64.565610 
4987.000000	64.647984 
4986.000000	64.717411 
4985.000000	64.764213 
4984.000000	64.784121 
4983.000000	64.779233 
4982.000000	64.756369 
4981.000000	64.724636 
4980.000000	64.692258 
4979.000000	64.664030 
4978.000000	64.640688 
4977.000000	64.618921 
4976.000000	64.594340 
4975.000000	64.562106 
4974.000000	64.520549 
4973.000000	64.469552 
4972.000000	64.410400 
4971.000000	64.344668 
4970.000000	64.271950 
4969.000000	64.192199 
4968.000000	64.104652 
4967.000000	64.012026 
4966.000000	63.919425 
4965.000000	63.837480 
4964.000000	63.780570 
4963.000000	63.764238 
4962.000000	63.800692 
4961.000000	63.894557 
4960.000000	64.040064 
4959.000000	64.220881 
4958.000000	64.412474 
4957.000000	64.587187 
4956.000000	64.720058 
4955.000000	64.794683 
4954.000000	64.806461 
4953.000000	64.762520 
4952.000000	64.679694 
4951.000000	64.579296 
4950.000000	64.482426 
4949.000000	64.406061 
4948.000000	64.359617 
4947.000000	64.346361 
4946.000000	64.361906 
4945.000000	64.397883 
4944.000000	64.442753 
4943.000000	64.485383 
4942.000000	64.516210 
4941.000000	64.528512 
4940.000000	64.519691 
4939.000000	64.489698 
4938.000000	64.442896 
4937.000000	64.385461 
4936.000000	64.326500 
4935.000000	64.276218 
4934.000000	64.244914 
4933.000000	64.241147 
4932.000000	64.270162 
4931.000000	64.332866 
4930.000000	64.425110 
4929.000000	64.538288 
4928.000000	64.659905 
4927.000000	64.775705 
4926.000000	64.871835 
4925.000000	64.937543 
4924.000000	64.966487 
4923.000000	64.958405 
4922.000000	64.919233 
4921.000000	64.859175 
4920.000000	64.791560 
4919.000000	64.728283 
4918.000000	64.677858 
4917.000000	64.642405 
4916.000000	64.618277 
4915.000000	64.597463 
4914.000000	64.571714 
4913.000000	64.534974 
4912.000000	64.485216 
4911.000000	64.426422 
4910.000000	64.367938 
4909.000000	64.321064 
4908.000000	64.295339 
4907.000000	64.295434 
4906.000000	64.318919 
4905.000000	64.357089 
4904.000000	64.397239 
4903.000000	64.426469 
4902.000000	64.435648 
4901.000000	64.423131 
4900.000000	64.395427 
4899.000000	64.366126 
4898.000000	64.351892 
4897.000000	64.367556 
4896.000000	64.420437 
4895.000000	64.509367 
4894.000000	64.621615 
4893.000000	64.737296 
4892.000000	64.830541 
4891.000000	64.877176 
4890.000000	64.857530 
4889.000000	64.762520 
4888.000000	64.593720 
4887.000000	64.362430 
4886.000000	64.088749 
4885.000000	63.797163 
4884.000000	63.514137 
4883.000000	63.263320 
4882.000000	63.064432 
4881.000000	62.930703 
4880.000000	62.869310 
4879.000000	62.881064 
4878.000000	62.960457 
4877.000000	63.096094 
4876.000000	63.271594 
4875.000000	63.466835 
4874.000000	63.659906 
4873.000000	63.829398 
4872.000000	63.956952 
4871.000000	64.029836 
4870.000000	64.042806 
4869.000000	63.999009 
4868.000000	63.908910 
4867.000000	63.788533 
4866.000000	63.657402 
4865.000000	63.535022 
4864.000000	63.438439 
4863.000000	63.379311 
4862.000000	63.364386 
4861.000000	63.393139 
4860.000000	63.459968 
4859.000000	63.553667 
4858.000000	63.660383 
4857.000000	63.764357 
4856.000000	63.849449 
4855.000000	63.902258 
4854.000000	63.913726 
4853.000000	63.880944 
4852.000000	63.806533 
4851.000000	63.700795 
4850.000000	63.579916 
4849.000000	63.463425 
4848.000000	63.370680 
4847.000000	63.317966 
4846.000000	63.315320 
4845.000000	63.365316 
4844.000000	63.462662 
4843.000000	63.594484 
4842.000000	63.743281 
4841.000000	63.890361 
4840.000000	64.019846 
4839.000000	64.119577 
4838.000000	64.184260 
4837.000000	64.214730 
4836.000000	64.217710 
4835.000000	64.203786 
4834.000000	64.184570 
4833.000000	64.170026 
4832.000000	64.166641 
4831.000000	64.177751 
4830.000000	64.202451 
4829.000000	64.237499 
4828.000000	64.277768 
4827.000000	64.318490 
4826.000000	64.356064 
4825.000000	64.389228 
4824.000000	64.418077 
4823.000000	64.443302 
4822.000000	64.465260 
4821.000000	64.483332 
4820.000000	64.495158 
4819.000000	64.497041 
4818.000000	64.484477 
4817.000000	64.453601 
4816.000000	64.402842 
4815.000000	64.334201 
4814.000000	64.253258 
4813.000000	64.169478 
4812.000000	64.094018 
4811.000000	64.038634 
4810.000000	64.013433 
4809.000000	64.024639 
4808.000000	64.072823 
4807.000000	64.152741 
4806.000000	64.254879 
4805.000000	64.366126 
4804.000000	64.472126 
4803.000000	64.559650 
4802.000000	64.618778 
4801.000000	64.644265 
4800.000000	64.635968 
4799.000000	64.598488 
4798.000000	64.539885 
4797.000000	64.469814 
4796.000000	64.397978 
4795.000000	64.332294 
4794.000000	64.277982 
4793.000000	64.237141 
4792.000000	64.209437 
4791.000000	64.192771 
4790.000000	64.184808 
4789.000000	64.183735 
4788.000000	64.189124 
4787.000000	64.201569 
4786.000000	64.222145 
4785.000000	64.251470 
4784.000000	64.288830 
4783.000000	64.331340 
4782.000000	64.373970 
4781.000000	64.409971 
4780.000000	64.432358 
4779.000000	64.435458 
4778.000000	64.416480 
4777.000000	64.376282 
4776.000000	64.319682 
4775.000000	64.254879 
4774.000000	64.191508 
4773.000000	64.138674 
4772.000000	64.103031 
4771.000000	64.087724 
4770.000000	64.091396 
4769.000000	64.108800 
4768.000000	64.132356 
4767.000000	64.154314 
4766.000000	64.168834 
4765.000000	64.173603 
4764.000000	64.170813 
4763.000000	64.166355 
4762.000000	64.168381 
4761.000000	64.184331 
4760.000000	64.218926 
4759.000000	64.271235 
4758.000000	64.334964 
4757.000000	64.398598 
4756.000000	64.448189 
4755.000000	64.470291 
4754.000000	64.455628 
4753.000000	64.401412 
4752.000000	64.312100 
4751.000000	64.198946 
4750.000000	64.077520 
4749.000000	63.964438 
4748.000000	63.873553 
4747.000000	63.813495 
4746.000000	63.786530 
4745.000000	63.788437 
4744.000000	63.810300 
4743.000000	63.841199 
4742.000000	63.871288 
4741.000000	63.893079 
4740.000000	63.902497 
4739.000000	63.898873 
4738.000000	63.884019 
4737.000000	63.860607 
4736.000000	63.830947 
4735.000000	63.796472 
4734.000000	63.757705 
4733.000000	63.715386 
4732.000000	63.670825 
4731.000000	63.626790 
4730.000000	63.587546 
4729.000000	63.558220 
4728.000000	63.544249 
4727.000000	63.549184 
4726.000000	63.575077 
4725.000000	63.620877 
4724.000000	63.683915 
4723.000000	63.759112 
4722.000000	63.841533 
4721.000000	63.926458 
4720.000000	64.010667 
4719.000000	64.092183 
4718.000000	64.170074 
4717.000000	64.243745 
4716.000000	64.312720 
4715.000000	64.376139 
4714.000000	64.432787 
4713.000000	64.480972 
4712.000000	64.519524 
4711.000000	64.547920 
4710.000000	64.566111 
4709.000000	64.574289 
4708.000000	64.573001 
4707.000000	64.562678 
4706.000000	64.543700 
4705.000000	64.516305 
4704.000000	64.481258 
4703.000000	64.439916 
4702.000000	64.394688 
4701.000000	64.348602 
4700.000000	64.305210 
4699.000000	64.267253 
4698.000000	64.237022 
4697.000000	64.214825 
4696.000000	64.199185 
4695.000000	64.186882 
4694.000000	64.173769 
4693.000000	64.155912 
4692.000000	64.130306 
4691.000000	64.096236 
4690.000000	64.055633 
4689.000000	64.012670 
4688.000000	63.972687 
4687.000000	63.941931 
4686.000000	63.926172 
4685.000000	63.929033 
4684.000000	63.951277 
4683.000000	63.990807 
4682.000000	64.042925 
4681.000000	64.101099 
4680.000000	64.157795 
4679.000000	64.205908 
4678.000000	64.239287 
4677.000000	64.254045 
4676.000000	64.248347 
4675.000000	64.222240 
4674.000000	64.177417 
4673.000000	64.117145 
4672.000000	64.046072 
4671.000000	63.970017 
4670.000000	63.895773 
4669.000000	63.830924 
4668.000000	63.782501 
4667.000000	63.755941 
4666.000000	63.754248 
4665.000000	63.777303 
4664.000000	63.821434 
4663.000000	63.879656 
4662.000000	63.942861 
4661.000000	64.001154 
4660.000000	64.045310 
4659.000000	64.068436 
4658.000000	64.067292 
4657.000000	64.042782 
4656.000000	64.000320 
4655.000000	63.948822 
4654.000000	63.899087 
4653.000000	63.861656 
4652.000000	63.845205 
4651.000000	63.854146 
4650.000000	63.888120 
4649.000000	63.941359 
4648.000000	64.004302 
4647.000000	64.065670 
4646.000000	64.114260 
4645.000000	64.142489 
4644.000000	64.147305 
4643.000000	64.131617 
4642.000000	64.102935 
4641.000000	64.071440 
4640.000000	64.046978 
4639.000000	64.036870 
4638.000000	64.044284 
4637.000000	64.068126 
4636.000000	64.103913 
4635.000000	64.145493 
4634.000000	64.187145 
4633.000000	64.224052 
4632.000000	64.253067 
4631.000000	64.272427 
4630.000000	64.281296 
4629.000000	64.279127 
4628.000000	64.265251 
4627.000000	64.239168 
4626.000000	64.200758 
4625.000000	64.151334 
4624.000000	64.093828 
4623.000000	64.032959 
4622.000000	63.974523 
4621.000000	63.924479 
4620.000000	63.888001 
4619.000000	63.868021 
4618.000000	63.865137 
4617.000000	63.877415 
4616.000000	63.900947 
4615.000000	63.930559 
4614.000000	63.960623 
4613.000000	63.985586 
4612.000000	64.001297 
4611.000000	64.004850 
4610.000000	63.996267 
4609.000000	63.977837 
4608.000000	63.954806 
4607.000000	63.934016 
4606.000000	63.922834 
4605.000000	63.927197 
4604.000000	63.950109 
4603.000000	63.990592 
4602.000000	64.043879 
4601.000000	64.101648 
4600.000000	64.153790 
4599.000000	64.190077 
4598.000000	64.202332 
4597.000000	64.186263 
4596.000000	64.141845 
4595.000000	64.074158 
4594.000000	63.991379 
4593.000000	63.904356 
4592.000000	63.824152 
4591.000000	63.760948 
4590.000000	63.722300 
4589.000000	63.712382 
4588.000000	63.731980 
4587.000000	63.778018 
4586.000000	63.844203 
4585.000000	63.922119 
4584.000000	64.002370 
4583.000000	64.076542 
4582.000000	64.137911 
4581.000000	64.182639 
4580.000000	64.209675 
4579.000000	64.220142 
4578.000000	64.216303 
4577.000000	64.200568 
4576.000000	64.174604 
4575.000000	64.139294 
4574.000000	64.094877 
4573.000000	64.041948 
4572.000000	63.981890 
4571.000000	63.917779 
4570.000000	63.854146 
4569.000000	63.796401 
4568.000000	63.749718 
4567.000000	63.717937 
4566.000000	63.703060 
4565.000000	63.704061 
4564.000000	63.718271 
4563.000000	63.741207 
4562.000000	63.769078 
4561.000000	63.799071 
4560.000000	63.830709 
4559.000000	63.865041 
4558.000000	63.904309 
4557.000000	63.950395 
4556.000000	64.003634 
4555.000000	64.061903 
4554.000000	64.120459 
4553.000000	64.172792 
4552.000000	64.211702 
4551.000000	64.231109 
4550.000000	64.227509 
4549.000000	64.200782 
4548.000000	64.154243 
4547.000000	64.093708 
4546.000000	64.026665 
4545.000000	63.960456 
4544.000000	63.900232 
4543.000000	63.848853 
4542.000000	63.807344 
4541.000000	63.775444 
4540.000000	63.752961 
4539.000000	63.740348 
4538.000000	63.739228 
4537.000000	63.751196 
4536.000000	63.776612 
4535.000000	63.813996 
4534.000000	63.858580 
4533.000000	63.904428 
4532.000000	63.945102 
4531.000000	63.975977 
4530.000000	63.994884 
4529.000000	64.003396 
4528.000000	64.006590 
4527.000000	64.010858 
4526.000000	64.022064 
4525.000000	64.043831 
4524.000000	64.076590 
4523.000000	64.117622 
4522.000000	64.161992 
4521.000000	64.205360 
4520.000000	64.245223 
4519.000000	64.282202 
4518.000000	64.319348 
4517.000000	64.360332 
4516.000000	64.407992 
4515.000000	64.462494 
4514.000000	64.520835 
4513.000000	64.577746 
4512.000000	64.626264 
4511.000000	64.661550 
4510.000000	64.679908 
4509.000000	64.680385 
4508.000000	64.663290 
4507.000000	64.630532 
4506.000000	64.584040 
4505.000000	64.525866 
4504.000000	64.457678 
4503.000000	64.381527 
4502.000000	64.299845 
4501.000000	64.216351 
4500.000000	64.135336 
4499.000000	64.061689 
4498.000000	63.999533 
4497.000000	63.951802 
4496.000000	63.919162 
4495.000000	63.900327 
4494.000000	63.892841 
4493.000000	63.894104 
4492.000000	63.902044 
4491.000000	63.915801 
4490.000000	63.935470 
4489.000000	63.962149 
4488.000000	63.995790 
4487.000000	64.036011 
4486.000000	64.081764 
4485.000000	64.131331 
4484.000000	64.182758 
4483.000000	64.233422 
4482.000000	64.280414 
4481.000000	64.320278 
4480.000000	64.349412 
4479.000000	64.364814 
4478.000000	64.365267 
4477.000000	64.351725 
4476.000000	64.327669 
4475.000000	64.298272 
4474.000000	64.269733 
4473.000000	64.248156 
4472.000000	64.238572 
4471.000000	64.243865 
4470.000000	64.264178 
4469.000000	64.297437 
4468.000000	64.339637 
4467.000000	64.385175 
4466.000000	64.427781 
4465.000000	64.461803 
4464.000000	64.483189 
4463.000000	64.489483 
4462.000000	64.480662 
4461.000000	64.459013 
4460.000000	64.428591 
4459.000000	64.394950 
4458.000000	64.363169 
4457.000000	64.338016 
4456.000000	64.321279 
4455.000000	64.312100 
4454.000000	64.306664 
4453.000000	64.299035 
4452.000000	64.283657 
4451.000000	64.257311 
4450.000000	64.220404 
4449.000000	64.177012 
4448.000000	64.133954 
4447.000000	64.098906 
4446.000000	64.078283 
4445.000000	64.075136 
4444.000000	64.089202 
4443.000000	64.117050 
4442.000000	64.153575 
4441.000000	64.193630 
4440.000000	64.233160 
4439.000000	64.270305 
4438.000000	64.305114 
4437.000000	64.339399 
4436.000000	64.375400 
4435.000000	64.415335 
4434.000000	64.460349 
4433.000000	64.510178 
4432.000000	64.563846 
4431.000000	64.618873 
4430.000000	64.672470 
4429.000000	64.720678 
4428.000000	64.759469 
4427.000000	64.784598 
4426.000000	64.792656 
4425.000000	64.781475 
4424.000000	64.750695 
4423.000000	64.702606 
4422.000000	64.642214 
4421.000000	64.576625 
4420.000000	64.514040 
4419.000000	64.461660 
4418.000000	64.424586 
4417.000000	64.404153 
4416.000000	64.398074 
4415.000000	64.401364 
4414.000000	64.408540 
4413.000000	64.415884 
4412.000000	64.422488 
4411.000000	64.430880 
4410.000000	64.445161 
4409.000000	64.469623 
4408.000000	64.505839 
4407.000000	64.550113 
4406.000000	64.594435 
4405.000000	64.628386 
4404.000000	64.642167 
4403.000000	64.629220 
4402.000000	64.589023 
4401.000000	64.528560 
4400.000000	64.460086 
4399.000000	64.398670 
4398.000000	64.357066 
4397.000000	64.343500 
4396.000000	64.357352 
4395.000000	64.386129 
4394.000000	64.416098 
4393.000000	64.438843 
4392.000000	64.449572 
4391.000000	64.447736 
4390.000000	64.439535 
4389.000000	64.435696 
4388.000000	64.444231 
4387.000000	64.467597 
4386.000000	64.503622 
4385.000000	64.544010 
4384.000000	64.585304 
4383.000000	64.624714 
4382.000000	64.647245 
4381.000000	64.633870 
4380.000000	64.572548 
4379.000000	64.460277 
4378.000000	64.300704 
4377.000000	64.109063 
4376.000000	63.913702 
4375.000000	63.744974 
4374.000000	63.636589 
4373.000000	63.600635 
4372.000000	63.635683 
4371.000000	63.698887 
4370.000000	63.718438 
4369.000000	63.596343 
4368.000000	63.233113 
4367.000000	62.554693 
4366.000000	61.540555 
4365.000000	60.225868 
4364.000000	58.704090 
4363.000000	57.093739 
4362.000000	55.524754 
4361.000000	54.116010 
4360.000000	52.977085 
4359.000000	52.237939 
4358.000000	52.043890 
4357.000000	52.554249 
4356.000000	53.896403 
4355.000000	56.113052 
4354.000000	59.122991 
4353.000000	62.681031 
4352.000000	66.423058 
4351.000000	69.919371 
4350.000000	72.767591 
4349.000000	74.683856 
4348.000000	75.547432 
4347.000000	75.426125 
4346.000000	74.533009 
4345.000000	73.179531 
4344.000000	71.678328 
4343.000000	70.285868 
4342.000000	69.145584 
4341.000000	68.300247 
4340.000000	67.694973 
4339.000000	67.241382 
4338.000000	66.849827 
4337.000000	66.481685 
4336.000000	66.137051 
4335.000000	65.853238 
4334.000000	65.667605 
4333.000000	65.597748 
4332.000000	65.628933 
4331.000000	65.715456 
4330.000000	65.803766 
4329.000000	65.845417 
4328.000000	65.813851 
4327.000000	65.708470 
4326.000000	65.548372 
4325.000000	65.365743 
4324.000000	65.194511 
4323.000000	65.059494 
4322.000000	64.960861 
4321.000000	64.883041 
4320.000000	64.810705 
4319.000000	64.726400 
4318.000000	64.614892 
4317.000000	64.472293 
4316.000000	64.311456 
4315.000000	64.152455 
4314.000000	64.014005 
4313.000000	63.910865 
4312.000000	63.845348 
4311.000000	63.816499 
4310.000000	63.823032 
4309.000000	63.858008 
4308.000000	63.910508 
4307.000000	63.968706 
4306.000000	64.022135 
4305.000000	64.062523 
4304.000000	64.085626 
4303.000000	64.093303 
4302.000000	64.091897 
4301.000000	64.088773 
4300.000000	64.090061 
4299.000000	64.098906 
4298.000000	64.113759 
4297.000000	64.129948 
4296.000000	64.140033 
4295.000000	64.136815 
4294.000000	64.115118 
4293.000000	64.072680 
4292.000000	64.012408 
4291.000000	63.941502 
4290.000000	63.870811 
4289.000000	63.811326 
4288.000000	63.773560 
4287.000000	63.764667 
4286.000000	63.788223 
4285.000000	63.843321 
4284.000000	63.925623 
4283.000000	64.028477 
4282.000000	64.143157 
4281.000000	64.259982 
4280.000000	64.369249 
4279.000000	64.462327 
4278.000000	64.532208 
4277.000000	64.574122 
4276.000000	64.586281 
4275.000000	64.569592 
4274.000000	64.528250 
4273.000000	64.468002 
4272.000000	64.396262 
4271.000000	64.319825 
4270.000000	64.245009 
4269.000000	64.175987 
4268.000000	64.115357 
4267.000000	64.063811 
4266.000000	64.020872 
4265.000000	63.985633 
4264.000000	63.957190 
4263.000000	63.935756 
4262.000000	63.922214 
4261.000000	63.918137 
4260.000000	63.924598 
4259.000000	63.941955 
4258.000000	63.968992 
4257.000000	64.003109 
4256.000000	64.040207 
4255.000000	64.075922 
4254.000000	64.106202 
4253.000000	64.127969 
4252.000000	64.139723 
4251.000000	64.141201 
4250.000000	64.133310 
4249.000000	64.117336 
4248.000000	64.094471 
4247.000000	64.066052 
4246.000000	64.033174 
4245.000000	63.997292 
4244.000000	63.960099 
4243.000000	63.924098 
4242.000000	63.891959 
4241.000000	63.866567 
4240.000000	63.850212 
4239.000000	63.843917 
4238.000000	63.847112 
4237.000000	63.857984 
4236.000000	63.873267 
4235.000000	63.888478 
4234.000000	63.899087 
4233.000000	63.901281 
4232.000000	63.892555 
4231.000000	63.872456 
4230.000000	63.842439 
4229.000000	63.805413 
4228.000000	63.765954 
4227.000000	63.729453 
4226.000000	63.701105 
4225.000000	63.685417 
4224.000000	63.685846 
4223.000000	63.704133 
4222.000000	63.739657 
4221.000000	63.789081 
4220.000000	63.846731 
4219.000000	63.905215 
4218.000000	63.956022 
4217.000000	63.991761 
4216.000000	64.006757 
4215.000000	63.999414 
4214.000000	63.972425 
4213.000000	63.932776 
4212.000000	63.890528 
4211.000000	63.856196 
4210.000000	63.839030 
4209.000000	63.843655 
4208.000000	63.869714 
4207.000000	63.910746 
4206.000000	63.956332 
4205.000000	63.993835 
4204.000000	64.011359 
4203.000000	64.000892 
4202.000000	63.960337 
4201.000000	63.892984 
4200.000000	63.806462 
4199.000000	63.710951 
4198.000000	63.616681 
4197.000000	63.530731 
4196.000000	63.456249 
4195.000000	63.392758 
4194.000000	63.337922 
4193.000000	63.289451 
4192.000000	63.247156 
4191.000000	63.213753 
4190.000000	63.194346 
4189.000000	63.194513 
4188.000000	63.217949 
4187.000000	63.263273 
4186.000000	63.324213 
4185.000000	63.389372 
4184.000000	63.445401 
4183.000000	63.479113 
4182.000000	63.482189 
4181.000000	63.452839 
4180.000000	63.398003 
4179.000000	63.331031 
4178.000000	63.270282 
4177.000000	63.234257 
4176.000000	63.238215 
4175.000000	63.290405 
4174.000000	63.391113 
4173.000000	63.532304 
4172.000000	63.699793 
4171.000000	63.876104 
4170.000000	64.043974 
4169.000000	64.189362 
4168.000000	64.302778 
4167.000000	64.380455 
4166.000000	64.423394 
4165.000000	64.436078 
4164.000000	64.425420 
4163.000000	64.397931 
4162.000000	64.359712 
4161.000000	64.314270 
4160.000000	64.264965 
4159.000000	64.213085 
