PE IR       SPECTRUM    SPECTRUM    ASCII       PEDS        1.60        
  -1
C-9C61~1.ASC
17/03/27
19:23:46.00
17/03/27
19:23:46.00
tln
$C-4040-8_t0060$<tbV0>[2.6,0.0,8.0,0.0,27,1,0]
370.000000
64









2002,4.07    
MIRTGS : RIGHTBACK : INTERNAL 2
MIR : ON : INTERNAL 2
OPTKBR

0.200000
8
8.000000
FILLER
RATIO
SPECTRUM
UNLOCKED 256

DOUBLE
64
COMBINED
1
0
0


1.000000
RATIO


1
0
TRUE
51149
0
LEFT NOT FITTED RIGHT NOT FITTED 0
NONE
NONE
15600
12.000000
4.427000
51148
TRUE
1 0 8 72 0 0 0 0 

15798.010000






#HDR
-1
-1
#GR
CM-1
%T
0.00002384185791015625
0.0
5000.000000
-1.000000
4631
8
93.422961
39.507389
#DATA
5000.000000	65.136027 
4999.000000	65.141320 
4998.000000	65.123939 
4997.000000	65.085458 
4996.000000	65.031313 
4995.000000	64.969396 
4994.000000	64.908385 
4993.000000	64.855432 
4992.000000	64.815330 
4991.000000	64.790391 
4990.000000	64.779996 
4989.000000	64.781999 
4988.000000	64.792466 
4987.000000	64.807343 
4986.000000	64.822340 
4985.000000	64.833498 
4984.000000	64.838671 
4983.000000	64.837980 
4982.000000	64.834189 
4981.000000	64.832401 
4980.000000	64.839935 
4979.000000	64.864420 
4978.000000	64.912796 
4977.000000	64.988327 
4976.000000	65.089464 
4975.000000	65.207982 
4974.000000	65.330839 
4973.000000	65.440702 
4972.000000	65.519905 
4971.000000	65.553092 
4970.000000	65.531086 
4969.000000	65.452551 
4968.000000	65.324783 
4967.000000	65.162396 
4966.000000	64.984345 
4965.000000	64.811158 
4964.000000	64.661574 
4963.000000	64.549708 
4962.000000	64.483547 
4961.000000	64.464616 
4960.000000	64.488959 
4959.000000	64.548754 
4958.000000	64.634418 
4957.000000	64.736223 
4956.000000	64.845442 
4955.000000	64.954996 
4954.000000	65.059375 
4953.000000	65.154123 
4952.000000	65.235781 
4951.000000	65.301203 
4950.000000	65.347909 
4949.000000	65.375018 
4948.000000	65.382695 
4947.000000	65.373539 
4946.000000	65.350794 
4945.000000	65.319085 
4944.000000	65.281820 
4943.000000	65.242004 
4942.000000	65.199995 
4941.000000	65.155434 
4940.000000	65.106058 
4939.000000	65.049648 
4938.000000	64.984536 
4937.000000	64.910292 
4936.000000	64.829516 
4935.000000	64.747262 
4934.000000	64.671730 
4933.000000	64.612293 
4932.000000	64.579105 
4931.000000	64.580512 
4930.000000	64.621400 
4929.000000	64.701366 
4928.000000	64.813876 
4927.000000	64.946627 
4926.000000	65.083527 
4925.000000	65.207338 
4924.000000	65.302371 
4923.000000	65.357661 
4922.000000	65.369367 
4921.000000	65.340662 
4920.000000	65.281105 
4919.000000	65.203428 
4918.000000	65.121173 
4917.000000	65.045332 
4916.000000	64.982724 
4915.000000	64.935541 
4914.000000	64.902973 
4913.000000	64.882731 
4912.000000	64.873647 
4911.000000	64.875531 
4910.000000	64.889192 
4909.000000	64.915561 
4908.000000	64.954042 
4907.000000	65.001702 
4906.000000	65.052461 
4905.000000	65.098309 
4904.000000	65.130710 
4903.000000	65.142989 
4902.000000	65.132284 
4901.000000	65.100932 
4900.000000	65.056347 
4899.000000	65.009832 
4898.000000	64.973330 
4897.000000	64.956974 
4896.000000	64.965438 
4895.000000	64.997100 
4894.000000	65.043282 
4893.000000	65.090084 
4892.000000	65.122222 
4891.000000	65.126895 
4890.000000	65.097808 
4889.000000	65.036082 
4888.000000	64.951491 
4887.000000	64.859819 
4886.000000	64.779520 
4885.000000	64.727830 
4884.000000	64.715456 
4883.000000	64.743947 
4882.000000	64.805197 
4881.000000	64.884424 
4880.000000	64.962935 
4879.000000	65.023207 
4878.000000	65.052819 
4877.000000	65.047121 
4876.000000	65.009570 
4875.000000	64.950013 
4874.000000	64.881634 
4873.000000	64.817357 
4872.000000	64.767932 
4871.000000	64.739346 
4870.000000	64.733266 
4869.000000	64.746332 
4868.000000	64.772081 
4867.000000	64.802145 
4866.000000	64.827561 
4865.000000	64.841270 
4864.000000	64.837980 
4863.000000	64.816951 
4862.000000	64.779829 
4861.000000	64.733195 
4860.000000	64.686655 
4859.000000	64.652228 
4858.000000	64.641427 
4857.000000	64.663386 
4856.000000	64.722466 
4855.000000	64.816856 
4854.000000	64.938688 
4853.000000	65.074825 
4852.000000	65.209412 
4851.000000	65.326857 
4850.000000	65.414786 
4849.000000	65.465736 
4848.000000	65.478038 
4847.000000	65.455508 
4846.000000	65.405941 
4845.000000	65.339493 
4844.000000	65.266108 
4843.000000	65.194964 
4842.000000	65.131950 
4841.000000	65.079808 
4840.000000	65.037202 
4839.000000	65.000987 
4838.000000	64.966511 
4837.000000	64.929008 
4836.000000	64.885139 
4835.000000	64.833092 
4834.000000	64.773893 
4833.000000	64.710521 
4832.000000	64.647841 
4831.000000	64.590787 
4830.000000	64.543890 
4829.000000	64.509868 
4828.000000	64.489626 
4827.000000	64.482045 
4826.000000	64.484977 
4825.000000	64.495825 
4824.000000	64.512634 
4823.000000	64.534282 
4822.000000	64.560890 
4821.000000	64.593243 
4820.000000	64.631605 
4819.000000	64.675307 
4818.000000	64.722371 
4817.000000	64.769840 
4816.000000	64.814281 
4815.000000	64.852571 
4814.000000	64.882588 
4813.000000	64.903354 
4812.000000	64.916157 
4811.000000	64.923048 
4810.000000	64.926028 
4809.000000	64.926314 
4808.000000	64.924120 
4807.000000	64.918804 
4806.000000	64.909338 
4805.000000	64.895439 
4804.000000	64.878153 
4803.000000	64.860582 
4802.000000	64.847469 
4801.000000	64.844322 
4800.000000	64.855861 
4799.000000	64.884710 
4798.000000	64.930653 
4797.000000	64.990139 
4796.000000	65.056943 
4795.000000	65.123867 
4794.000000	65.184330 
4793.000000	65.233588 
4792.000000	65.269780 
4791.000000	65.294671 
4790.000000	65.312862 
4789.000000	65.330004 
4788.000000	65.351104 
4787.000000	65.379667 
4786.000000	65.416193 
4785.000000	65.458750 
4784.000000	65.502405 
4783.000000	65.541791 
4782.000000	65.570664 
4781.000000	65.584540 
4780.000000	65.580320 
4779.000000	65.557122 
4778.000000	65.515923 
4777.000000	65.459418 
4776.000000	65.391230 
4775.000000	65.315532 
4774.000000	65.236544 
4773.000000	65.158677 
4772.000000	65.085411 
4771.000000	65.019702 
4770.000000	64.962720 
4769.000000	64.913940 
4768.000000	64.870500 
4767.000000	64.827942 
4766.000000	64.780449 
4765.000000	64.722728 
4764.000000	64.651679 
4763.000000	64.567923 
4762.000000	64.475846 
4761.000000	64.383506 
4760.000000	64.301109 
4759.000000	64.239096 
4758.000000	64.204955 
4757.000000	64.202094 
4756.000000	64.228534 
4755.000000	64.278006 
4754.000000	64.340662 
4753.000000	64.406061 
4752.000000	64.465308 
4751.000000	64.513015 
4750.000000	64.547276 
4749.000000	64.569711 
4748.000000	64.583444 
4747.000000	64.591765 
4746.000000	64.596819 
4745.000000	64.598727 
4744.000000	64.595508 
4743.000000	64.584898 
4742.000000	64.565896 
4741.000000	64.538931 
4740.000000	64.506411 
4739.000000	64.472889 
4738.000000	64.444231 
4737.000000	64.425253 
4736.000000	64.418721 
4735.000000	64.425110 
4734.000000	64.442181 
4733.000000	64.465570 
4732.000000	64.489459 
4731.000000	64.508676 
4730.000000	64.519286 
4729.000000	64.518713 
4728.000000	64.506530 
4727.000000	64.483690 
4726.000000	64.452743 
4725.000000	64.417004 
4724.000000	64.380502 
4723.000000	64.347076 
4722.000000	64.320683 
4721.000000	64.304995 
4720.000000	64.302921 
4719.000000	64.315819 
4718.000000	64.343786 
4717.000000	64.385485 
4716.000000	64.438676 
4715.000000	64.500117 
4714.000000	64.567041 
4713.000000	64.637470 
4712.000000	64.710402 
4711.000000	64.785456 
4710.000000	64.862656 
4709.000000	64.941573 
4708.000000	65.020799 
4707.000000	65.097212 
4706.000000	65.166974 
4705.000000	65.225315 
4704.000000	65.268468 
4703.000000	65.293264 
4702.000000	65.298795 
4701.000000	65.285181 
4700.000000	65.254497 
4699.000000	65.209364 
4698.000000	65.153145 
4697.000000	65.089106 
4696.000000	65.020728 
4695.000000	64.951372 
4694.000000	64.884638 
4693.000000	64.824151 
4692.000000	64.773869 
4691.000000	64.736700 
4690.000000	64.714121 
4689.000000	64.705181 
4688.000000	64.706516 
4687.000000	64.712524 
4686.000000	64.716458 
4685.000000	64.711499 
4684.000000	64.692020 
4683.000000	64.655113 
4682.000000	64.601039 
4681.000000	64.532828 
4680.000000	64.455890 
4679.000000	64.376878 
4678.000000	64.302563 
4677.000000	64.238405 
4676.000000	64.187932 
4675.000000	64.152240 
4674.000000	64.130640 
4673.000000	64.120721 
4672.000000	64.120030 
4671.000000	64.126253 
4670.000000	64.138555 
4669.000000	64.156699 
4668.000000	64.181423 
4667.000000	64.212727 
4666.000000	64.250373 
4665.000000	64.292836 
4664.000000	64.337468 
4663.000000	64.380455 
4662.000000	64.418244 
4661.000000	64.448046 
4660.000000	64.468216 
4659.000000	64.478659 
4658.000000	64.480638 
4657.000000	64.476490 
4656.000000	64.469003 
4655.000000	64.461112 
4654.000000	64.455270 
4653.000000	64.453315 
4652.000000	64.456748 
4651.000000	64.466571 
4650.000000	64.483785 
4649.000000	64.508605 
4648.000000	64.540553 
4647.000000	64.577889 
4646.000000	64.618182 
4645.000000	64.658474 
4644.000000	64.695072 
4643.000000	64.725017 
4642.000000	64.746499 
4641.000000	64.759445 
4640.000000	64.765381 
4639.000000	64.767122 
4638.000000	64.768362 
4637.000000	64.772295 
4636.000000	64.780879 
4635.000000	64.794158 
4634.000000	64.810276 
4633.000000	64.825201 
4632.000000	64.833974 
4631.000000	64.831185 
4630.000000	64.812469 
4629.000000	64.775562 
4628.000000	64.721274 
4627.000000	64.652848 
4626.000000	64.576244 
4625.000000	64.498877 
4624.000000	64.428806 
4623.000000	64.373207 
4622.000000	64.337420 
4621.000000	64.324307 
4620.000000	64.333796 
4619.000000	64.363217 
4618.000000	64.407896 
4617.000000	64.461612 
4616.000000	64.518308 
4615.000000	64.572310 
4614.000000	64.620399 
4613.000000	64.661407 
4612.000000	64.696812 
4611.000000	64.729452 
4610.000000	64.763140 
4609.000000	64.801144 
4608.000000	64.844846 
4607.000000	64.893102 
4606.000000	64.941716 
4605.000000	64.984226 
4604.000000	65.013289 
4603.000000	65.022587 
4602.000000	65.008354 
4601.000000	64.970707 
4600.000000	64.913702 
4599.000000	64.844894 
4598.000000	64.773774 
4597.000000	64.710259 
4596.000000	64.662361 
4595.000000	64.635777 
4594.000000	64.632987 
4593.000000	64.654111 
4592.000000	64.697217 
4591.000000	64.759182 
4590.000000	64.835858 
4589.000000	64.922189 
4588.000000	65.012121 
4587.000000	65.098881 
4586.000000	65.175080 
4585.000000	65.233659 
4584.000000	65.268397 
4583.000000	65.276050 
4582.000000	65.257573 
4581.000000	65.217971 
4580.000000	65.165925 
4579.000000	65.112018 
4578.000000	65.066552 
4577.000000	65.037083 
4576.000000	65.026521 
4575.000000	65.032720 
4574.000000	65.048980 
4573.000000	65.065884 
4572.000000	65.073823 
4571.000000	65.064764 
4570.000000	65.035128 
4569.000000	64.986038 
4568.000000	64.924120 
4567.000000	64.858841 
4566.000000	64.801216 
4565.000000	64.761543 
4564.000000	64.746451 
4563.000000	64.757370 
4562.000000	64.789891 
4561.000000	64.835667 
4560.000000	64.883255 
4559.000000	64.921402 
4558.000000	64.940905 
4557.000000	64.936399 
4556.000000	64.907598 
4555.000000	64.858865 
4554.000000	64.797353 
4553.000000	64.730858 
4552.000000	64.666485 
4551.000000	64.609241 
4550.000000	64.561319 
4549.000000	64.522886 
4548.000000	64.493346 
4547.000000	64.472866 
4546.000000	64.463281 
4545.000000	64.468646 
4544.000000	64.492917 
4543.000000	64.540100 
4542.000000	64.611315 
4541.000000	64.705419 
4540.000000	64.817643 
4539.000000	64.941263 
4538.000000	65.068459 
4537.000000	65.191698 
4536.000000	65.304708 
4535.000000	65.403079 
4534.000000	65.484881 
4533.000000	65.549468 
4532.000000	65.597295 
4531.000000	65.628314 
4530.000000	65.642571 
4529.000000	65.638399 
4528.000000	65.614080 
4527.000000	65.567517 
4526.000000	65.498352 
4525.000000	65.408587 
4524.000000	65.303730 
4523.000000	65.192508 
4522.000000	65.086317 
4521.000000	64.997291 
4520.000000	64.936494 
4519.000000	64.911723 
4518.000000	64.926028 
4517.000000	64.976525 
4516.000000	65.055370 
4515.000000	65.150785 
4514.000000	65.249919 
4513.000000	65.340828 
4512.000000	65.414953 
4511.000000	65.468096 
4510.000000	65.500164 
4509.000000	65.513658 
4508.000000	65.512633 
4507.000000	65.500402 
4506.000000	65.479493 
4505.000000	65.451979 
4504.000000	65.418910 
4503.000000	65.381669 
4502.000000	65.341472 
4501.000000	65.300679 
4500.000000	65.261268 
4499.000000	65.224909 
4498.000000	65.192556 
4497.000000	65.164375 
4496.000000	65.139651 
4495.000000	65.117263 
4494.000000	65.095806 
4493.000000	65.074443 
4492.000000	65.053272 
4491.000000	65.033960 
4490.000000	65.018844 
4489.000000	65.011692 
4488.000000	65.016555 
4487.000000	65.037846 
4486.000000	65.078854 
4485.000000	65.141057 
4484.000000	65.223455 
4483.000000	65.321564 
4482.000000	65.428185 
4481.000000	65.533041 
4480.000000	65.624427 
4479.000000	65.690994 
4478.000000	65.724563 
4477.000000	65.721297 
4476.000000	65.683007 
4475.000000	65.616059 
4474.000000	65.530109 
4473.000000	65.436267 
4472.000000	65.345191 
4471.000000	65.265107 
4470.000000	65.201163 
4469.000000	65.155410 
4468.000000	65.127730 
4467.000000	65.116262 
4466.000000	65.119147 
4465.000000	65.134692 
4464.000000	65.162301 
4463.000000	65.202093 
4462.000000	65.254688 
4461.000000	65.319657 
4460.000000	65.394973 
4459.000000	65.476417 
4458.000000	65.557217 
4457.000000	65.629482 
4456.000000	65.684890 
4455.000000	65.716218 
4454.000000	65.719270 
4453.000000	65.693831 
4452.000000	65.644764 
4451.000000	65.581488 
4450.000000	65.516138 
4449.000000	65.461254 
4448.000000	65.426921 
4447.000000	65.418863 
4446.000000	65.437102 
4445.000000	65.476226 
4444.000000	65.527248 
4443.000000	65.579915 
4442.000000	65.625429 
4441.000000	65.658450 
4440.000000	65.676975 
4439.000000	65.682363 
4438.000000	65.677642 
4437.000000	65.666937 
4436.000000	65.653729 
4435.000000	65.641021 
4434.000000	65.631532 
4433.000000	65.627717 
4432.000000	65.633058 
4431.000000	65.650510 
4430.000000	65.682554 
4429.000000	65.729141 
4428.000000	65.787935 
4427.000000	65.852808 
4426.000000	65.914535 
4425.000000	65.962672 
4424.000000	65.987372 
4423.000000	65.983009 
4422.000000	65.949535 
4421.000000	65.893745 
4420.000000	65.827798 
4419.000000	65.766382 
4418.000000	65.723156 
4417.000000	65.706992 
4416.000000	65.720009 
4415.000000	65.756273 
4414.000000	65.804171 
4413.000000	65.850305 
4412.000000	65.883588 
4411.000000	65.898919 
4410.000000	65.897822 
4409.000000	65.887093 
4408.000000	65.875601 
4407.000000	65.870904 
4406.000000	65.875506 
4405.000000	65.885853 
4404.000000	65.892910 
4403.000000	65.884089 
4402.000000	65.849137 
4401.000000	65.784883 
4400.000000	65.697431 
4399.000000	65.600538 
4398.000000	65.513825 
4397.000000	65.463757 
4396.000000	65.465927 
4395.000000	65.511298 
4394.000000	65.583539 
4393.000000	65.668916 
4392.000000	65.746212 
4391.000000	65.792775 
4390.000000	65.785408 
4389.000000	65.705442 
4388.000000	65.549898 
4387.000000	65.335178 
4386.000000	65.094065 
4385.000000	64.868879 
4384.000000	64.715552 
4383.000000	64.682364 
4382.000000	64.783906 
4381.000000	64.999485 
4380.000000	65.276026 
4379.000000	65.545225 
4378.000000	65.740537 
4377.000000	65.816235 
4376.000000	65.779757 
4375.000000	65.655732 
4374.000000	65.504932 
4373.000000	65.339159 
4372.000000	65.143442 
4371.000000	64.795184 
4370.000000	64.089894 
4369.000000	62.782168 
4368.000000	60.646462 
4367.000000	57.603311 
4366.000000	53.772950 
4365.000000	49.516248 
4364.000000	45.382356 
4363.000000	41.996192 
4362.000000	39.919376 
4361.000000	39.507389 
4360.000000	40.829467 
4359.000000	43.680381 
4358.000000	47.633528 
4357.000000	52.152657 
4356.000000	56.704545 
4355.000000	60.835933 
4354.000000	64.255213 
4353.000000	66.807603 
4352.000000	68.501567 
4351.000000	69.451570 
4350.000000	69.836139 
4349.000000	69.869446 
4348.000000	69.716858 
4347.000000	69.498682 
4346.000000	69.244766 
4345.000000	68.953585 
4344.000000	68.580627 
4343.000000	68.107891 
4342.000000	67.537569 
4341.000000	66.930246 
4340.000000	66.359710 
4339.000000	65.895533 
4338.000000	65.580987 
4337.000000	65.416336 
4336.000000	65.370035 
4335.000000	65.386986 
4334.000000	65.420508 
4333.000000	65.445899 
4332.000000	65.451431 
4331.000000	65.441441 
4330.000000	65.424966 
4329.000000	65.413951 
4328.000000	65.417885 
4327.000000	65.443849 
4326.000000	65.490245 
4325.000000	65.551710 
4324.000000	65.636467 
4323.000000	65.751862 
4322.000000	65.888428 
4321.000000	66.031074 
4320.000000	66.168117 
4319.000000	66.286563 
4318.000000	66.374778 
4317.000000	66.423821 
4316.000000	66.428518 
4315.000000	66.388630 
4314.000000	66.310310 
4313.000000	66.203022 
4312.000000	66.078209 
4311.000000	65.947985 
4310.000000	65.824437 
4309.000000	65.715861 
4308.000000	65.626239 
4307.000000	65.557813 
4306.000000	65.511703 
4305.000000	65.487360 
4304.000000	65.483260 
4303.000000	65.496802 
4302.000000	65.524601 
4301.000000	65.562248 
4300.000000	65.604805 
4299.000000	65.645885 
4298.000000	65.679574 
4297.000000	65.700888 
4296.000000	65.707898 
4295.000000	65.701246 
4294.000000	65.685462 
4293.000000	65.667724 
4292.000000	65.656638 
4291.000000	65.660214 
4290.000000	65.683507 
4289.000000	65.727877 
4288.000000	65.789389 
4287.000000	65.859866 
4286.000000	65.928459 
4285.000000	65.984535 
4284.000000	66.019749 
4283.000000	66.029953 
4282.000000	66.015911 
4281.000000	65.982770 
4280.000000	65.938854 
4279.000000	65.893220 
4278.000000	65.853238 
4277.000000	65.822720 
4276.000000	65.802145 
4275.000000	65.788245 
4274.000000	65.775322 
4273.000000	65.757536 
4272.000000	65.730357 
4271.000000	65.692758 
4270.000000	65.647602 
4269.000000	65.601587 
4268.000000	65.562534 
4267.000000	65.538191 
4266.000000	65.533900 
4265.000000	65.550971 
4264.000000	65.585970 
4263.000000	65.631270 
4262.000000	65.677452 
4261.000000	65.714764 
4260.000000	65.735673 
4259.000000	65.735769 
4258.000000	65.714812 
4257.000000	65.675759 
4256.000000	65.623688 
4255.000000	65.564465 
4254.000000	65.503454 
4253.000000	65.444779 
4252.000000	65.391063 
4251.000000	65.344238 
4250.000000	65.305662 
4249.000000	65.276885 
4248.000000	65.259075 
4247.000000	65.252232 
4246.000000	65.254831 
4245.000000	65.263223 
4244.000000	65.272402 
4243.000000	65.276408 
4242.000000	65.270185 
4241.000000	65.250539 
4240.000000	65.217256 
4239.000000	65.173316 
4238.000000	65.124082 
4237.000000	65.076303 
4236.000000	65.036225 
4235.000000	65.007805 
4234.000000	64.992332 
4233.000000	64.988398 
4232.000000	64.992618 
4231.000000	65.001082 
4230.000000	65.010356 
4229.000000	65.018534 
4228.000000	65.024995 
4227.000000	65.030503 
4226.000000	65.036034 
4225.000000	65.042448 
4224.000000	65.050125 
4223.000000	65.058732 
4222.000000	65.068340 
4221.000000	65.078663 
4220.000000	65.088605 
4219.000000	65.096163 
4218.000000	65.098714 
4217.000000	65.093779 
4216.000000	65.079164 
4215.000000	65.054512 
4214.000000	65.021514 
4213.000000	64.984512 
4212.000000	64.949417 
4211.000000	64.923334 
4210.000000	64.912962 
4209.000000	64.923191 
4208.000000	64.955830 
4207.000000	65.008926 
4206.000000	65.076994 
4205.000000	65.151596 
4204.000000	65.222787 
4203.000000	65.280723 
4202.000000	65.317606 
4201.000000	65.329623 
4200.000000	65.317940 
4199.000000	65.288162 
4198.000000	65.249371 
4197.000000	65.213274 
4196.000000	65.191435 
4195.000000	65.193414 
4194.000000	65.223979 
4193.000000	65.281820 
4192.000000	65.359520 
4191.000000	65.445399 
4190.000000	65.526223 
4189.000000	65.589976 
4188.000000	65.629172 
4187.000000	65.642189 
4186.000000	65.633535 
4185.000000	65.612125 
4184.000000	65.588641 
4183.000000	65.572834 
4182.000000	65.570402 
4181.000000	65.582656 
4180.000000	65.604829 
4179.000000	65.629100 
4178.000000	65.644621 
4177.000000	65.641236 
4176.000000	65.609955 
4175.000000	65.545606 
4174.000000	65.447092 
4173.000000	65.318322 
4172.000000	65.167093 
4171.000000	65.004873 
4170.000000	64.846444 
4169.000000	64.708328 
4168.000000	64.606714 
4167.000000	64.554929 
4166.000000	64.560961 
4165.000000	64.625692 
4164.000000	64.741325 
4163.000000	64.893031 
4162.000000	65.060734 
4161.000000	65.223288 
4160.000000	65.361166 
4159.000000	65.460634 
