PE IR       SPECTRUM    SPECTRUM    ASCII       PEDS        1.60        
  -1
C-1D6E~1.ASC
17/03/27
20:44:20.00
17/03/27
20:44:20.00
tln
$C-4040-8_t0076$<tbV0>[-10.4,2.6,8.0,0.0,27,1,0]
370.000000
64









2002,4.07    
MIRTGS : RIGHTBACK : INTERNAL 2
MIR : ON : INTERNAL 2
OPTKBR

0.200000
8
8.000000
FILLER
RATIO
SPECTRUM
UNLOCKED 256

DOUBLE
64
COMBINED
1
0
0


1.000000
RATIO


1
0
TRUE
51149
0
LEFT NOT FITTED RIGHT NOT FITTED 0
NONE
NONE
15600
12.000000
4.427000
51148
TRUE
1 0 8 72 0 0 0 0 

15798.010000






#HDR
-1
-1
#GR
CM-1
%T
0.00002384185791015625
0.0
5000.000000
-1.000000
4631
8
83.084726
25.919723
#DATA
5000.000000	65.312528 
4999.000000	65.350675 
4998.000000	65.379619 
4997.000000	65.392851 
4996.000000	65.383410 
4995.000000	65.345978 
4994.000000	65.278911 
4993.000000	65.185928 
4992.000000	65.076398 
4991.000000	64.964413 
4990.000000	64.865779 
4989.000000	64.794898 
4988.000000	64.761137 
4987.000000	64.766883 
4986.000000	64.806532 
4985.000000	64.868044 
4984.000000	64.935851 
4983.000000	64.994955 
4982.000000	65.034604 
4981.000000	65.050673 
4980.000000	65.046215 
4979.000000	65.029931 
4978.000000	65.013837 
4977.000000	65.008592 
4976.000000	65.021038 
4975.000000	65.050315 
4974.000000	65.088963 
4973.000000	65.122628 
4972.000000	65.134835 
4971.000000	65.110278 
4970.000000	65.038943 
4969.000000	64.920163 
4968.000000	64.762997 
4967.000000	64.586281 
4966.000000	64.413833 
4965.000000	64.270615 
4964.000000	64.176869 
4963.000000	64.143943 
4962.000000	64.172053 
4961.000000	64.250659 
4960.000000	64.361333 
4959.000000	64.482855 
4958.000000	64.596104 
4957.000000	64.688849 
4956.000000	64.757418 
4955.000000	64.806771 
4954.000000	64.847111 
4953.000000	64.889407 
4952.000000	64.940762 
4951.000000	65.001678 
4950.000000	65.065217 
4949.000000	65.120053 
4948.000000	65.152692 
4947.000000	65.153741 
4946.000000	65.119171 
4945.000000	65.052342 
4944.000000	64.962720 
4943.000000	64.863586 
4942.000000	64.768886 
4941.000000	64.689660 
4940.000000	64.632320 
4939.000000	64.598155 
4938.000000	64.583349 
4937.000000	64.580965 
4936.000000	64.583277 
4935.000000	64.584183 
4934.000000	64.580392 
4933.000000	64.571404 
4932.000000	64.560031 
4931.000000	64.550733 
4930.000000	64.549088 
4929.000000	64.559912 
4928.000000	64.586257 
4927.000000	64.628219 
4926.000000	64.683580 
4925.000000	64.747834 
4924.000000	64.814424 
4923.000000	64.875793 
4922.000000	64.924979 
4921.000000	64.956712 
4920.000000	64.968609 
4919.000000	64.961552 
4918.000000	64.939308 
4917.000000	64.907956 
4916.000000	64.874458 
4915.000000	64.845561 
4914.000000	64.826989 
4913.000000	64.822292 
4912.000000	64.832973 
4911.000000	64.857959 
4910.000000	64.893889 
4909.000000	64.936280 
4908.000000	64.980840 
4907.000000	65.023112 
4906.000000	65.059089 
4905.000000	65.085101 
4904.000000	65.098476 
4903.000000	65.096974 
4902.000000	65.079236 
4901.000000	65.044951 
4900.000000	64.995455 
4899.000000	64.934611 
4898.000000	64.868831 
4897.000000	64.806628 
4896.000000	64.757180 
4895.000000	64.729237 
4894.000000	64.728498 
4893.000000	64.756059 
4892.000000	64.807152 
4891.000000	64.872169 
4890.000000	64.938092 
4889.000000	64.990282 
4888.000000	65.017271 
4887.000000	65.012240 
4886.000000	64.976716 
4885.000000	64.919161 
4884.000000	64.854645 
4883.000000	64.801001 
4882.000000	64.775156 
4881.000000	64.789199 
4880.000000	64.847016 
4879.000000	64.943456 
4878.000000	65.064764 
4877.000000	65.191984 
4876.000000	65.304446 
4875.000000	65.384602 
4874.000000	65.421104 
4873.000000	65.410876 
4872.000000	65.359139 
4871.000000	65.277409 
4870.000000	65.180993 
4869.000000	65.084910 
4868.000000	65.000557 
4867.000000	64.933514 
4866.000000	64.884805 
4865.000000	64.850497 
4864.000000	64.823818 
4863.000000	64.797830 
4862.000000	64.767575 
4861.000000	64.731621 
4860.000000	64.691781 
4859.000000	64.653182 
4858.000000	64.620900 
4857.000000	64.600157 
4856.000000	64.594292 
4855.000000	64.604091 
4854.000000	64.627051 
4853.000000	64.658570 
4852.000000	64.692854 
4851.000000	64.724016 
4850.000000	64.747405 
4849.000000	64.760017 
4848.000000	64.760780 
4847.000000	64.750790 
4846.000000	64.733338 
4845.000000	64.713740 
4844.000000	64.699149 
4843.000000	64.697265 
4842.000000	64.715600 
4841.000000	64.760851 
4840.000000	64.836812 
4839.000000	64.944028 
4838.000000	65.077781 
4837.000000	65.228486 
4836.000000	65.381741 
4835.000000	65.521502 
4834.000000	65.631127 
4833.000000	65.696787 
4832.000000	65.709280 
4831.000000	65.666818 
4830.000000	65.574383 
4829.000000	65.443015 
4828.000000	65.288400 
4827.000000	65.128517 
4826.000000	64.981055 
4825.000000	64.861130 
4824.000000	64.779877 
4823.000000	64.743423 
4822.000000	64.752697 
4821.000000	64.803814 
4820.000000	64.888072 
4819.000000	64.993572 
4818.000000	65.106606 
4817.000000	65.213632 
4816.000000	65.302348 
4815.000000	65.363740 
4814.000000	65.392899 
4813.000000	65.389919 
4812.000000	65.359473 
4811.000000	65.309643 
4810.000000	65.250754 
4809.000000	65.193152 
4808.000000	65.145564 
4807.000000	65.113711 
4806.000000	65.100622 
4805.000000	65.106034 
4804.000000	65.127325 
4803.000000	65.160512 
4802.000000	65.201926 
4801.000000	65.247964 
4800.000000	65.295410 
4799.000000	65.340924 
4798.000000	65.380835 
4797.000000	65.410947 
4796.000000	65.426874 
4795.000000	65.424656 
4794.000000	65.401792 
4793.000000	65.358638 
4792.000000	65.299105 
4791.000000	65.230584 
4790.000000	65.162849 
4789.000000	65.106201 
4788.000000	65.069484 
4787.000000	65.058517 
4786.000000	65.074872 
4785.000000	65.114831 
4784.000000	65.170598 
4783.000000	65.232276 
4782.000000	65.289974 
4781.000000	65.335392 
4780.000000	65.363574 
4779.000000	65.373086 
4778.000000	65.366101 
4777.000000	65.347194 
4776.000000	65.322113 
4775.000000	65.295839 
4774.000000	65.271687 
4773.000000	65.251255 
4772.000000	65.233874 
4771.000000	65.217852 
4770.000000	65.200543 
4769.000000	65.179634 
4768.000000	65.153598 
4767.000000	65.122222 
4766.000000	65.086412 
4765.000000	65.047645 
4764.000000	65.007734 
4763.000000	64.968132 
4762.000000	64.929795 
4761.000000	64.893078 
4760.000000	64.857554 
4759.000000	64.822936 
4758.000000	64.789319 
4757.000000	64.758157 
4756.000000	64.731311 
4755.000000	64.712047 
4754.000000	64.704012 
4753.000000	64.710664 
4752.000000	64.734530 
4751.000000	64.775919 
4750.000000	64.832472 
4749.000000	64.898896 
4748.000000	64.967560 
4747.000000	65.029358 
4746.000000	65.075421 
4745.000000	65.099024 
4744.000000	65.096902 
4743.000000	65.070295 
4742.000000	65.024805 
4741.000000	64.969205 
4740.000000	64.913392 
4739.000000	64.866709 
4738.000000	64.836120 
4737.000000	64.825034 
4736.000000	64.833331 
4735.000000	64.857959 
4734.000000	64.894413 
4733.000000	64.938187 
4732.000000	64.986133 
4731.000000	65.036320 
4730.000000	65.088510 
4729.000000	65.142893 
4728.000000	65.199422 
4727.000000	65.256714 
4726.000000	65.312027 
4725.000000	65.361547 
4724.000000	65.400862 
4723.000000	65.426826 
4722.000000	65.437364 
4721.000000	65.432381 
4720.000000	65.413594 
4719.000000	65.384602 
4718.000000	65.349912 
4717.000000	65.314364 
4716.000000	65.282511 
4715.000000	65.258049 
4714.000000	65.243291 
4713.000000	65.239000 
4712.000000	65.244364 
4711.000000	65.256929 
4710.000000	65.272688 
4709.000000	65.286660 
4708.000000	65.293574 
4707.000000	65.288591 
4706.000000	65.268158 
4705.000000	65.230822 
4704.000000	65.177345 
4703.000000	65.111398 
4702.000000	65.038704 
4701.000000	64.966678 
4700.000000	64.902496 
4699.000000	64.852523 
4698.000000	64.821720 
4697.000000	64.812684 
4696.000000	64.825129 
4695.000000	64.856529 
4694.000000	64.902281 
4693.000000	64.956927 
4692.000000	65.014457 
4691.000000	65.070056 
4690.000000	65.120100 
4689.000000	65.163064 
4688.000000	65.199065 
4687.000000	65.229415 
4686.000000	65.255856 
4685.000000	65.280151 
4684.000000	65.303492 
4683.000000	65.326142 
4682.000000	65.347123 
4681.000000	65.365314 
4680.000000	65.379118 
4679.000000	65.387225 
4678.000000	65.388464 
4677.000000	65.382385 
4676.000000	65.368843 
4675.000000	65.348362 
4674.000000	65.322017 
4673.000000	65.291452 
4672.000000	65.259099 
4671.000000	65.227651 
4670.000000	65.200376 
4669.000000	65.180611 
4668.000000	65.171384 
4667.000000	65.174841 
4666.000000	65.191960 
4665.000000	65.221881 
4664.000000	65.262341 
4663.000000	65.309762 
4662.000000	65.360021 
4661.000000	65.408992 
4660.000000	65.453910 
4659.000000	65.493464 
4658.000000	65.527939 
4657.000000	65.558505 
4656.000000	65.586423 
4655.000000	65.612339 
4654.000000	65.635514 
4653.000000	65.653753 
4652.000000	65.664386 
4651.000000	65.664815 
4650.000000	65.653896 
4649.000000	65.632247 
4648.000000	65.603399 
4647.000000	65.572214 
4646.000000	65.544342 
4645.000000	65.524148 
4644.000000	65.513563 
4643.000000	65.511369 
4642.000000	65.513467 
4641.000000	65.514373 
4640.000000	65.508913 
4639.000000	65.494179 
4638.000000	65.470385 
4637.000000	65.441203 
4636.000000	65.412712 
4635.000000	65.391683 
4634.000000	65.383386 
4633.000000	65.390610 
4632.000000	65.413045 
4631.000000	65.446996 
4630.000000	65.486431 
4629.000000	65.524744 
4628.000000	65.555882 
4627.000000	65.575432 
4626.000000	65.581107 
4625.000000	65.572571 
4624.000000	65.551352 
4623.000000	65.519857 
4622.000000	65.481257 
4621.000000	65.438985 
4620.000000	65.396285 
4619.000000	65.356826 
4618.000000	65.323185 
4617.000000	65.297579 
4616.000000	65.280413 
4615.000000	65.270733 
4614.000000	65.265941 
4613.000000	65.262603 
4612.000000	65.256810 
4611.000000	65.245199 
4610.000000	65.225458 
4609.000000	65.196847 
4608.000000	65.160059 
4607.000000	65.117120 
4606.000000	65.070629 
4605.000000	65.023279 
4604.000000	64.977383 
4603.000000	64.934873 
4602.000000	64.897346 
4601.000000	64.866185 
4600.000000	64.842939 
4599.000000	64.829206 
4598.000000	64.826536 
4597.000000	64.836072 
4596.000000	64.857840 
4595.000000	64.890432 
4594.000000	64.930915 
4593.000000	64.974474 
4592.000000	65.015769 
4591.000000	65.048623 
4590.000000	65.067172 
4589.000000	65.066790 
4588.000000	65.045428 
4587.000000	65.003728 
4586.000000	64.945173 
4585.000000	64.876198 
4584.000000	64.805507 
4583.000000	64.742565 
4582.000000	64.695787 
4581.000000	64.671230 
4580.000000	64.671611 
4579.000000	64.695334 
4578.000000	64.737153 
4577.000000	64.788746 
4576.000000	64.840650 
4575.000000	64.884281 
4574.000000	64.913892 
4573.000000	64.927053 
4572.000000	64.925241 
4571.000000	64.912962 
4570.000000	64.896678 
4569.000000	64.882683 
4568.000000	64.876079 
4567.000000	64.879727 
4566.000000	64.894151 
4565.000000	64.917969 
4564.000000	64.948654 
4563.000000	64.983248 
4562.000000	65.019559 
4561.000000	65.056514 
4560.000000	65.094375 
4559.000000	65.133738 
4558.000000	65.175628 
4557.000000	65.220427 
4556.000000	65.267443 
4555.000000	65.314698 
4554.000000	65.358734 
4553.000000	65.395188 
4552.000000	65.419077 
4551.000000	65.425777 
4550.000000	65.411591 
4549.000000	65.374517 
4548.000000	65.314984 
4547.000000	65.235972 
4546.000000	65.142345 
4545.000000	65.040445 
4544.000000	64.937305 
4543.000000	64.840054 
4542.000000	64.754295 
4541.000000	64.684939 
4540.000000	64.635300 
4539.000000	64.608335 
4538.000000	64.605760 
4537.000000	64.629602 
4536.000000	64.681005 
4535.000000	64.760184 
4534.000000	64.864993 
4533.000000	64.989733 
4532.000000	65.124988 
4531.000000	65.257716 
4530.000000	65.372657 
4529.000000	65.455126 
4528.000000	65.493535 
4527.000000	65.481686 
4526.000000	65.420341 
4525.000000	65.316414 
4524.000000	65.181851 
4523.000000	65.030980 
4522.000000	64.878010 
4521.000000	64.734625 
4520.000000	64.608955 
4519.000000	64.505553 
4518.000000	64.426255 
4517.000000	64.371156 
4516.000000	64.339876 
4515.000000	64.331746 
4514.000000	64.346098 
4513.000000	64.380288 
4512.000000	64.430379 
4511.000000	64.489197 
4510.000000	64.548921 
4509.000000	64.600968 
4508.000000	64.638686 
4507.000000	64.658236 
4506.000000	64.659619 
4505.000000	64.646339 
4504.000000	64.624094 
4503.000000	64.599084 
4502.000000	64.576387 
4501.000000	64.558792 
4500.000000	64.546537 
4499.000000	64.537763 
4498.000000	64.529943 
4497.000000	64.521074 
4496.000000	64.510536 
4495.000000	64.499449 
4494.000000	64.490342 
4493.000000	64.486265 
4492.000000	64.489698 
4491.000000	64.501476 
4490.000000	64.520144 
4489.000000	64.542007 
4488.000000	64.562916 
4487.000000	64.578342 
4486.000000	64.584493 
4485.000000	64.578723 
4484.000000	64.560723 
4483.000000	64.531779 
4482.000000	64.494085 
4481.000000	64.450812 
4480.000000	64.405536 
4479.000000	64.362359 
4478.000000	64.325547 
4477.000000	64.299154 
4476.000000	64.286971 
4475.000000	64.291357 
4474.000000	64.312863 
4473.000000	64.349174 
4472.000000	64.395332 
4471.000000	64.443945 
4470.000000	64.486169 
4469.000000	64.513468 
4468.000000	64.519214 
4467.000000	64.500188 
4466.000000	64.457416 
4465.000000	64.395713 
4464.000000	64.323329 
4463.000000	64.250349 
4462.000000	64.187431 
4461.000000	64.143180 
4460.000000	64.123964 
4459.000000	64.133048 
4458.000000	64.170694 
4457.000000	64.234185 
4456.000000	64.318704 
4455.000000	64.417672 
4454.000000	64.523744 
4453.000000	64.628863 
4452.000000	64.725828 
4451.000000	64.808320 
4450.000000	64.872264 
4449.000000	64.916086 
4448.000000	64.940381 
4447.000000	64.947581 
4446.000000	64.941287 
4445.000000	64.925861 
4444.000000	64.905595 
4443.000000	64.884185 
4442.000000	64.863610 
4441.000000	64.843988 
4440.000000	64.823842 
4439.000000	64.800286 
4438.000000	64.768838 
4437.000000	64.724779 
4436.000000	64.665579 
4435.000000	64.591431 
4434.000000	64.505314 
4433.000000	64.412569 
4432.000000	64.320278 
4431.000000	64.235949 
4430.000000	64.164543 
4429.000000	64.109659 
4428.000000	64.073514 
4427.000000	64.057111 
4426.000000	64.059090 
4425.000000	64.077520 
4424.000000	64.110207 
4423.000000	64.154553 
4422.000000	64.206194 
4421.000000	64.260911 
4420.000000	64.314246 
4419.000000	64.361548 
4418.000000	64.399242 
4417.000000	64.419484 
4416.000000	64.409613 
4415.000000	64.362978 
4414.000000	64.280438 
4413.000000	64.156842 
4412.000000	63.985157 
4411.000000	63.771486 
4410.000000	63.530826 
4409.000000	63.284873 
4408.000000	63.055753 
4407.000000	62.855744 
4406.000000	62.687754 
4405.000000	62.548995 
4404.000000	62.429475 
4403.000000	62.323188 
4402.000000	62.219905 
4401.000000	62.104463 
4400.000000	61.962342 
4399.000000	61.765670 
4398.000000	61.506891 
4397.000000	61.211085 
4396.000000	60.922765 
4395.000000	60.705852 
4394.000000	60.600352 
4393.000000	60.598969 
4392.000000	60.675120 
4391.000000	60.777282 
4390.000000	60.962438 
4389.000000	61.389756 
4388.000000	62.331151 
4387.000000	64.075374 
4386.000000	66.758370 
4385.000000	70.287489 
4384.000000	74.257016 
4383.000000	78.056812 
4382.000000	81.063437 
4381.000000	82.785296 
4380.000000	83.084726 
4379.000000	82.123756 
4378.000000	80.301046 
4377.000000	78.108787 
4376.000000	75.938510 
4375.000000	74.038982 
4374.000000	72.498226 
4373.000000	71.257138 
4372.000000	70.261168 
4371.000000	69.416522 
4370.000000	68.675708 
4369.000000	68.006563 
4368.000000	67.375946 
4367.000000	66.776371 
4366.000000	66.201281 
4365.000000	65.665888 
4364.000000	65.192842 
4363.000000	64.808726 
4362.000000	64.533185 
4361.000000	64.369845 
4360.000000	64.303445 
4359.000000	64.314031 
4358.000000	64.379692 
4357.000000	64.475870 
4356.000000	64.580154 
4355.000000	64.672279 
4354.000000	64.738845 
4353.000000	64.764261 
4352.000000	64.740538 
4351.000000	64.676809 
4350.000000	64.591336 
4349.000000	64.499902 
4348.000000	64.418387 
4347.000000	64.359283 
4346.000000	64.330172 
4345.000000	64.339590 
4344.000000	64.387369 
4343.000000	64.460897 
4342.000000	64.543485 
4341.000000	64.621901 
4340.000000	64.682435 
4339.000000	64.712190 
4338.000000	64.704871 
4337.000000	64.662003 
4336.000000	64.591050 
4335.000000	64.503216 
4334.000000	64.414429 
4333.000000	64.342093 
4332.000000	64.300155 
4331.000000	64.296913 
4330.000000	64.335179 
4329.000000	64.411330 
4328.000000	64.516186 
4327.000000	64.636921 
4326.000000	64.759492 
4325.000000	64.871144 
4324.000000	64.962124 
4323.000000	65.026688 
4322.000000	65.062642 
4321.000000	65.070652 
4320.000000	65.053391 
4319.000000	65.014338 
4318.000000	64.957928 
4317.000000	64.888215 
4316.000000	64.809751 
4315.000000	64.726948 
4314.000000	64.645361 
4313.000000	64.570426 
4312.000000	64.507484 
4311.000000	64.460587 
4310.000000	64.431929 
4309.000000	64.421725 
4308.000000	64.428257 
4307.000000	64.448213 
4306.000000	64.477252 
4305.000000	64.511036 
4304.000000	64.545679 
4303.000000	64.578223 
4302.000000	64.606738 
4301.000000	64.629364 
4300.000000	64.644861 
4299.000000	64.652013 
4298.000000	64.650535 
4297.000000	64.641380 
4296.000000	64.627003 
4295.000000	64.611268 
4294.000000	64.598274 
4293.000000	64.592361 
4292.000000	64.596080 
4291.000000	64.609670 
4290.000000	64.630675 
4289.000000	64.654684 
4288.000000	64.676284 
4287.000000	64.690685 
4286.000000	64.694714 
4285.000000	64.687585 
4284.000000	64.671492 
4283.000000	64.650964 
4282.000000	64.631867 
4281.000000	64.619755 
4280.000000	64.619016 
4279.000000	64.631676 
4278.000000	64.657592 
4277.000000	64.693999 
4276.000000	64.736747 
4275.000000	64.780306 
4274.000000	64.818882 
4273.000000	64.847207 
4272.000000	64.861011 
4271.000000	64.857959 
4270.000000	64.838790 
4269.000000	64.806795 
4268.000000	64.767813 
4267.000000	64.728569 
4266.000000	64.695620 
4265.000000	64.673781 
4264.000000	64.665269 
4263.000000	64.669752 
4262.000000	64.684939 
4261.000000	64.707565 
4260.000000	64.734411 
4259.000000	64.762830 
4258.000000	64.791059 
4257.000000	64.817762 
4256.000000	64.841532 
4255.000000	64.860534 
4254.000000	64.872455 
4253.000000	64.874839 
4252.000000	64.865660 
4251.000000	64.844655 
4250.000000	64.813494 
4249.000000	64.776206 
4248.000000	64.738082 
4247.000000	64.704465 
4246.000000	64.679431 
4245.000000	64.664602 
4244.000000	64.659214 
4243.000000	64.660525 
4242.000000	64.664793 
4241.000000	64.669013 
4240.000000	64.671230 
4239.000000	64.670944 
4238.000000	64.668822 
4237.000000	64.665913 
4236.000000	64.663267 
4235.000000	64.660787 
4234.000000	64.657616 
4233.000000	64.652395 
4232.000000	64.643716 
4231.000000	64.631152 
4230.000000	64.614915 
4229.000000	64.596223 
4228.000000	64.576530 
4227.000000	64.556932 
4226.000000	64.537596 
4225.000000	64.517641 
4224.000000	64.495372 
4223.000000	64.469289 
4222.000000	64.439249 
4221.000000	64.407205 
4220.000000	64.376497 
4219.000000	64.351749 
4218.000000	64.338040 
4217.000000	64.339876 
4216.000000	64.359474 
4215.000000	64.396715 
4214.000000	64.448952 
4213.000000	64.511227 
4212.000000	64.577937 
4211.000000	64.643049 
4210.000000	64.701128 
4209.000000	64.747929 
4208.000000	64.780926 
4207.000000	64.798688 
4206.000000	64.800500 
4205.000000	64.786553 
4204.000000	64.757704 
4203.000000	64.716124 
4202.000000	64.665603 
4201.000000	64.611506 
4200.000000	64.560580 
4199.000000	64.521121 
4198.000000	64.501905 
4197.000000	64.510822 
4196.000000	64.553570 
4195.000000	64.632511 
4194.000000	64.745807 
4193.000000	64.886999 
4192.000000	65.045356 
4191.000000	65.207529 
4190.000000	65.358734 
4189.000000	65.485692 
4188.000000	65.577340 
4187.000000	65.627145 
4186.000000	65.632295 
4185.000000	65.594863 
4184.000000	65.519857 
4183.000000	65.414881 
4182.000000	65.288710 
4181.000000	65.150976 
4180.000000	65.011310 
4179.000000	64.879322 
4178.000000	64.764618 
4177.000000	64.676666 
4176.000000	64.623880 
4175.000000	64.612555 
4174.000000	64.645743 
4173.000000	64.722156 
4172.000000	64.835762 
4171.000000	64.976024 
4170.000000	65.129446 
4169.000000	65.281438 
4168.000000	65.418219 
4167.000000	65.528607 
4166.000000	65.605211 
4165.000000	65.644693 
4164.000000	65.647459 
4163.000000	65.616607 
4162.000000	65.557909 
4161.000000	65.477824 
4160.000000	65.383934 
4159.000000	65.283179 
