PE IR       SPECTRUM    SPECTRUM    ASCII       PEDS        1.60        
  -1
C-1BE0~1.ASC
17/03/27
17:39:17.00
17/03/27
17:39:17.00
tln
$C-4040-8_t0039$<tbV0>[0.0,-5.2,8.0,0.0,27,1,0]
370.000000
64









2002,4.07    
MIRTGS : RIGHTBACK : INTERNAL 2
MIR : ON : INTERNAL 2
OPTKBR

0.200000
8
8.000000
FILLER
RATIO
SPECTRUM
UNLOCKED 256

DOUBLE
64
COMBINED
1
0
0


1.000000
RATIO


1
0
TRUE
51149
0
LEFT NOT FITTED RIGHT NOT FITTED 0
NONE
NONE
15600
12.000000
4.427000
51148
TRUE
1 0 8 72 0 0 0 0 

15798.010000






#HDR
-1
-1
#GR
CM-1
%T
0.00002384185791015625
0.0
5000.000000
-1.000000
4631
8
70.549368
9.985065
#DATA
5000.000000	63.766479 
4999.000000	63.724970 
4998.000000	63.688445 
4997.000000	63.664960 
4996.000000	63.659691 
4995.000000	63.674616 
4994.000000	63.706398 
4993.000000	63.747954 
4992.000000	63.788485 
4991.000000	63.816118 
4990.000000	63.820385 
4989.000000	63.794660 
4988.000000	63.738250 
4987.000000	63.656473 
4986.000000	63.559842 
4985.000000	63.461589 
4984.000000	63.375973 
4983.000000	63.315320 
4982.000000	63.287997 
4981.000000	63.296914 
4980.000000	63.339495 
4979.000000	63.408780 
4978.000000	63.494420 
4977.000000	63.584995 
4976.000000	63.670396 
4975.000000	63.742852 
4974.000000	63.797211 
4973.000000	63.831067 
4972.000000	63.843679 
4971.000000	63.836264 
4970.000000	63.810777 
4969.000000	63.770866 
4968.000000	63.721728 
4967.000000	63.670110 
4966.000000	63.624405 
4965.000000	63.592576 
4964.000000	63.581562 
4963.000000	63.594770 
4962.000000	63.631319 
4961.000000	63.685846 
4960.000000	63.749599 
4959.000000	63.811945 
4958.000000	63.862633 
4957.000000	63.893747 
4956.000000	63.901114 
4955.000000	63.884687 
4954.000000	63.847827 
4953.000000	63.795185 
4952.000000	63.731384 
4951.000000	63.660478 
4950.000000	63.585925 
4949.000000	63.510894 
4948.000000	63.438940 
4947.000000	63.375616 
4946.000000	63.327002 
4945.000000	63.299083 
4944.000000	63.295435 
4943.000000	63.315916 
4942.000000	63.355731 
4941.000000	63.405847 
4940.000000	63.454723 
4939.000000	63.489961 
4938.000000	63.501787 
4937.000000	63.484525 
4936.000000	63.438320 
4935.000000	63.368391 
4934.000000	63.284468 
4933.000000	63.198328 
4932.000000	63.121724 
4931.000000	63.063955 
4930.000000	63.030862 
4929.000000	63.024139 
4928.000000	63.042163 
4927.000000	63.081169 
4926.000000	63.136720 
4925.000000	63.205265 
4924.000000	63.283729 
4923.000000	63.370585 
4922.000000	63.464760 
4921.000000	63.565397 
4920.000000	63.671040 
4919.000000	63.778734 
4918.000000	63.883829 
4917.000000	63.979697 
4916.000000	64.060115 
4915.000000	64.118313 
4914.000000	64.149713 
4913.000000	64.150714 
4912.000000	64.121294 
4911.000000	64.063048 
4910.000000	63.979864 
4909.000000	63.877248 
4908.000000	63.762235 
4907.000000	63.643574 
4906.000000	63.531374 
4905.000000	63.436365 
4904.000000	63.368582 
4903.000000	63.335585 
4902.000000	63.340711 
4901.000000	63.381648 
4900.000000	63.450384 
4899.000000	63.533926 
4898.000000	63.617110 
4897.000000	63.685345 
4896.000000	63.728404 
4895.000000	63.742280 
4894.000000	63.729953 
4893.000000	63.700413 
4892.000000	63.665556 
4891.000000	63.637018 
4890.000000	63.622522 
4889.000000	63.623785 
4888.000000	63.636326 
4887.000000	63.652229 
4886.000000	63.662004 
4885.000000	63.658094 
4884.000000	63.637137 
4883.000000	63.601922 
4882.000000	63.559269 
4881.000000	63.517761 
4880.000000	63.484978 
4879.000000	63.464736 
4878.000000	63.456249 
4877.000000	63.454532 
4876.000000	63.452172 
4875.000000	63.442015 
4874.000000	63.420677 
4873.000000	63.390231 
4872.000000	63.358068 
4871.000000	63.335514 
4870.000000	63.334250 
4869.000000	63.363432 
4868.000000	63.426709 
4867.000000	63.520884 
4866.000000	63.636279 
4865.000000	63.758182 
4864.000000	63.871359 
4863.000000	63.961362 
4862.000000	64.018774 
4861.000000	64.038515 
4860.000000	64.020609 
4859.000000	63.968491 
4858.000000	63.888120 
4857.000000	63.786482 
4856.000000	63.670706 
4855.000000	63.548374 
4854.000000	63.428115 
4853.000000	63.319158 
4852.000000	63.231396 
4851.000000	63.173699 
4850.000000	63.152670 
4849.000000	63.170194 
4848.000000	63.222503 
4847.000000	63.299822 
4846.000000	63.388323 
4845.000000	63.472628 
4844.000000	63.539171 
4843.000000	63.578748 
4842.000000	63.588261 
4841.000000	63.570809 
4840.000000	63.534474 
4839.000000	63.489413 
4838.000000	63.445568 
4837.000000	63.410735 
4836.000000	63.389182 
4835.000000	63.381886 
4834.000000	63.386917 
4833.000000	63.401842 
4832.000000	63.423800 
4831.000000	63.450670 
4830.000000	63.481092 
4829.000000	63.514161 
4828.000000	63.549017 
4827.000000	63.584089 
4826.000000	63.617467 
4825.000000	63.646745 
4824.000000	63.670253 
4823.000000	63.687562 
4822.000000	63.698649 
4821.000000	63.703703 
4820.000000	63.703107 
4819.000000	63.697052 
4818.000000	63.685107 
4817.000000	63.666415 
4816.000000	63.640427 
4815.000000	63.607025 
4814.000000	63.566994 
4813.000000	63.522028 
4812.000000	63.474321 
4811.000000	63.426208 
4810.000000	63.380002 
4809.000000	63.337445 
4808.000000	63.299465 
4807.000000	63.266491 
4806.000000	63.238263 
4805.000000	63.214612 
4804.000000	63.195395 
4803.000000	63.181257 
4802.000000	63.172721 
4801.000000	63.170838 
4800.000000	63.175988 
4799.000000	63.188815 
4798.000000	63.209629 
4797.000000	63.238692 
4796.000000	63.275527 
4795.000000	63.318967 
4794.000000	63.367104 
4793.000000	63.417148 
4792.000000	63.465547 
4791.000000	63.508939 
4790.000000	63.544344 
4789.000000	63.569998 
4788.000000	63.585090 
4787.000000	63.589930 
4786.000000	63.585638 
4785.000000	63.573956 
4784.000000	63.557028 
4783.000000	63.537120 
4782.000000	63.516664 
4781.000000	63.498544 
4780.000000	63.485193 
4779.000000	63.478279 
4778.000000	63.478517 
4777.000000	63.485670 
4776.000000	63.498091 
4775.000000	63.512778 
4774.000000	63.526391 
4773.000000	63.535881 
4772.000000	63.539576 
4771.000000	63.537383 
4770.000000	63.530850 
4769.000000	63.522577 
4768.000000	63.515400 
4767.000000	63.511514 
4766.000000	63.511300 
4765.000000	63.513159 
4764.000000	63.514304 
4763.000000	63.511729 
4762.000000	63.502883 
4761.000000	63.486456 
4760.000000	63.463211 
4759.000000	63.435506 
4758.000000	63.406205 
4757.000000	63.378596 
4756.000000	63.354873 
4755.000000	63.337135 
4754.000000	63.326168 
4753.000000	63.323140 
4752.000000	63.329291 
4751.000000	63.346505 
4750.000000	63.377237 
4749.000000	63.423109 
4748.000000	63.484120 
4747.000000	63.557410 
4746.000000	63.636946 
4745.000000	63.714075 
4744.000000	63.778829 
4743.000000	63.821840 
4742.000000	63.836193 
4741.000000	63.818907 
4740.000000	63.771629 
4739.000000	63.700294 
4738.000000	63.614082 
4737.000000	63.523125 
4736.000000	63.436603 
4735.000000	63.361573 
4734.000000	63.301992 
4733.000000	63.259005 
4732.000000	63.231635 
4731.000000	63.217568 
4730.000000	63.214731 
4729.000000	63.221263 
4728.000000	63.236689 
4727.000000	63.260602 
4726.000000	63.293170 
4725.000000	63.333749 
4724.000000	63.380956 
4723.000000	63.432121 
4722.000000	63.482880 
4721.000000	63.527727 
4720.000000	63.560700 
4719.000000	63.576412 
4718.000000	63.571572 
4717.000000	63.545942 
4716.000000	63.502955 
4715.000000	63.449335 
4714.000000	63.394403 
4713.000000	63.348340 
4712.000000	63.319969 
4711.000000	63.314604 
4710.000000	63.332676 
4709.000000	63.369703 
4708.000000	63.416957 
4707.000000	63.463854 
4706.000000	63.500261 
4705.000000	63.519167 
4704.000000	63.518404 
4703.000000	63.500928 
4702.000000	63.473248 
4701.000000	63.443899 
4700.000000	63.420987 
4699.000000	63.410377 
4698.000000	63.414335 
4697.000000	63.431501 
4696.000000	63.458108 
4695.000000	63.488650 
4694.000000	63.517832 
4693.000000	63.541197 
4692.000000	63.555908 
4691.000000	63.560700 
4690.000000	63.555407 
4689.000000	63.540625 
4688.000000	63.517308 
4687.000000	63.486933 
4686.000000	63.451552 
4685.000000	63.413953 
4684.000000	63.377642 
4683.000000	63.345885 
4682.000000	63.321471 
4681.000000	63.305592 
4680.000000	63.298153 
4679.000000	63.297462 
4678.000000	63.301420 
4677.000000	63.307762 
4676.000000	63.315200 
4675.000000	63.323807 
4674.000000	63.335013 
4673.000000	63.350772 
4672.000000	63.373112 
4671.000000	63.402676 
4670.000000	63.438558 
4669.000000	63.478207 
4668.000000	63.518047 
4667.000000	63.554024 
4666.000000	63.583111 
4665.000000	63.604164 
4664.000000	63.618087 
4663.000000	63.627743 
4662.000000	63.636660 
4661.000000	63.648104 
4660.000000	63.663721 
4659.000000	63.682723 
4658.000000	63.701963 
4657.000000	63.716578 
4656.000000	63.720846 
4655.000000	63.709831 
4654.000000	63.680863 
4653.000000	63.634347 
4652.000000	63.574051 
4651.000000	63.506841 
4650.000000	63.441252 
4649.000000	63.386392 
4648.000000	63.350224 
4647.000000	63.338327 
4646.000000	63.352894 
4645.000000	63.392257 
4644.000000	63.451719 
4643.000000	63.524222 
4642.000000	63.601088 
4641.000000	63.674068 
4640.000000	63.736367 
4639.000000	63.783693 
4638.000000	63.814163 
4637.000000	63.828372 
4636.000000	63.829064 
4635.000000	63.819813 
4634.000000	63.804244 
4633.000000	63.785219 
4632.000000	63.764786 
4631.000000	63.744020 
4630.000000	63.723421 
4629.000000	63.702893 
4628.000000	63.682198 
4627.000000	63.661551 
4626.000000	63.641524 
4625.000000	63.622784 
4624.000000	63.606142 
4623.000000	63.592147 
4622.000000	63.580965 
4621.000000	63.572072 
4620.000000	63.564348 
4619.000000	63.556385 
4618.000000	63.546490 
4617.000000	63.533473 
4616.000000	63.516259 
4615.000000	63.494491 
4614.000000	63.467884 
4613.000000	63.436603 
4612.000000	63.400745 
4611.000000	63.360500 
4610.000000	63.316798 
4609.000000	63.271570 
4608.000000	63.227987 
4607.000000	63.189959 
4606.000000	63.162159 
4605.000000	63.148975 
4604.000000	63.153815 
4603.000000	63.178277 
4602.000000	63.221788 
4601.000000	63.281440 
4600.000000	63.352584 
4599.000000	63.429212 
4598.000000	63.505125 
4597.000000	63.574194 
4596.000000	63.631343 
4595.000000	63.672494 
4594.000000	63.694572 
4593.000000	63.695716 
4592.000000	63.675642 
4591.000000	63.635587 
4590.000000	63.579034 
4589.000000	63.511133 
4588.000000	63.438916 
4587.000000	63.369798 
4586.000000	63.310718 
4585.000000	63.266730 
4584.000000	63.240480 
4583.000000	63.232016 
4582.000000	63.239312 
4581.000000	63.259029 
4580.000000	63.287448 
4579.000000	63.321447 
4578.000000	63.358640 
4577.000000	63.397383 
4576.000000	63.436269 
4575.000000	63.473701 
4574.000000	63.507509 
4573.000000	63.535237 
4572.000000	63.554453 
4571.000000	63.563704 
4570.000000	63.562488 
4569.000000	63.552403 
4568.000000	63.535737 
4567.000000	63.515877 
4566.000000	63.495326 
4565.000000	63.475060 
4564.000000	63.454556 
4563.000000	63.432264 
4562.000000	63.406205 
4561.000000	63.375210 
4560.000000	63.339400 
4559.000000	63.300633 
4558.000000	63.262176 
4557.000000	63.228201 
4556.000000	63.202118 
4555.000000	63.185381 
4554.000000	63.177561 
4553.000000	63.176274 
4552.000000	63.177895 
4551.000000	63.178777 
4550.000000	63.176488 
4549.000000	63.170933 
4548.000000	63.164687 
4547.000000	63.162159 
4546.000000	63.168239 
4545.000000	63.186526 
4544.000000	63.218164 
4543.000000	63.260412 
4542.000000	63.307332 
4541.000000	63.350105 
4540.000000	63.379478 
4539.000000	63.387393 
4538.000000	63.369131 
4537.000000	63.324403 
4536.000000	63.257622 
4535.000000	63.177394 
4534.000000	63.094258 
4533.000000	63.019585 
4532.000000	62.963247 
4531.000000	62.932205 
4530.000000	62.929296 
4529.000000	62.953591 
4528.000000	63.000893 
4527.000000	63.064551 
4526.000000	63.136696 
4525.000000	63.209366 
4524.000000	63.275504 
4523.000000	63.329505 
4522.000000	63.367748 
4521.000000	63.389039 
4520.000000	63.394474 
4519.000000	63.387393 
4518.000000	63.372516 
4517.000000	63.355207 
4516.000000	63.340067 
4515.000000	63.331246 
4514.000000	63.330483 
4513.000000	63.337492 
4512.000000	63.349318 
4511.000000	63.361811 
4510.000000	63.369488 
4509.000000	63.366842 
4508.000000	63.349080 
4507.000000	63.313293 
4506.000000	63.258695 
4505.000000	63.187193 
4504.000000	63.103032 
4503.000000	63.012266 
4502.000000	62.921833 
4501.000000	62.838268 
4500.000000	62.766814 
4499.000000	62.710618 
4498.000000	62.670373 
4497.000000	62.644553 
4496.000000	62.629842 
4495.000000	62.622523 
4494.000000	62.619686 
4493.000000	62.620568 
4492.000000	62.626004 
4491.000000	62.638616 
4490.000000	62.661457 
4489.000000	62.697219 
4488.000000	62.746310 
4487.000000	62.806725 
4486.000000	62.873888 
4485.000000	62.941241 
4484.000000	63.001918 
4483.000000	63.049769 
4482.000000	63.081145 
4481.000000	63.094568 
4480.000000	63.091588 
4479.000000	63.075256 
4478.000000	63.049554 
4477.000000	63.018012 
4476.000000	62.983465 
4475.000000	62.947583 
4474.000000	62.911629 
4473.000000	62.876701 
4472.000000	62.844610 
4471.000000	62.817096 
4470.000000	62.795758 
4469.000000	62.781953 
4468.000000	62.776470 
4467.000000	62.778854 
4466.000000	62.787795 
4465.000000	62.801718 
4464.000000	62.819314 
4463.000000	62.839508 
4462.000000	62.861704 
4461.000000	62.885379 
4460.000000	62.909698 
4459.000000	62.933039 
4458.000000	62.952804 
4457.000000	62.965822 
4456.000000	62.968754 
4455.000000	62.959313 
4454.000000	62.936234 
4453.000000	62.900900 
4452.000000	62.855696 
4451.000000	62.804412 
4450.000000	62.750744 
4449.000000	62.697863 
4448.000000	62.648415 
4447.000000	62.604498 
4446.000000	62.568402 
4445.000000	62.542557 
4444.000000	62.530517 
4443.000000	62.536621 
4442.000000	62.564468 
4441.000000	62.616038 
4440.000000	62.690758 
4439.000000	62.784862 
4438.000000	62.891221 
4437.000000	63.000321 
4436.000000	63.101410 
4435.000000	63.185071 
4434.000000	63.244867 
4433.000000	63.278841 
4432.000000	63.289690 
4431.000000	63.284111 
4430.000000	63.271474 
4429.000000	63.261508 
4428.000000	63.262224 
4427.000000	63.278174 
4426.000000	63.310980 
4425.000000	63.357782 
4424.000000	63.413381 
4423.000000	63.469934 
4422.000000	63.519740 
4421.000000	63.554787 
4420.000000	63.568568 
4419.000000	63.556027 
4418.000000	63.515019 
4417.000000	63.444209 
4416.000000	63.343930 
4415.000000	63.216686 
4414.000000	63.067865 
4413.000000	62.908411 
4412.000000	62.753629 
4411.000000	62.620282 
4410.000000	62.523698 
4409.000000	62.472963 
4408.000000	62.470316 
4407.000000	62.510490 
4406.000000	62.583446 
4405.000000	62.674331 
4404.000000	62.769556 
4403.000000	62.859988 
4402.000000	62.941765 
4401.000000	63.016605 
4400.000000	63.087606 
4399.000000	63.155221 
4398.000000	63.216280 
4397.000000	63.261198 
4396.000000	63.281059 
4395.000000	63.268995 
4394.000000	63.229751 
4393.000000	63.182091 
4392.000000	63.152050 
4391.000000	63.167691 
4390.000000	63.240480 
4389.000000	63.359880 
4388.000000	63.488960 
4387.000000	63.575696 
4386.000000	63.563466 
4385.000000	63.414859 
4384.000000	63.132071 
4383.000000	62.764835 
4382.000000	62.404632 
4381.000000	62.162017 
4380.000000	62.141418 
4379.000000	62.405586 
4378.000000	62.952160 
4377.000000	63.710165 
4376.000000	64.550209 
4375.000000	65.321302 
4374.000000	65.893197 
4373.000000	66.183185 
4372.000000	66.182422 
4371.000000	65.941190 
4370.000000	65.549921 
4369.000000	65.106320 
4368.000000	64.680933 
4367.000000	64.312314 
4366.000000	64.003729 
4365.000000	63.741660 
4364.000000	63.514614 
4363.000000	63.333106 
4362.000000	63.238072 
4361.000000	63.290047 
4360.000000	63.553524 
4359.000000	64.074683 
4358.000000	64.861822 
4357.000000	65.871834 
4356.000000	67.012190 
4355.000000	68.159532 
4354.000000	69.179821 
4353.000000	69.960308 
4352.000000	70.425128 
4351.000000	70.549368 
4350.000000	70.357584 
4349.000000	69.914507 
4348.000000	69.308710 
4347.000000	68.638825 
4346.000000	67.990303 
4345.000000	67.435479 
4344.000000	67.009615 
4343.000000	66.723942 
4342.000000	66.553115 
4341.000000	66.452503 
4340.000000	66.364550 
4339.000000	66.235995 
4338.000000	66.027212 
4337.000000	65.720319 
4336.000000	65.321660 
4335.000000	64.857697 
4334.000000	64.369845 
4333.000000	63.904213 
4332.000000	63.503909 
4331.000000	63.200473 
4330.000000	63.008379 
4329.000000	62.924218 
4328.000000	62.930774 
4327.000000	63.002300 
4326.000000	63.107180 
4325.000000	63.217282 
4324.000000	63.312005 
4323.000000	63.381719 
4322.000000	63.419795 
4321.000000	63.428092 
4320.000000	63.412928 
4319.000000	63.383126 
4318.000000	63.347029 
4317.000000	63.309717 
4316.000000	63.271880 
4315.000000	63.231158 
4314.000000	63.186168 
4313.000000	63.134765 
4312.000000	63.075399 
4311.000000	63.009881 
4310.000000	62.944173 
4309.000000	62.885260 
4308.000000	62.839221 
4307.000000	62.810420 
4306.000000	62.800002 
4305.000000	62.804746 
4304.000000	62.817955 
4303.000000	62.832474 
4302.000000	62.842249 
4301.000000	62.841749 
4300.000000	62.828135 
4299.000000	62.802433 
4298.000000	62.769103 
4297.000000	62.733745 
4296.000000	62.702465 
4295.000000	62.680578 
4294.000000	62.670993 
4293.000000	62.674331 
4292.000000	62.688088 
4291.000000	62.707662 
4290.000000	62.727117 
4289.000000	62.740850 
4288.000000	62.744545 
4287.000000	62.735962 
4286.000000	62.715363 
4285.000000	62.685108 
4284.000000	62.649440 
4283.000000	62.613558 
4282.000000	62.582921 
4281.000000	62.562036 
4280.000000	62.554526 
4279.000000	62.562584 
4278.000000	62.586569 
4277.000000	62.625050 
4276.000000	62.675189 
4275.000000	62.732839 
4274.000000	62.793064 
4273.000000	62.850666 
4272.000000	62.900710 
4271.000000	62.939500 
4270.000000	62.965369 
4269.000000	62.978482 
4268.000000	62.981247 
4267.000000	62.976813 
4266.000000	62.968897 
4265.000000	62.960028 
4264.000000	62.951779 
4263.000000	62.943601 
4262.000000	62.933373 
4261.000000	62.918400 
4260.000000	62.896680 
4259.000000	62.867879 
4258.000000	62.833976 
4257.000000	62.799191 
4256.000000	62.769007 
4255.000000	62.749052 
4254.000000	62.743592 
4253.000000	62.754201 
4252.000000	62.779021 
4251.000000	62.813210 
4250.000000	62.849760 
4249.000000	62.881040 
4248.000000	62.900495 
4247.000000	62.904119 
4246.000000	62.891077 
4245.000000	62.863230 
4244.000000	62.824654 
4243.000000	62.780737 
4242.000000	62.737083 
4241.000000	62.698078 
4240.000000	62.666916 
4239.000000	62.645411 
4238.000000	62.634539 
4237.000000	62.634778 
4236.000000	62.646102 
4235.000000	62.667846 
4234.000000	62.698578 
4233.000000	62.735819 
4232.000000	62.775921 
4231.000000	62.814092 
4230.000000	62.845206 
4229.000000	62.864422 
4228.000000	62.868738 
4227.000000	62.857675 
4226.000000	62.833404 
4225.000000	62.800121 
4224.000000	62.762999 
4223.000000	62.726688 
4222.000000	62.694239 
4221.000000	62.665939 
4220.000000	62.639737 
4219.000000	62.612009 
4218.000000	62.578487 
4217.000000	62.536573 
4216.000000	62.485957 
4215.000000	62.430191 
4214.000000	62.375140 
4213.000000	62.329077 
4212.000000	62.300562 
4211.000000	62.296724 
4210.000000	62.321782 
4209.000000	62.374973 
4208.000000	62.450075 
4207.000000	62.536096 
4206.000000	62.619972 
4205.000000	62.687730 
4204.000000	62.727379 
4203.000000	62.731027 
4202.000000	62.696671 
4201.000000	62.628102 
4200.000000	62.533855 
4199.000000	62.425947 
4198.000000	62.317371 
4197.000000	62.219858 
4196.000000	62.141776 
4195.000000	62.087726 
4194.000000	62.057828 
4193.000000	62.048244 
4192.000000	62.052345 
4191.000000	62.061929 
4190.000000	62.069559 
4189.000000	62.068629 
4188.000000	62.056589 
4187.000000	62.032604 
4186.000000	62.000966 
4185.000000	61.968207 
4184.000000	61.944293 
4183.000000	61.939239 
4182.000000	61.962509 
4181.000000	62.019848 
4180.000000	62.112760 
4179.000000	62.237501 
4178.000000	62.385153 
4177.000000	62.542939 
4176.000000	62.696504 
4175.000000	62.832140 
4174.000000	62.940025 
4173.000000	63.015675 
4172.000000	63.060331 
4171.000000	63.079762 
4170.000000	63.082647 
4169.000000	63.077616 
4168.000000	63.071942 
4167.000000	63.068890 
4166.000000	63.068032 
4165.000000	63.064599 
4164.000000	63.053107 
4163.000000	63.027644 
4162.000000	62.983989 
4161.000000	62.921094 
4160.000000	62.840962 
4159.000000	62.750196 
