PE IR       SPECTRUM    SPECTRUM    ASCII       PEDS        1.60        
  -1
C-9CEE~1.ASC
17/03/27
19:46:50.00
17/03/27
19:46:50.00
tln
$C-4040-8_t0065$<tbV0>[-10.4,0.0,8.0,0.0,27,1,0]
370.000000
64









2002,4.07    
MIRTGS : RIGHTBACK : INTERNAL 2
MIR : ON : INTERNAL 2
OPTKBR

0.200000
8
8.000000
FILLER
RATIO
SPECTRUM
UNLOCKED 256

DOUBLE
64
COMBINED
1
0
0


1.000000
RATIO


1
0
TRUE
51149
0
LEFT NOT FITTED RIGHT NOT FITTED 0
NONE
NONE
15600
12.000000
4.427000
51148
TRUE
1 0 8 72 0 0 0 0 

15798.010000






#HDR
-1
-1
#GR
CM-1
%T
0.00002384185791015625
0.0
5000.000000
-1.000000
4631
8
90.842032
37.896466
#DATA
5000.000000	64.760661 
4999.000000	64.809250 
4998.000000	64.843058 
4997.000000	64.859867 
4996.000000	64.862847 
4995.000000	64.859342 
4994.000000	64.858484 
4993.000000	64.869093 
4992.000000	64.895749 
4991.000000	64.937925 
4990.000000	64.988684 
4989.000000	65.036702 
4988.000000	65.068984 
4987.000000	65.075182 
4986.000000	65.049338 
4985.000000	64.991950 
4984.000000	64.910864 
4983.000000	64.819765 
4982.000000	64.735174 
4981.000000	64.672994 
4980.000000	64.645648 
4979.000000	64.659643 
4978.000000	64.715790 
4977.000000	64.808893 
4976.000000	64.929008 
4975.000000	65.062999 
4974.000000	65.197181 
4973.000000	65.318489 
4972.000000	65.415596 
4971.000000	65.479946 
4970.000000	65.506339 
4969.000000	65.493130 
4968.000000	65.442872 
4967.000000	65.360999 
4966.000000	65.256309 
4965.000000	65.138030 
4964.000000	65.015816 
4963.000000	64.897084 
4962.000000	64.787387 
4961.000000	64.689278 
4960.000000	64.603281 
4959.000000	64.528942 
4958.000000	64.465951 
4957.000000	64.415717 
4956.000000	64.381504 
4955.000000	64.367485 
4954.000000	64.377832 
4953.000000	64.415192 
4952.000000	64.479517 
4951.000000	64.566612 
4950.000000	64.669013 
4949.000000	64.776682 
4948.000000	64.879226 
4947.000000	64.967703 
4946.000000	65.035963 
4945.000000	65.081477 
4944.000000	65.105342 
4943.000000	65.110969 
4942.000000	65.103435 
4941.000000	65.088582 
4940.000000	65.071678 
4939.000000	65.057516 
4938.000000	65.049052 
4937.000000	65.048170 
4936.000000	65.055346 
4935.000000	65.070843 
4934.000000	65.093541 
4933.000000	65.121412 
4932.000000	65.151524 
4931.000000	65.180659 
4930.000000	65.204739 
4929.000000	65.219283 
4928.000000	65.220332 
4927.000000	65.205025 
4926.000000	65.172219 
4925.000000	65.123081 
4924.000000	65.060901 
4923.000000	64.991235 
4922.000000	64.921665 
4921.000000	64.860439 
4920.000000	64.814329 
4919.000000	64.787817 
4918.000000	64.782786 
4917.000000	64.798069 
4916.000000	64.827728 
4915.000000	64.864826 
4914.000000	64.902853 
4913.000000	64.937925 
4912.000000	64.968514 
4911.000000	64.996623 
4910.000000	65.026021 
4909.000000	65.061616 
4908.000000	65.107297 
4907.000000	65.164113 
4906.000000	65.229177 
4905.000000	65.296602 
4904.000000	65.359234 
4903.000000	65.409326 
4902.000000	65.440511 
4901.000000	65.449476 
4900.000000	65.436339 
4899.000000	65.404176 
4898.000000	65.357184 
4897.000000	65.299701 
4896.000000	65.233469 
4895.000000	65.157794 
4894.000000	65.068268 
4893.000000	64.959144 
4892.000000	64.824080 
4891.000000	64.659047 
4890.000000	64.464640 
4889.000000	64.246439 
4888.000000	64.017438 
4887.000000	63.794517 
4886.000000	63.599324 
4885.000000	63.451838 
4884.000000	63.370585 
4883.000000	63.367104 
4882.000000	63.446092 
4881.000000	63.602280 
4880.000000	63.823127 
4879.000000	64.089655 
4878.000000	64.379572 
4877.000000	64.669346 
4876.000000	64.937186 
4875.000000	65.164923 
4874.000000	65.339565 
4873.000000	65.453314 
4872.000000	65.504240 
4871.000000	65.494656 
4870.000000	65.431761 
4869.000000	65.325021 
4868.000000	65.186619 
4867.000000	65.028500 
4866.000000	64.864158 
4865.000000	64.705443 
4864.000000	64.562845 
4863.000000	64.444351 
4862.000000	64.355826 
4861.000000	64.300608 
4860.000000	64.278650 
4859.000000	64.287924 
4858.000000	64.323806 
4857.000000	64.380526 
4856.000000	64.449810 
4855.000000	64.524054 
4854.000000	64.595603 
4853.000000	64.659094 
4852.000000	64.710831 
4851.000000	64.749956 
4850.000000	64.777684 
4849.000000	64.796781 
4848.000000	64.810585 
4847.000000	64.821028 
4846.000000	64.827990 
4845.000000	64.830183 
4844.000000	64.825344 
4843.000000	64.810729 
4842.000000	64.784288 
4841.000000	64.745998 
4840.000000	64.698290 
4839.000000	64.645791 
4838.000000	64.594435 
4837.000000	64.550018 
4836.000000	64.517354 
4835.000000	64.499759 
4834.000000	64.498186 
4833.000000	64.510989 
4832.000000	64.535164 
4831.000000	64.566946 
4830.000000	64.602947 
4829.000000	64.640212 
4828.000000	64.676737 
4827.000000	64.710831 
4826.000000	64.741683 
4825.000000	64.768528 
4824.000000	64.790773 
4823.000000	64.807462 
4822.000000	64.818000 
4821.000000	64.822268 
4820.000000	64.820766 
4819.000000	64.814782 
4818.000000	64.806103 
4817.000000	64.796733 
4816.000000	64.788508 
4815.000000	64.782762 
4814.000000	64.779949 
4813.000000	64.779806 
4812.000000	64.781594 
4811.000000	64.784383 
4810.000000	64.787578 
4809.000000	64.790797 
4808.000000	64.794468 
4807.000000	64.798784 
4806.000000	64.803743 
4805.000000	64.808082 
4804.000000	64.809966 
4803.000000	64.806461 
4802.000000	64.794778 
4801.000000	64.772748 
4800.000000	64.739322 
4799.000000	64.695882 
4798.000000	64.646172 
4797.000000	64.595961 
4796.000000	64.551877 
4795.000000	64.520740 
4794.000000	64.508152 
4793.000000	64.517211 
4792.000000	64.547681 
4791.000000	64.595794 
4790.000000	64.654970 
4789.000000	64.716815 
4788.000000	64.773011 
4787.000000	64.816403 
4786.000000	64.842987 
4785.000000	64.852452 
4784.000000	64.848065 
4783.000000	64.835381 
4782.000000	64.820528 
4781.000000	64.809179 
4780.000000	64.804005 
4779.000000	64.804673 
4778.000000	64.807081 
4777.000000	64.805436 
4776.000000	64.793038 
4775.000000	64.764833 
4774.000000	64.718794 
4773.000000	64.656758 
4772.000000	64.584350 
4771.000000	64.509725 
4770.000000	64.441704 
4769.000000	64.387655 
4768.000000	64.352035 
4767.000000	64.335751 
4766.000000	64.336299 
4765.000000	64.348912 
4764.000000	64.368128 
4763.000000	64.389681 
4762.000000	64.411163 
4761.000000	64.432811 
4760.000000	64.457035 
4759.000000	64.487266 
4758.000000	64.526176 
4757.000000	64.574289 
4756.000000	64.629459 
4755.000000	64.686846 
4754.000000	64.739966 
4753.000000	64.782071 
4752.000000	64.808464 
4751.000000	64.816975 
4750.000000	64.809441 
4749.000000	64.790034 
4748.000000	64.764142 
4747.000000	64.736676 
4746.000000	64.710974 
4745.000000	64.687991 
4744.000000	64.666295 
4743.000000	64.643335 
4742.000000	64.616894 
4741.000000	64.585542 
4740.000000	64.549350 
4739.000000	64.510202 
4738.000000	64.471197 
4737.000000	64.435243 
4736.000000	64.404654 
4735.000000	64.380288 
4734.000000	64.361763 
4733.000000	64.348244 
4732.000000	64.338946 
4731.000000	64.333438 
4730.000000	64.332056 
4729.000000	64.335727 
4728.000000	64.345693 
4727.000000	64.361953 
4726.000000	64.383959 
4725.000000	64.410018 
4724.000000	64.438128 
4723.000000	64.466094 
4722.000000	64.492344 
4721.000000	64.516258 
4720.000000	64.538407 
4719.000000	64.560127 
4718.000000	64.583349 
4717.000000	64.609932 
4716.000000	64.641237 
4715.000000	64.677643 
4714.000000	64.718294 
4713.000000	64.760899 
4712.000000	64.802312 
4711.000000	64.838814 
4710.000000	64.866757 
4709.000000	64.882898 
4708.000000	64.885115 
4707.000000	64.872407 
4706.000000	64.845371 
4705.000000	64.805817 
4704.000000	64.756751 
4703.000000	64.702081 
4702.000000	64.646220 
4701.000000	64.593768 
4700.000000	64.548945 
4699.000000	64.515519 
4698.000000	64.496493 
4697.000000	64.493680 
4696.000000	64.507603 
4695.000000	64.536929 
4694.000000	64.578175 
4693.000000	64.626097 
4692.000000	64.674162 
4691.000000	64.715838 
4690.000000	64.745616 
4689.000000	64.760041 
4688.000000	64.757990 
4687.000000	64.741086 
4686.000000	64.712953 
4685.000000	64.678335 
4684.000000	64.641928 
4683.000000	64.607667 
4682.000000	64.577913 
4681.000000	64.553356 
4680.000000	64.533138 
4679.000000	64.515233 
4678.000000	64.497470 
4677.000000	64.477705 
4676.000000	64.455342 
4675.000000	64.430594 
4674.000000	64.405941 
4673.000000	64.384698 
4672.000000	64.371705 
4671.000000	64.371609 
4670.000000	64.388394 
4669.000000	64.424324 
4668.000000	64.478826 
4667.000000	64.548110 
4666.000000	64.625215 
4665.000000	64.700913 
4664.000000	64.765667 
4663.000000	64.811253 
4662.000000	64.832544 
4661.000000	64.828395 
4660.000000	64.802002 
4659.000000	64.759993 
4658.000000	64.711141 
4657.000000	64.664387 
4656.000000	64.627623 
4655.000000	64.606189 
4654.000000	64.602613 
4653.000000	64.616489 
4652.000000	64.645361 
4651.000000	64.685273 
4650.000000	64.731764 
4649.000000	64.780664 
4648.000000	64.828205 
4647.000000	64.871549 
4646.000000	64.908337 
4645.000000	64.936900 
4644.000000	64.955973 
4643.000000	64.964699 
4642.000000	64.962887 
4641.000000	64.950609 
4640.000000	64.928913 
4639.000000	64.899134 
4638.000000	64.863491 
4637.000000	64.824748 
4636.000000	64.786219 
4635.000000	64.751338 
4634.000000	64.723563 
4633.000000	64.705634 
4632.000000	64.699292 
4631.000000	64.704394 
4630.000000	64.718794 
4629.000000	64.738512 
4628.000000	64.758133 
4627.000000	64.771723 
4626.000000	64.774203 
4625.000000	64.762687 
4624.000000	64.737272 
4623.000000	64.701247 
4622.000000	64.660310 
4621.000000	64.621734 
4620.000000	64.592170 
4619.000000	64.576315 
4618.000000	64.575314 
4617.000000	64.586806 
4616.000000	64.605426 
4615.000000	64.624381 
4614.000000	64.637446 
4613.000000	64.640355 
4612.000000	64.632773 
4611.000000	64.617800 
4610.000000	64.601707 
4609.000000	64.591598 
4608.000000	64.594125 
4607.000000	64.613270 
4606.000000	64.649724 
4605.000000	64.700603 
4604.000000	64.760327 
4603.000000	64.821553 
4602.000000	64.876675 
4601.000000	64.918828 
4600.000000	64.942955 
4599.000000	64.946198 
4598.000000	64.927887 
4597.000000	64.889645 
4596.000000	64.834690 
4595.000000	64.768433 
4594.000000	64.697337 
4593.000000	64.629054 
4592.000000	64.571619 
4591.000000	64.533042 
4590.000000	64.520072 
4589.000000	64.537191 
4588.000000	64.585590 
4587.000000	64.662647 
4586.000000	64.761996 
4585.000000	64.873695 
4584.000000	64.985585 
4583.000000	65.084934 
4582.000000	65.160727 
4581.000000	65.204787 
4580.000000	65.212988 
4579.000000	65.185952 
4578.000000	65.128636 
4577.000000	65.049529 
4576.000000	64.959144 
4575.000000	64.868426 
4574.000000	64.787077 
4573.000000	64.722776 
4572.000000	64.680290 
4571.000000	64.661669 
4570.000000	64.666247 
4569.000000	64.691233 
4568.000000	64.732289 
4567.000000	64.784169 
4566.000000	64.841103 
4565.000000	64.897203 
4564.000000	64.946889 
4563.000000	64.984989 
4562.000000	65.007019 
4561.000000	65.009856 
4560.000000	64.991688 
4559.000000	64.952588 
4558.000000	64.894318 
4557.000000	64.820480 
4556.000000	64.736175 
4555.000000	64.647889 
4554.000000	64.562439 
4553.000000	64.486575 
4552.000000	64.426016 
4551.000000	64.384961 
4550.000000	64.365458 
4549.000000	64.367794 
4548.000000	64.389967 
4547.000000	64.428591 
4546.000000	64.479327 
4545.000000	64.537906 
4544.000000	64.599752 
4543.000000	64.660978 
4542.000000	64.718818 
4541.000000	64.771652 
4540.000000	64.818477 
4539.000000	64.858508 
4538.000000	64.891433 
4537.000000	64.916038 
4536.000000	64.930796 
4535.000000	64.932966 
4534.000000	64.919853 
4533.000000	64.889049 
4532.000000	64.840102 
4531.000000	64.775204 
4530.000000	64.699339 
4529.000000	64.620804 
4528.000000	64.549946 
4527.000000	64.497947 
4526.000000	64.474606 
4525.000000	64.486575 
4524.000000	64.535784 
4523.000000	64.619207 
4522.000000	64.729356 
4521.000000	64.855575 
4520.000000	64.986109 
4519.000000	65.110158 
4518.000000	65.219688 
4517.000000	65.310072 
4516.000000	65.380358 
4515.000000	65.432119 
4514.000000	65.468096 
4513.000000	65.491771 
4512.000000	65.504884 
4511.000000	65.508675 
4510.000000	65.501904 
4509.000000	65.483260 
4508.000000	65.450286 
4507.000000	65.402269 
4506.000000	65.339660 
4505.000000	65.265321 
4504.000000	65.183949 
4503.000000	65.101456 
4502.000000	65.024566 
4501.000000	64.959716 
4500.000000	64.911961 
4499.000000	64.884257 
4498.000000	64.877438 
4497.000000	64.890193 
4496.000000	64.919281 
4495.000000	64.960098 
4494.000000	65.007257 
4493.000000	65.055346 
4492.000000	65.099263 
4491.000000	65.134954 
4490.000000	65.159440 
4489.000000	65.171694 
4488.000000	65.172004 
4487.000000	65.162515 
4486.000000	65.147757 
4485.000000	65.133190 
4484.000000	65.124607 
4483.000000	65.126323 
4482.000000	65.140962 
4481.000000	65.167498 
4480.000000	65.202331 
4479.000000	65.238499 
4478.000000	65.267968 
4477.000000	65.282583 
4476.000000	65.276527 
4475.000000	65.246677 
4474.000000	65.193438 
4473.000000	65.120458 
4472.000000	65.034246 
4471.000000	64.943051 
4470.000000	64.855623 
4469.000000	64.780545 
4468.000000	64.725351 
4467.000000	64.695906 
4466.000000	64.695835 
4465.000000	64.726352 
4464.000000	64.785671 
4463.000000	64.868712 
4462.000000	64.967155 
4461.000000	65.069699 
4460.000000	65.163898 
4459.000000	65.237736 
4458.000000	65.282273 
4457.000000	65.292501 
4456.000000	65.269303 
4455.000000	65.218615 
4454.000000	65.150856 
4453.000000	65.078949 
4452.000000	65.015530 
4451.000000	64.971375 
4450.000000	64.952540 
4449.000000	64.960002 
4448.000000	64.989137 
4447.000000	65.031552 
4446.000000	65.076780 
4445.000000	65.114903 
4444.000000	65.139579 
4443.000000	65.149664 
4442.000000	65.149354 
4441.000000	65.146660 
4440.000000	65.150856 
4439.000000	65.169286 
4438.000000	65.205264 
4437.000000	65.256619 
4436.000000	65.316033 
4435.000000	65.372872 
4434.000000	65.416431 
4433.000000	65.438747 
4432.000000	65.437173 
4431.000000	65.414857 
4430.000000	65.379381 
4429.000000	65.340518 
4428.000000	65.308213 
4427.000000	65.288805 
4426.000000	65.283703 
4425.000000	65.288424 
4424.000000	65.294885 
4423.000000	65.292978 
4422.000000	65.273952 
4421.000000	65.232634 
4420.000000	65.169358 
4419.000000	65.089178 
4418.000000	65.000605 
4417.000000	64.913272 
4416.000000	64.835453 
4415.000000	64.775252 
4414.000000	64.739131 
4413.000000	64.727854 
4412.000000	64.737558 
4411.000000	64.761281 
4410.000000	64.790701 
4409.000000	64.821648 
4408.000000	64.851760 
4407.000000	64.878010 
4406.000000	64.896273 
4405.000000	64.899373 
4404.000000	64.879846 
4403.000000	64.831590 
4402.000000	64.752984 
4401.000000	64.646506 
4400.000000	64.521002 
4399.000000	64.398622 
4398.000000	64.297723 
4397.000000	64.227318 
4396.000000	64.182496 
4395.000000	64.141607 
4394.000000	64.080095 
4393.000000	63.978481 
4392.000000	63.836097 
4391.000000	63.671565 
4390.000000	63.541173 
4389.000000	63.524842 
4388.000000	63.705897 
4387.000000	64.140200 
4386.000000	64.827322 
4385.000000	65.695881 
4384.000000	66.604375 
4383.000000	67.372107 
4382.000000	67.815947 
4381.000000	67.807602 
4380.000000	67.307257 
4379.000000	66.392874 
4378.000000	65.235996 
4377.000000	64.085626 
4376.000000	63.200306 
4375.000000	62.806606 
4374.000000	63.057565 
4373.000000	63.985109 
4372.000000	65.519475 
4371.000000	67.457842 
4370.000000	69.517874 
4369.000000	71.366333 
4368.000000	72.687101 
4367.000000	73.239350 
4366.000000	72.904157 
4365.000000	71.708869 
4364.000000	69.818449 
4363.000000	67.493057 
4362.000000	65.033698 
4361.000000	62.728881 
4360.000000	60.807394 
4359.000000	59.428620 
4358.000000	58.665728 
4357.000000	58.523392 
4356.000000	58.940148 
4355.000000	59.793782 
4354.000000	60.930657 
4353.000000	62.155604 
4352.000000	63.295745 
4351.000000	64.210796 
4350.000000	64.835786 
4349.000000	65.173840 
4348.000000	65.293264 
4347.000000	65.294003 
4346.000000	65.279078 
4345.000000	65.323138 
4344.000000	65.455222 
4343.000000	65.662097 
4342.000000	65.894699 
4341.000000	66.101837 
4340.000000	66.234827 
4339.000000	66.272091 
4338.000000	66.213035 
4337.000000	66.077518 
4336.000000	65.900468 
4335.000000	65.720844 
4334.000000	65.570592 
4333.000000	65.467190 
4332.000000	65.409684 
4331.000000	65.381121 
4330.000000	65.364980 
4329.000000	65.348243 
4328.000000	65.319466 
4327.000000	65.274477 
4326.000000	65.216493 
4325.000000	65.155434 
4324.000000	65.101766 
4323.000000	65.065741 
4322.000000	65.051293 
4321.000000	65.058064 
4320.000000	65.085458 
4319.000000	65.128755 
4318.000000	65.178394 
4317.000000	65.223741 
4316.000000	65.256071 
4315.000000	65.269231 
4314.000000	65.260481 
4313.000000	65.230917 
4312.000000	65.184473 
4311.000000	65.127706 
4310.000000	65.068268 
4309.000000	65.013504 
4308.000000	64.969038 
4307.000000	64.937448 
4306.000000	64.918351 
4305.000000	64.909076 
4304.000000	64.906096 
4303.000000	64.906787 
4302.000000	64.909982 
4301.000000	64.915704 
4300.000000	64.925003 
4299.000000	64.938545 
4298.000000	64.956617 
4297.000000	64.978313 
4296.000000	65.001893 
4295.000000	65.024256 
4294.000000	65.042757 
4293.000000	65.055179 
4292.000000	65.061616 
4291.000000	65.063881 
4290.000000	65.066409 
4289.000000	65.074682 
4288.000000	65.095043 
4287.000000	65.132808 
4286.000000	65.191602 
4285.000000	65.272116 
4284.000000	65.371346 
4283.000000	65.482831 
4282.000000	65.596938 
4281.000000	65.702366 
4280.000000	65.787672 
4279.000000	65.843272 
4278.000000	65.863251 
4277.000000	65.846228 
4276.000000	65.796113 
4275.000000	65.720510 
4274.000000	65.629386 
4273.000000	65.532374 
4272.000000	65.437459 
4271.000000	65.349483 
4270.000000	65.270614 
4269.000000	65.200734 
4268.000000	65.138888 
4267.000000	65.084981 
4266.000000	65.040159 
4265.000000	65.007638 
4264.000000	64.991044 
4263.000000	64.994192 
4262.000000	65.018653 
4261.000000	65.063071 
4260.000000	65.122199 
4259.000000	65.187668 
4258.000000	65.249061 
4257.000000	65.296125 
4256.000000	65.320587 
4255.000000	65.317749 
4254.000000	65.287470 
4253.000000	65.233683 
4252.000000	65.163445 
4251.000000	65.085530 
4250.000000	65.008592 
4249.000000	64.939594 
4248.000000	64.882516 
4247.000000	64.838242 
4246.000000	64.805078 
4245.000000	64.779758 
4244.000000	64.759039 
4243.000000	64.740324 
4242.000000	64.723587 
4241.000000	64.710021 
4240.000000	64.702939 
4239.000000	64.705562 
4238.000000	64.720964 
4237.000000	64.750218 
4236.000000	64.792656 
4235.000000	64.845418 
4234.000000	64.904308 
4233.000000	64.964485 
4232.000000	65.021157 
4231.000000	65.070557 
4230.000000	65.109944 
4229.000000	65.137910 
4228.000000	65.153884 
4227.000000	65.158057 
4226.000000	65.151429 
4225.000000	65.135741 
4224.000000	65.114140 
4223.000000	65.090608 
4222.000000	65.070438 
4221.000000	65.058493 
4220.000000	65.057444 
4219.000000	65.066671 
4218.000000	65.082263 
4217.000000	65.097427 
4216.000000	65.104341 
4215.000000	65.095806 
4214.000000	65.067243 
4213.000000	65.018057 
4212.000000	64.951992 
4211.000000	64.876437 
4210.000000	64.800238 
4209.000000	64.732456 
4208.000000	64.680147 
4207.000000	64.647626 
4206.000000	64.635920 
4205.000000	64.643025 
4204.000000	64.664554 
4203.000000	64.695072 
4202.000000	64.729285 
4201.000000	64.762854 
4200.000000	64.793157 
4199.000000	64.819359 
4198.000000	64.842486 
4197.000000	64.866232 
4196.000000	64.895415 
4195.000000	64.935469 
4194.000000	64.989304 
4193.000000	65.056467 
4192.000000	65.130615 
4191.000000	65.201020 
4190.000000	65.253305 
4189.000000	65.272593 
4188.000000	65.247535 
4187.000000	65.173339 
4186.000000	65.054249 
4185.000000	64.903020 
4184.000000	64.739847 
4183.000000	64.587712 
4182.000000	64.468908 
4181.000000	64.400029 
4180.000000	64.389801 
4179.000000	64.437603 
4178.000000	64.534497 
4177.000000	64.665603 
4176.000000	64.813208 
4175.000000	64.960217 
4174.000000	65.091395 
4173.000000	65.195012 
4172.000000	65.263175 
4171.000000	65.292119 
4170.000000	65.282559 
4169.000000	65.239238 
4168.000000	65.170860 
4167.000000	65.088605 
4166.000000	65.005397 
4165.000000	64.932870 
4164.000000	64.880275 
4163.000000	64.852166 
4162.000000	64.848470 
4161.000000	64.864563 
4160.000000	64.892292 
4159.000000	64.922714 
