PE IR       SPECTRUM    SPECTRUM    ASCII       PEDS        1.60        
  -1
C-4D09~1.ASC
17/03/28
00:26:33.00
17/03/28
00:26:33.00
tln
$C-4040-8_t0118$<tbV0>[-5.2,13.0,8.0,0.0,27,1,0]
370.000000
64









2002,4.07    
MIRTGS : RIGHTBACK : INTERNAL 2
MIR : ON : INTERNAL 2
OPTKBR

0.200000
8
8.000000
FILLER
RATIO
SPECTRUM
UNLOCKED 256

DOUBLE
64
COMBINED
1
0
0


1.000000
RATIO


1
0
TRUE
51149
0
LEFT NOT FITTED RIGHT NOT FITTED 0
NONE
NONE
15600
12.000000
4.427000
51148
TRUE
1 0 8 72 0 0 0 0 

15798.010000






#HDR
-1
-1
#GR
CM-1
%T
0.00002384185791015625
0.0
5000.000000
-1.000000
4631
8
100.868988
9.752011
#DATA
5000.000000	64.908957  
4999.000000	64.933180  
4998.000000	64.945292  
4997.000000	64.942932  
4996.000000	64.927411  
4995.000000	64.902710  
4994.000000	64.874529  
4993.000000	64.847064  
4992.000000	64.823770  
4991.000000	64.807105  
4990.000000	64.798307  
4989.000000	64.797878  
4988.000000	64.805603  
4987.000000	64.821219  
4986.000000	64.842867  
4985.000000	64.866924  
4984.000000	64.889264  
4983.000000	64.906072  
4982.000000	64.914894  
4981.000000	64.915800  
4980.000000	64.911961  
4979.000000	64.909482  
4978.000000	64.916491  
4977.000000	64.941120  
4976.000000	64.989280  
4975.000000	65.063238  
4974.000000	65.161108  
4973.000000	65.276598  
4972.000000	65.401411  
4971.000000	65.524792  
4970.000000	65.637493  
4969.000000	65.729379  
4968.000000	65.791988  
4967.000000	65.816831  
4966.000000	65.797185  
4965.000000	65.728545  
4964.000000	65.611052  
4963.000000	65.449714  
4962.000000	65.256047  
4961.000000	65.045261  
4960.000000	64.835095  
4959.000000	64.641761  
4958.000000	64.478182  
4957.000000	64.351391  
4956.000000	64.262914  
4955.000000	64.209079  
4954.000000	64.183497  
4953.000000	64.179563  
4952.000000	64.192771  
4951.000000	64.220857  
4950.000000	64.264035  
4949.000000	64.322423  
4948.000000	64.394974  
4947.000000	64.477252  
4946.000000	64.561867  
4945.000000	64.638733  
4944.000000	64.697194  
4943.000000	64.729166  
4942.000000	64.729905  
4941.000000	64.700436  
4940.000000	64.646053  
4939.000000	64.575338  
4938.000000	64.498043  
4937.000000	64.423489  
4936.000000	64.358329  
4935.000000	64.306259  
4934.000000	64.267373  
4933.000000	64.239215  
4932.000000	64.218354  
4931.000000	64.201998  
4930.000000	64.187788  
4929.000000	64.174485  
4928.000000	64.162826  
4927.000000	64.155673  
4926.000000	64.156866  
4925.000000	64.171218  
4924.000000	64.203858  
4923.000000	64.259195  
4922.000000	64.339828  
4921.000000	64.445233  
4920.000000	64.571189  
4919.000000	64.709138  
4918.000000	64.848017  
4917.000000	64.974331  
4916.000000	65.074801  
4915.000000	65.138077  
4914.000000	65.158176  
4913.000000	65.134525  
4912.000000	65.071964  
4911.000000	64.980483  
4910.000000	64.873719  
4909.000000	64.766907  
4908.000000	64.674472  
4907.000000	64.608645  
4906.000000	64.578175  
4905.000000	64.587402  
4904.000000	64.636230  
4903.000000	64.719247  
4902.000000	64.826631  
4901.000000	64.944624  
4900.000000	65.057921  
4899.000000	65.152049  
4898.000000	65.215873  
4897.000000	65.243959  
4896.000000	65.236663  
4895.000000	65.200042  
4894.000000	65.142679  
4893.000000	65.075349  
4892.000000	65.005230  
4891.000000	64.935779  
4890.000000	64.864039  
4889.000000	64.783692  
4888.000000	64.686393  
4887.000000	64.565467  
4886.000000	64.419364  
4885.000000	64.253044  
4884.000000	64.079093  
4883.000000	63.915109  
4882.000000	63.780164  
4881.000000	63.689827  
4880.000000	63.652682  
4879.000000	63.667654  
4878.000000	63.724017  
4877.000000	63.803744  
4876.000000	63.885354  
4875.000000	63.949060  
4874.000000	63.981175  
4873.000000	63.977336  
4872.000000	63.943338  
4871.000000	63.893866  
4870.000000	63.847947  
4869.000000	63.824820  
4868.000000	63.839387  
4867.000000	63.899374  
4866.000000	64.003467  
4865.000000	64.142560  
4864.000000	64.303135  
4863.000000	64.469885  
4862.000000	64.629626  
4861.000000	64.772415  
4860.000000	64.892363  
4859.000000	64.987039  
4858.000000	65.056490  
4857.000000	65.101385  
4856.000000	65.121936  
4855.000000	65.118050  
4854.000000	65.091085  
4853.000000	65.043282  
4852.000000	64.979219  
4851.000000	64.905667  
4850.000000	64.832043  
4849.000000	64.767503  
4848.000000	64.719700  
4847.000000	64.692807  
4846.000000	64.686942  
4845.000000	64.698433  
4844.000000	64.720678  
4843.000000	64.745569  
4842.000000	64.764928  
4841.000000	64.772200  
4840.000000	64.763259  
4839.000000	64.736199  
4838.000000	64.691972  
4837.000000	64.633107  
4836.000000	64.564323  
4835.000000	64.491057  
4834.000000	64.419913  
4833.000000	64.357852  
4832.000000	64.311408  
4831.000000	64.285683  
4830.000000	64.283585  
4829.000000	64.305663  
4828.000000	64.349079  
4827.000000	64.407968  
4826.000000	64.473938  
4825.000000	64.537429  
4824.000000	64.589405  
4823.000000	64.622688  
4822.000000	64.633131  
4821.000000	64.620041  
4820.000000	64.586210  
4819.000000	64.537191  
4818.000000	64.480113  
4817.000000	64.422345  
4816.000000	64.370584  
4815.000000	64.329862  
4814.000000	64.303326  
4813.000000	64.292287  
4812.000000	64.296388  
4811.000000	64.314508  
4810.000000	64.344930  
4809.000000	64.386320  
4808.000000	64.436769  
4807.000000	64.495015  
4806.000000	64.559149  
4805.000000	64.627718  
4804.000000	64.698696  
4803.000000	64.770293  
4802.000000	64.840650  
4801.000000	64.908194  
4800.000000	64.971923  
4799.000000	65.030598  
4798.000000	65.082907  
4797.000000	65.126967  
4796.000000	65.160441  
4795.000000	65.180778  
4794.000000	65.185880  
4793.000000	65.174078  
4792.000000	65.144991  
4791.000000	65.100026  
4790.000000	65.042304  
4789.000000	64.976358  
4788.000000	64.907479  
4787.000000	64.841055  
4786.000000	64.781308  
4785.000000	64.731669  
4784.000000	64.693450  
4783.000000	64.666008  
4782.000000	64.647030  
4781.000000	64.633274  
4780.000000	64.621758  
4779.000000	64.609980  
4778.000000	64.597272  
4777.000000	64.584159  
4776.000000	64.572691  
4775.000000	64.565277  
4774.000000	64.563989  
4773.000000	64.569830  
4772.000000	64.581799  
4771.000000	64.597105  
4770.000000	64.611291  
4769.000000	64.619278  
4768.000000	64.615964  
4767.000000	64.597487  
4766.000000	64.562010  
4765.000000	64.510345  
4764.000000	64.446473  
4763.000000	64.377236  
4762.000000	64.310789  
4761.000000	64.255619  
4760.000000	64.219164  
4759.000000	64.206719  
4758.000000	64.220046  
4757.000000	64.257669  
4756.000000	64.314508  
4755.000000	64.384126  
4754.000000	64.458990  
4753.000000	64.533114  
4752.000000	64.601635  
4751.000000	64.662957  
4750.000000	64.717626  
4749.000000	64.768671  
4748.000000	64.819431  
4747.000000	64.873504  
4746.000000	64.933323  
4745.000000	64.999985  
4744.000000	65.073132  
4743.000000	65.150451  
4742.000000	65.228486  
4741.000000	65.301704  
4740.000000	65.363359  
4739.000000	65.405678  
4738.000000	65.421056  
4737.000000	65.403079  
4736.000000	65.348148  
4735.000000	65.256905  
4734.000000	65.134739  
4733.000000	64.991617  
4732.000000	64.841032  
4731.000000	64.698028  
4730.000000	64.576935  
4729.000000	64.489030  
4728.000000	64.441299  
4727.000000	64.434623  
4726.000000	64.465570  
4725.000000	64.527297  
4724.000000	64.611172  
4723.000000	64.707469  
4722.000000	64.807224  
4721.000000	64.902544  
4720.000000	64.986896  
4719.000000	65.053987  
4718.000000	65.098953  
4717.000000	65.118312  
4716.000000	65.110778  
4715.000000	65.077733  
4714.000000	65.023279  
4713.000000	64.954066  
4712.000000	64.878559  
4711.000000	64.805698  
4710.000000	64.743685  
4709.000000	64.698576  
4708.000000	64.673233  
4707.000000	64.666843  
4706.000000	64.675807  
4705.000000	64.694094  
4704.000000	64.714956  
4703.000000	64.731764  
4702.000000	64.738321  
4701.000000	64.730143  
4700.000000	64.705181  
4699.000000	64.664030  
4698.000000	64.608669  
4697.000000	64.543485  
4696.000000	64.474415  
4695.000000	64.408326  
4694.000000	64.351677  
4693.000000	64.310431  
4692.000000	64.288544  
4691.000000	64.288592  
4690.000000	64.311552  
4689.000000	64.356231  
4688.000000	64.419031  
4687.000000	64.494490  
4686.000000	64.575672  
4685.000000	64.654016  
4684.000000	64.720368  
4683.000000	64.765667  
4682.000000	64.782929  
4681.000000	64.768671  
4680.000000	64.724469  
4679.000000	64.656853  
4678.000000	64.577007  
4677.000000	64.499640  
4676.000000	64.439773  
4675.000000	64.409875  
4674.000000	64.417171  
4673.000000	64.462327  
4672.000000	64.539647  
4671.000000	64.638781  
4670.000000	64.746809  
4669.000000	64.851212  
4668.000000	64.941787  
4667.000000	65.012168  
4666.000000	65.059471  
4665.000000	65.083503  
4664.000000	65.085220  
4663.000000	65.065622  
4662.000000	65.025329  
4661.000000	64.965033  
4660.000000	64.886856  
4659.000000	64.795255  
4658.000000	64.697837  
4657.000000	64.605045  
4656.000000	64.528346  
4655.000000	64.478373  
4654.000000	64.462018  
4653.000000	64.481353  
4652.000000	64.533019  
4651.000000	64.608955  
4650.000000	64.697980  
4649.000000	64.788031  
4648.000000	64.868330  
4647.000000	64.930796  
4646.000000	64.970946  
4645.000000	64.987468  
4644.000000	64.981174  
4643.000000	64.954376  
4642.000000	64.910387  
4641.000000	64.852738  
4640.000000	64.785575  
4639.000000	64.712738  
4638.000000	64.639043  
4637.000000	64.568614  
4636.000000	64.505219  
4635.000000	64.451217  
4634.000000	64.407753  
4633.000000	64.375090  
4632.000000	64.352917  
4631.000000	64.341115  
4630.000000	64.339733  
4629.000000	64.348673  
4628.000000	64.367389  
4627.000000	64.394044  
4626.000000	64.425683  
4625.000000	64.457750  
4624.000000	64.485549  
4623.000000	64.504861  
4622.000000	64.513587  
4621.000000	64.511942  
4620.000000	64.502978  
4619.000000	64.491963  
4618.000000	64.485073  
4617.000000	64.487719  
4616.000000	64.503550  
4615.000000	64.532995  
4614.000000	64.574265  
4613.000000	64.623737  
4612.000000	64.677524  
4611.000000	64.732789  
4610.000000	64.787578  
4609.000000	64.840841  
4608.000000	64.891839  
4607.000000	64.939761  
4606.000000	64.982414  
4605.000000	65.016198  
4604.000000	65.036964  
4603.000000	65.040922  
4602.000000	65.025591  
4601.000000	64.991044  
4600.000000	64.940285  
4599.000000	64.879655  
4598.000000	64.817738  
4597.000000	64.764475  
4596.000000	64.729166  
4595.000000	64.718770  
4594.000000	64.736509  
4593.000000	64.781212  
4592.000000	64.847350  
4591.000000	64.926385  
4590.000000	65.008068  
4589.000000	65.082764  
4588.000000	65.142536  
4587.000000	65.183448  
4586.000000	65.205264  
4585.000000	65.212249  
4584.000000	65.211343  
4583.000000	65.211081  
4582.000000	65.219354  
4581.000000	65.241575  
4580.000000	65.279412  
4579.000000	65.330266  
4578.000000	65.387940  
4577.000000	65.443587  
4576.000000	65.488100  
4575.000000	65.513801  
4574.000000	65.516567  
4573.000000	65.496683  
4572.000000	65.459418  
4571.000000	65.414357  
4570.000000	65.373229  
4569.000000	65.347528  
4568.000000	65.345287  
4567.000000	65.369486  
4566.000000	65.416932  
4565.000000	65.479111  
4564.000000	65.544557  
4563.000000	65.602445  
4562.000000	65.645051  
4561.000000	65.669202  
4560.000000	65.676808  
4559.000000	65.673661  
4558.000000	65.666913  
4557.000000	65.662455  
4556.000000	65.663695  
4555.000000	65.670752  
4554.000000	65.681624  
4553.000000	65.693449  
4552.000000	65.704441  
4551.000000	65.714979  
4550.000000	65.727639  
4549.000000	65.746355  
4548.000000	65.774202  
4547.000000	65.811777  
4546.000000	65.855884  
4545.000000	65.899777  
4544.000000	65.935492  
4543.000000	65.954756  
4542.000000	65.952229  
4541.000000	65.925240  
4540.000000	65.874743  
4539.000000	65.804052  
4538.000000	65.717434  
4537.000000	65.619874  
4536.000000	65.515971  
4535.000000	65.411019  
4534.000000	65.310645  
4533.000000	65.221738  
4532.000000	65.152096  
4531.000000	65.109539  
4530.000000	65.100026  
4529.000000	65.126729  
4528.000000	65.188217  
4527.000000	65.278506  
4526.000000	65.387320  
4525.000000	65.502214  
4524.000000	65.610456  
4523.000000	65.701651  
4522.000000	65.769243  
4521.000000	65.810966  
4520.000000	65.828132  
4519.000000	65.824270  
4518.000000	65.803265  
4517.000000	65.768766  
4516.000000	65.723037  
4515.000000	65.668058  
4514.000000	65.604972  
4513.000000	65.535593  
4512.000000	65.462517  
4511.000000	65.389966  
4510.000000	65.323042  
4509.000000	65.266919  
4508.000000	65.226221  
4507.000000	65.203452  
4506.000000	65.199375  
4505.000000	65.211772  
4504.000000	65.237355  
4503.000000	65.271663  
4502.000000	65.311455  
4501.000000	65.354824  
4500.000000	65.401935  
4499.000000	65.453934  
4498.000000	65.511608  
4497.000000	65.573620  
4496.000000	65.635824  
4495.000000	65.691256  
4494.000000	65.731120  
4493.000000	65.746831  
4492.000000	65.732479  
4491.000000	65.686821  
4490.000000	65.613961  
4489.000000	65.523576  
4488.000000	65.429162  
4487.000000	65.345478  
4486.000000	65.285873  
4485.000000	65.258860  
4484.000000	65.267515  
4483.000000	65.307474  
4482.000000	65.368509  
4481.000000	65.435862  
4480.000000	65.493750  
4479.000000	65.528512  
4478.000000	65.530753  
4477.000000	65.498185  
4476.000000	65.434789  
4475.000000	65.351319  
4474.000000	65.262079  
4473.000000	65.182685  
4472.000000	65.126705  
4471.000000	65.103816  
4470.000000	65.118527  
4469.000000	65.169763  
4468.000000	65.251851  
4467.000000	65.356278  
4466.000000	65.473675  
4465.000000	65.595340  
4464.000000	65.714049  
4463.000000	65.824103  
4462.000000	65.921115  
4461.000000	66.001319  
4460.000000	66.061401  
4459.000000	66.098690  
4458.000000	66.111612  
4457.000000	66.101145  
4456.000000	66.069889  
4455.000000	66.022944  
4454.000000	65.966200  
4453.000000	65.907287  
4452.000000	65.852189  
4451.000000	65.805673  
4450.000000	65.769290  
4449.000000	65.742158  
4448.000000	65.720367  
4447.000000	65.698432  
4446.000000	65.670728  
4445.000000	65.633177  
4444.000000	65.586352  
4443.000000	65.535998  
4442.000000	65.491414  
4441.000000	65.462660  
4440.000000	65.460085  
4439.000000	65.491175  
4438.000000	65.552759  
4437.000000	65.633273  
4436.000000	65.721273  
4435.000000	65.805864  
4434.000000	65.875768  
4433.000000	65.922689  
4432.000000	65.947175  
4431.000000	65.954685  
4430.000000	65.942668  
4429.000000	65.911793  
4428.000000	65.874433  
4427.000000	65.844297  
4426.000000	65.831446  
4425.000000	65.841865  
4424.000000	65.875267  
4423.000000	65.926885  
4422.000000	65.991234  
4421.000000	66.059732  
4420.000000	66.120171  
4419.000000	66.165637  
4418.000000	66.197872  
4417.000000	66.209173  
4416.000000	66.178631  
4415.000000	66.074943  
4414.000000	65.859222  
4413.000000	65.482091  
4412.000000	64.896464  
4411.000000	64.081072  
4410.000000	63.042974  
4409.000000	61.835289  
4408.000000	60.526156  
4407.000000	59.210896  
4406.000000	57.949304  
4405.000000	56.744909  
4404.000000	55.536627  
4403.000000	54.200577  
4402.000000	52.619171  
4401.000000	50.711989  
4400.000000	48.512434  
4399.000000	46.166372  
4398.000000	43.943190  
4397.000000	42.156672  
4396.000000	41.125059  
4395.000000	41.059446  
4394.000000	42.056727  
4393.000000	44.056463  
4392.000000	46.868205  
4391.000000	50.201916  
4390.000000	53.718876  
4389.000000	57.089328  
4388.000000	60.036015  
4387.000000	62.373614  
4386.000000	64.034008  
4385.000000	65.058207  
4384.000000	65.582752  
4383.000000	65.786194  
4382.000000	65.845417  
4381.000000	65.886878  
4380.000000	65.988516  
4379.000000	66.158223  
4378.000000	66.377854  
4377.000000	66.599845  
4376.000000	66.812133  
4375.000000	67.008137  
4374.000000	67.191958  
4373.000000	67.368721  
4372.000000	67.531657  
4371.000000	67.668390  
4370.000000	67.758369  
4369.000000	67.786550  
4368.000000	67.758178  
4367.000000	67.684197  
4366.000000	67.581057  
4365.000000	67.461276  
4364.000000	67.329549  
4363.000000	67.184829  
4362.000000	67.023038  
4361.000000	66.840052  
4360.000000	66.635036  
4359.000000	66.419625  
4358.000000	66.215753  
4357.000000	66.035342  
4356.000000	65.883159  
4355.000000	65.766668  
4354.000000	65.691423  
4353.000000	65.655159  
4352.000000	65.650653  
4351.000000	65.667986  
4350.000000	65.695238  
4349.000000	65.718626  
4348.000000	65.726161  
4347.000000	65.708684  
4346.000000	65.662288  
4345.000000	65.587282  
4344.000000	65.489935  
4343.000000	65.380644  
4342.000000	65.272045  
4341.000000	65.176391  
4340.000000	65.103435  
4339.000000	65.059113  
4338.000000	65.044116  
4337.000000	65.054368  
4336.000000	65.082716  
4335.000000	65.120792  
4334.000000	65.161395  
4333.000000	65.199828  
4332.000000	65.233325  
4331.000000	65.261030  
4330.000000	65.283012  
4329.000000	65.299844  
4328.000000	65.311336  
4327.000000	65.317249  
4326.000000	65.318250  
4325.000000	65.315771  
4324.000000	65.311861  
4323.000000	65.309405  
4322.000000	65.312170  
4321.000000	65.323996  
4320.000000	65.347623  
4319.000000	65.384101  
4318.000000	65.432858  
4317.000000	65.490579  
4316.000000	65.552139  
4315.000000	65.610742  
4314.000000	65.659594  
4313.000000	65.693044  
4312.000000	65.707945  
4311.000000	65.704178  
4310.000000	65.684771  
4309.000000	65.654420  
4308.000000	65.618300  
4307.000000	65.580868  
4306.000000	65.544748  
4305.000000	65.510725  
4304.000000	65.477705  
4303.000000	65.443539  
4302.000000	65.406346  
4301.000000	65.365290  
4300.000000	65.321850  
4299.000000	65.279078  
4298.000000	65.242147  
4297.000000	65.216970  
4296.000000	65.209388  
4295.000000	65.223550  
4294.000000	65.260887  
4293.000000	65.319323  
4292.000000	65.392923  
4291.000000	65.472745  
4290.000000	65.547609  
4289.000000	65.606164  
4288.000000	65.638661  
4287.000000	65.638947  
4286.000000	65.605688  
4285.000000	65.542864  
4284.000000	65.458869  
4283.000000	65.364789  
4282.000000	65.271997  
4281.000000	65.190029  
4280.000000	65.124487  
4279.000000	65.076470  
4278.000000	65.042924  
4277.000000	65.018296  
4276.000000	64.996409  
4275.000000	64.973092  
4274.000000	64.946508  
4273.000000	64.918518  
4272.000000	64.893126  
4271.000000	64.875984  
4270.000000	64.871525  
4269.000000	64.882636  
4268.000000	64.908766  
4267.000000	64.946889  
4266.000000	64.992046  
4265.000000	65.038800  
4264.000000	65.082740  
4263.000000	65.120506  
4262.000000	65.150690  
4261.000000	65.172672  
4260.000000	65.186357  
4259.000000	65.191364  
4258.000000	65.186858  
4257.000000	65.171647  
4256.000000	65.144801  
4255.000000	65.106344  
4254.000000	65.057897  
4253.000000	65.003180  
4252.000000	64.947938  
4251.000000	64.898729  
4250.000000	64.862036  
4249.000000	64.843058  
4248.000000	64.844655  
4247.000000	64.866161  
4246.000000	64.903473  
4245.000000	64.949917  
4244.000000	64.997458  
4243.000000	65.038371  
4242.000000	65.066909  
4241.000000	65.079903  
4240.000000	65.077948  
4239.000000	65.064430  
4238.000000	65.045046  
4237.000000	65.026235  
4236.000000	65.013861  
4235.000000	65.012097  
4234.000000	65.022349  
4233.000000	65.043497  
4232.000000	65.071988  
4231.000000	65.103077  
4230.000000	65.131592  
4229.000000	65.153241  
4228.000000	65.165424  
4227.000000	65.167689  
4226.000000	65.161633  
4225.000000	65.150189  
4224.000000	65.137434  
4223.000000	65.127062  
4222.000000	65.122199  
4221.000000	65.124297  
4220.000000	65.133261  
4219.000000	65.147447  
4218.000000	65.164351  
4217.000000	65.181255  
4216.000000	65.195798  
4215.000000	65.206336  
4214.000000	65.212440  
4213.000000	65.214586  
4212.000000	65.213871  
4211.000000	65.211892  
4210.000000	65.210294  
4209.000000	65.210533  
4208.000000	65.213489  
4207.000000	65.219569  
4206.000000	65.229225  
4205.000000	65.242171  
4204.000000	65.257716  
4203.000000	65.274119  
4202.000000	65.288925  
4201.000000	65.299105  
4200.000000	65.301728  
4199.000000	65.293741  
4198.000000	65.272855  
4197.000000	65.239167  
4196.000000	65.195417  
4195.000000	65.146040  
4194.000000	65.096783  
