PE IR       SPECTRUM    SPECTRUM    ASCII       PEDS        1.60        
  -1
C-4040~3.ASC
17/03/27
14:35:34.00
17/03/27
14:35:34.00
tln
$C-4040-8_t0001$<tbV0>[13.0,-13.0,8.0,0.0,27,1,0]
370.000000
64









2002,4.07    
MIRTGS : RIGHTBACK : INTERNAL 2
MIR : ON : INTERNAL 2
OPTKBR

0.200000
8
8.000000
FILLER
RATIO
SPECTRUM
UNLOCKED 256

DOUBLE
64
COMBINED
1
0
0


1.000000
RATIO


1
0
TRUE
51149
0
LEFT NOT FITTED RIGHT NOT FITTED 0
NONE
NONE
15600
12.000000
4.427000
51148
TRUE
1 0 8 72 0 0 0 0 

15798.010000






#HDR
-1
-1
#GR
CM-1
%T
0.00002384185791015625
0.0
5000.000000
-1.000000
4631
8
70.695090
36.721873
#DATA
5000.000000	62.915992 
4999.000000	62.549638 
4998.000000	62.313199 
4997.000000	62.223672 
4996.000000	62.279772 
4995.000000	62.459874 
4994.000000	62.727904 
4993.000000	63.035678 
4992.000000	63.336968 
4991.000000	63.592338 
4990.000000	63.778710 
4989.000000	63.888263 
4988.000000	63.930416 
4987.000000	63.924288 
4986.000000	63.895392 
4985.000000	63.867664 
4984.000000	63.859200 
4983.000000	63.878369 
4982.000000	63.924503 
4981.000000	63.989472 
4980.000000	64.060163 
4979.000000	64.123058 
4978.000000	64.165925 
4977.000000	64.182949 
4976.000000	64.176821 
4975.000000	64.158606 
4974.000000	64.145135 
4973.000000	64.153313 
4972.000000	64.195990 
4971.000000	64.275813 
4970.000000	64.385986 
4969.000000	64.508080 
4968.000000	64.614892 
4967.000000	64.678692 
4966.000000	64.679408 
4965.000000	64.610505 
4964.000000	64.480352 
4963.000000	64.312911 
4962.000000	64.142370 
4961.000000	64.004302 
4960.000000	63.927030 
4959.000000	63.924479 
4958.000000	63.992810 
4957.000000	64.115500 
4956.000000	64.268398 
4955.000000	64.426565 
4954.000000	64.568734 
4953.000000	64.679050 
4952.000000	64.746975 
4951.000000	64.764213 
4950.000000	64.724135 
4949.000000	64.620804 
4948.000000	64.451193 
4947.000000	64.217615 
4946.000000	63.931560 
4945.000000	63.613557 
4944.000000	63.294935 
4943.000000	63.012504 
4942.000000	62.806200 
4941.000000	62.710022 
4940.000000	62.748003 
4939.000000	62.927412 
4938.000000	63.237500 
4937.000000	63.649845 
4936.000000	64.121961 
4935.000000	64.603734 
4934.000000	65.044045 
4933.000000	65.398025 
4932.000000	65.633511 
4931.000000	65.734601 
4930.000000	65.703964 
4929.000000	65.560412 
4928.000000	65.336561 
4927.000000	65.071487 
4926.000000	64.804673 
4925.000000	64.568781 
4924.000000	64.386034 
4923.000000	64.266252 
4922.000000	64.209222 
4921.000000	64.207410 
4920.000000	64.249682 
4919.000000	64.325809 
4918.000000	64.427018 
4917.000000	64.548397 
4916.000000	64.685273 
4915.000000	64.834499 
4914.000000	64.989018 
4913.000000	65.141081 
4912.000000	65.280675 
4911.000000	65.399265 
4910.000000	65.491414 
4909.000000	65.555906 
4908.000000	65.597391 
4907.000000	65.622639 
4906.000000	65.639472 
4905.000000	65.651607 
4904.000000	65.657639 
4903.000000	65.651345 
4902.000000	65.624356 
4901.000000	65.568184 
4900.000000	65.477824 
4899.000000	65.354752 
4898.000000	65.207767 
4897.000000	65.051555 
4896.000000	64.904069 
4895.000000	64.781308 
4894.000000	64.695358 
4893.000000	64.651942 
4892.000000	64.650535 
4891.000000	64.684963 
4890.000000	64.745450 
4889.000000	64.821505 
4888.000000	64.902973 
4887.000000	64.980912 
4886.000000	65.048170 
4885.000000	65.097308 
4884.000000	65.123033 
4883.000000	65.121841 
4882.000000	65.093660 
4881.000000	65.041470 
4880.000000	64.972949 
4879.000000	64.899802 
4878.000000	64.835143 
4877.000000	64.791202 
4876.000000	64.776253 
4875.000000	64.792823 
4874.000000	64.836883 
4873.000000	64.899086 
4872.000000	64.967560 
4871.000000	65.031003 
4870.000000	65.081715 
4869.000000	65.116882 
4868.000000	65.137600 
4867.000000	65.147876 
4866.000000	65.152406 
4865.000000	65.155196 
4864.000000	65.157628 
4863.000000	65.158963 
4862.000000	65.158367 
4861.000000	65.154266 
4860.000000	65.146303 
4859.000000	65.134310 
4858.000000	65.119194 
4857.000000	65.101575 
4856.000000	65.081810 
4855.000000	65.059232 
4854.000000	65.031909 
4853.000000	64.998197 
4852.000000	64.957809 
4851.000000	64.911842 
4850.000000	64.863252 
4849.000000	64.815855 
4848.000000	64.773797 
4847.000000	64.739942 
4846.000000	64.715743 
4845.000000	64.701581 
4844.000000	64.697527 
4843.000000	64.703845 
4842.000000	64.721250 
4841.000000	64.750933 
4840.000000	64.793872 
4839.000000	64.849328 
4838.000000	64.914774 
4837.000000	64.985847 
4836.000000	65.056514 
4835.000000	65.120458 
4834.000000	65.171265 
4833.000000	65.204310 
4832.000000	65.216207 
4831.000000	65.206575 
4830.000000	65.176272 
4829.000000	65.127491 
4828.000000	65.062928 
4827.000000	64.985895 
4826.000000	64.899802 
4825.000000	64.808344 
4824.000000	64.715528 
4823.000000	64.626073 
4822.000000	64.543843 
4821.000000	64.471673 
4820.000000	64.410734 
4819.000000	64.360666 
4818.000000	64.319729 
4817.000000	64.285707 
4816.000000	64.256691 
4815.000000	64.232063 
4814.000000	64.212012 
4813.000000	64.198184 
4812.000000	64.192056 
4811.000000	64.195322 
4810.000000	64.208436 
4809.000000	64.231228 
4808.000000	64.261865 
4807.000000	64.298129 
4806.000000	64.337396 
4805.000000	64.377117 
4804.000000	64.415168 
4803.000000	64.449954 
4802.000000	64.480328 
4801.000000	64.505887 
4800.000000	64.526414 
4799.000000	64.542579 
4798.000000	64.555549 
4797.000000	64.567375 
4796.000000	64.580678 
4795.000000	64.597821 
4794.000000	64.620351 
4793.000000	64.648270 
4792.000000	64.679884 
4791.000000	64.711499 
4790.000000	64.738464 
4789.000000	64.756298 
4788.000000	64.762234 
4787.000000	64.755797 
4786.000000	64.739370 
4785.000000	64.718198 
4784.000000	64.698815 
4783.000000	64.687705 
4782.000000	64.689421 
4781.000000	64.705491 
4780.000000	64.734339 
4779.000000	64.771771 
4778.000000	64.812302 
4777.000000	64.850473 
4776.000000	64.882326 
4775.000000	64.906167 
4774.000000	64.922046 
4773.000000	64.931321 
4772.000000	64.935183 
4771.000000	64.934110 
4770.000000	64.926791 
4769.000000	64.910197 
4768.000000	64.880943 
4767.000000	64.836502 
4766.000000	64.776468 
4765.000000	64.703536 
4764.000000	64.623928 
4763.000000	64.546561 
4762.000000	64.481186 
4761.000000	64.436435 
4760.000000	64.417862 
4759.000000	64.426684 
4758.000000	64.459300 
4757.000000	64.508295 
4756.000000	64.563608 
4755.000000	64.615178 
4754.000000	64.654588 
4753.000000	64.677119 
4752.000000	64.681720 
4751.000000	64.671063 
4750.000000	64.650416 
4749.000000	64.625644 
4748.000000	64.601612 
4747.000000	64.580702 
4746.000000	64.562606 
4745.000000	64.544200 
4744.000000	64.521503 
4743.000000	64.490079 
4742.000000	64.447331 
4741.000000	64.392566 
4740.000000	64.327836 
4739.000000	64.257478 
4738.000000	64.187526 
4737.000000	64.124369 
4736.000000	64.073967 
4735.000000	64.040946 
4734.000000	64.028000 
4733.000000	64.035463 
4732.000000	64.061832 
4731.000000	64.104008 
4730.000000	64.158391 
4729.000000	64.220738 
4728.000000	64.287590 
4727.000000	64.355802 
4726.000000	64.423036 
4725.000000	64.487600 
4724.000000	64.547896 
4723.000000	64.602208 
4722.000000	64.647936 
4721.000000	64.682197 
4720.000000	64.701628 
4719.000000	64.703893 
4718.000000	64.688014 
4717.000000	64.655232 
4716.000000	64.609193 
4715.000000	64.556145 
4714.000000	64.503002 
4713.000000	64.456248 
4712.000000	64.420795 
4711.000000	64.399290 
4710.000000	64.391565 
4709.000000	64.395523 
4708.000000	64.408159 
4707.000000	64.426398 
4706.000000	64.447665 
4705.000000	64.470267 
4704.000000	64.492940 
4703.000000	64.514803 
4702.000000	64.534330 
4701.000000	64.549970 
4700.000000	64.559340 
4699.000000	64.561009 
4698.000000	64.554929 
4697.000000	64.542841 
4696.000000	64.528632 
4695.000000	64.517211 
4694.000000	64.513707 
4693.000000	64.521527 
4692.000000	64.541506 
4691.000000	64.571285 
4690.000000	64.605951 
4689.000000	64.639425 
4688.000000	64.666104 
4687.000000	64.682340 
4686.000000	64.687418 
4685.000000	64.683794 
4684.000000	64.676308 
4683.000000	64.670586 
4682.000000	64.671230 
4681.000000	64.680647 
4680.000000	64.698076 
4679.000000	64.719915 
4678.000000	64.740777 
4677.000000	64.755153 
4676.000000	64.758992 
4675.000000	64.751482 
4674.000000	64.735150 
4673.000000	64.715003 
4672.000000	64.697337 
4671.000000	64.687919 
4670.000000	64.690852 
4669.000000	64.707040 
4668.000000	64.734864 
4667.000000	64.770221 
4666.000000	64.808702 
4665.000000	64.846539 
4664.000000	64.881944 
4663.000000	64.915204 
4662.000000	64.948391 
4661.000000	64.984154 
4660.000000	65.024495 
4659.000000	65.069675 
4658.000000	65.117907 
4657.000000	65.165138 
4656.000000	65.206408 
4655.000000	65.236473 
4654.000000	65.251684 
4653.000000	65.249848 
4652.000000	65.230798 
4651.000000	65.195679 
4650.000000	65.146899 
4649.000000	65.087699 
4648.000000	65.021681 
4647.000000	64.952969 
4646.000000	64.886283 
4645.000000	64.827036 
4644.000000	64.780759 
4643.000000	64.752793 
4642.000000	64.747285 
4641.000000	64.766311 
4640.000000	64.808797 
4639.000000	64.870667 
4638.000000	64.945077 
4637.000000	65.023636 
4636.000000	65.097737 
4635.000000	65.159940 
4634.000000	65.205001 
4633.000000	65.231227 
4632.000000	65.240502 
4631.000000	65.237212 
4630.000000	65.227127 
4629.000000	65.216875 
4628.000000	65.212106 
4627.000000	65.217041 
4626.000000	65.233373 
4625.000000	65.260386 
4624.000000	65.295100 
4623.000000	65.333056 
4622.000000	65.369272 
4621.000000	65.399122 
4620.000000	65.419936 
4619.000000	65.430760 
4618.000000	65.433692 
4617.000000	65.432691 
4616.000000	65.433359 
4615.000000	65.441823 
4614.000000	65.462660 
4613.000000	65.498113 
4612.000000	65.546464 
4611.000000	65.603065 
4610.000000	65.659570 
4609.000000	65.705943 
4608.000000	65.732121 
4607.000000	65.730333 
4606.000000	65.696573 
4605.000000	65.631699 
4604.000000	65.541243 
4603.000000	65.434551 
4602.000000	65.323543 
4601.000000	65.220522 
4600.000000	65.136098 
4599.000000	65.077233 
4598.000000	65.046644 
4597.000000	65.042519 
4596.000000	65.059280 
4595.000000	65.089392 
4594.000000	65.124869 
4593.000000	65.159106 
4592.000000	65.187096 
4591.000000	65.206742 
4590.000000	65.217638 
4589.000000	65.221929 
4588.000000	65.221881 
4587.000000	65.221142 
4586.000000	65.223503 
4585.000000	65.233016 
4584.000000	65.253448 
4583.000000	65.287470 
4582.000000	65.336394 
4581.000000	65.398859 
4580.000000	65.470838 
4579.000000	65.545368 
4578.000000	65.613770 
4577.000000	65.666913 
4576.000000	65.697240 
4575.000000	65.700650 
4574.000000	65.677165 
4573.000000	65.631675 
4572.000000	65.572142 
4571.000000	65.507984 
4570.000000	65.447759 
4569.000000	65.397524 
4568.000000	65.359854 
4567.000000	65.334248 
4566.000000	65.317988 
4565.000000	65.307664 
4564.000000	65.300488 
4563.000000	65.295529 
4562.000000	65.293192 
4561.000000	65.294265 
4560.000000	65.299248 
4559.000000	65.306901 
4558.000000	65.314769 
4557.000000	65.318703 
4556.000000	65.315318 
4555.000000	65.302562 
4554.000000	65.281391 
4553.000000	65.255951 
4552.000000	65.232133 
4551.000000	65.216183 
4550.000000	65.212416 
4549.000000	65.221905 
4548.000000	65.241670 
4547.000000	65.265107 
4546.000000	65.283560 
4545.000000	65.288257 
4544.000000	65.272951 
4543.000000	65.235042 
4542.000000	65.176129 
4541.000000	65.101313 
4540.000000	65.016841 
4539.000000	64.929485 
4538.000000	64.845108 
4537.000000	64.768648 
4536.000000	64.703559 
4535.000000	64.652633 
4534.000000	64.619016 
4533.000000	64.605093 
4532.000000	64.611601 
4531.000000	64.637899 
4530.000000	64.680409 
4529.000000	64.735102 
4528.000000	64.797043 
4527.000000	64.862680 
4526.000000	64.929699 
4525.000000	64.996767 
4524.000000	65.062808 
4523.000000	65.125513 
4522.000000	65.180969 
4521.000000	65.223860 
4520.000000	65.248656 
4519.000000	65.250945 
4518.000000	65.229439 
4517.000000	65.186524 
4516.000000	65.129256 
4515.000000	65.068364 
4514.000000	65.017151 
4513.000000	64.989113 
4512.000000	64.995288 
4511.000000	65.042114 
4510.000000	65.129375 
4509.000000	65.249323 
4508.000000	65.388584 
4507.000000	65.530824 
4506.000000	65.660190 
4505.000000	65.764427 
4504.000000	65.837025 
4503.000000	65.877866 
4502.000000	65.891933 
4501.000000	65.887427 
4500.000000	65.872597 
4499.000000	65.853643 
4498.000000	65.832114 
4497.000000	65.805077 
4496.000000	65.767359 
4495.000000	65.714120 
4494.000000	65.644383 
4493.000000	65.561962 
4492.000000	65.476322 
4491.000000	65.399765 
4490.000000	65.341615 
4489.000000	65.307545 
4488.000000	65.295577 
4487.000000	65.300464 
4486.000000	65.316224 
4485.000000	65.338873 
4484.000000	65.372157 
4483.000000	65.420985 
4482.000000	65.486764 
4481.000000	65.565872 
4480.000000	65.647792 
4479.000000	65.717220 
4478.000000	65.757942 
4477.000000	65.756773 
4476.000000	65.704226 
4475.000000	65.605783 
4474.000000	65.486383 
4473.000000	65.373516 
4472.000000	65.286755 
4471.000000	65.246558 
4470.000000	65.271568 
4469.000000	65.362691 
4468.000000	65.504598 
4467.000000	65.682268 
4466.000000	65.882110 
4465.000000	66.094231 
4464.000000	66.312336 
4463.000000	66.520810 
4462.000000	66.705012 
4461.000000	66.849207 
4460.000000	66.951870 
4459.000000	67.021942 
4458.000000	67.089319 
4457.000000	67.210221 
4456.000000	67.440962 
4455.000000	67.830443 
4454.000000	68.382477 
4453.000000	69.068670 
4452.000000	69.787001 
4451.000000	70.392417 
4450.000000	70.695090 
4449.000000	70.525956 
4448.000000	69.728183 
4447.000000	68.206715 
4446.000000	65.931415 
4445.000000	62.961173 
4444.000000	59.424066 
4443.000000	55.514240 
4442.000000	51.472425 
4441.000000	47.572398 
4440.000000	44.100880 
4439.000000	41.337299 
4438.000000	39.517974 
4437.000000	38.811421 
4436.000000	39.281845 
4435.000000	40.879964 
4434.000000	43.409156 
4433.000000	46.576452 
4432.000000	49.996876 
4431.000000	53.298735 
4430.000000	56.135249 
4429.000000	58.298492 
4428.000000	59.720945 
4427.000000	60.501122 
4426.000000	60.858082 
4425.000000	61.063647 
4424.000000	61.369156 
4423.000000	61.933970 
4422.000000	62.804007 
4421.000000	63.899374 
4420.000000	65.066432 
4419.000000	66.121602 
4418.000000	66.926908 
4417.000000	67.402195 
4416.000000	67.549538 
4415.000000	67.436432 
4414.000000	67.173171 
4413.000000	66.869688 
4412.000000	66.607356 
4411.000000	66.441154 
4410.000000	66.386151 
4409.000000	66.422677 
4408.000000	66.507172 
4407.000000	66.605639 
4406.000000	66.694092 
4405.000000	66.763401 
4404.000000	66.819190 
4403.000000	66.865181 
4402.000000	66.909122 
4401.000000	66.960811 
4400.000000	67.025208 
4399.000000	67.093634 
4398.000000	67.154049 
4397.000000	67.203736 
4396.000000	67.237186 
4395.000000	67.244935 
4394.000000	67.221093 
4393.000000	67.165637 
4392.000000	67.083764 
4391.000000	66.985177 
4390.000000	66.882705 
4389.000000	66.789793 
4388.000000	66.714453 
4387.000000	66.657614 
4386.000000	66.617441 
4385.000000	66.589736 
4384.000000	66.567707 
4383.000000	66.544818 
4382.000000	66.516304 
4381.000000	66.480731 
4380.000000	66.440176 
4379.000000	66.399288 
4378.000000	66.363072 
4377.000000	66.335415 
4376.000000	66.316986 
4375.000000	66.305661 
4374.000000	66.297411 
4373.000000	66.287136 
4372.000000	66.270089 
4371.000000	66.243386 
4370.000000	66.206717 
4369.000000	66.162967 
4368.000000	66.116738 
4367.000000	66.074633 
4366.000000	66.043376 
4365.000000	66.028904 
4364.000000	66.034746 
4363.000000	66.061615 
4362.000000	66.106986 
4361.000000	66.165590 
4360.000000	66.229867 
4359.000000	66.291213 
4358.000000	66.341137 
4357.000000	66.372680 
4356.000000	66.381025 
4355.000000	66.363501 
4354.000000	66.319704 
4353.000000	66.251754 
4352.000000	66.163897 
4351.000000	66.062116 
4350.000000	65.953922 
4349.000000	65.847682 
4348.000000	65.751814 
4347.000000	65.674066 
4346.000000	65.620040 
4345.000000	65.592408 
4344.000000	65.590095 
4343.000000	65.608334 
4342.000000	65.639472 
4341.000000	65.673923 
4340.000000	65.702342 
4339.000000	65.717005 
4338.000000	65.713524 
4337.000000	65.691065 
4336.000000	65.652060 
4335.000000	65.601015 
4334.000000	65.543580 
4333.000000	65.485167 
4332.000000	65.429782 
4331.000000	65.379738 
4330.000000	65.336346 
4329.000000	65.300059 
4328.000000	65.271306 
4327.000000	65.250515 
4326.000000	65.237998 
4325.000000	65.233397 
4324.000000	65.235042 
4323.000000	65.239858 
4322.000000	65.242958 
4321.000000	65.239262 
4320.000000	65.224146 
4319.000000	65.195369 
4318.000000	65.153908 
4317.000000	65.103697 
4316.000000	65.050601 
4315.000000	65.001392 
4314.000000	64.962172 
4313.000000	64.937043 
4312.000000	64.926910 
4311.000000	64.930176 
4310.000000	64.943408 
4309.000000	64.962768 
4308.000000	64.985442 
4307.000000	65.010070 
4306.000000	65.036940 
4305.000000	65.067911 
4304.000000	65.105175 
4303.000000	65.150308 
4302.000000	65.202784 
4301.000000	65.259814 
4300.000000	65.315961 
4299.000000	65.364789 
4298.000000	65.399336 
4297.000000	65.413951 
4296.000000	65.405154 
4295.000000	65.372633 
4294.000000	65.319824 
4293.000000	65.253257 
4292.000000	65.181875 
4291.000000	65.115499 
4290.000000	65.063571 
4289.000000	65.033721 
4288.000000	65.030193 
4287.000000	65.053582 
4286.000000	65.099596 
4285.000000	65.159988 
4284.000000	65.223479 
4283.000000	65.277862 
4282.000000	65.311717 
4281.000000	65.316438 
4280.000000	65.288066 
4279.000000	65.227890 
4278.000000	65.142440 
4277.000000	65.042018 
4276.000000	64.939045 
4275.000000	64.845418 
4274.000000	64.770960 
4273.000000	64.721131 
4272.000000	64.697170 
4271.000000	64.695596 
4270.000000	64.709830 
4269.000000	64.731335 
4268.000000	64.751267 
4267.000000	64.762687 
4266.000000	64.760994 
4265.000000	64.745426 
4264.000000	64.717674 
4263.000000	64.682698 
4262.000000	64.646553 
4261.000000	64.616179 
4260.000000	64.597821 
4259.000000	64.595818 
4258.000000	64.611816 
4257.000000	64.644289 
4256.000000	64.689350 
4255.000000	64.740967 
4254.000000	64.792203 
4253.000000	64.836430 
4252.000000	64.868545 
4251.000000	64.885902 
4250.000000	64.888691 
4249.000000	64.879751 
4248.000000	64.863729 
4247.000000	64.846348 
4246.000000	64.833021 
4245.000000	64.828062 
4244.000000	64.833402 
4243.000000	64.848303 
4242.000000	64.869427 
4241.000000	64.892482 
4240.000000	64.913010 
4239.000000	64.927291 
4238.000000	64.933967 
4237.000000	64.933872 
4236.000000	64.929986 
4235.000000	64.926457 
4234.000000	64.927458 
4233.000000	64.935731 
4232.000000	64.952278 
4231.000000	64.976000 
4230.000000	65.004372 
4229.000000	65.034079 
4228.000000	65.061759 
4227.000000	65.084815 
4226.000000	65.101909 
4225.000000	65.112733 
4224.000000	65.117335 
4223.000000	65.115618 
4222.000000	65.106725 
4221.000000	65.089249 
4220.000000	65.062069 
4219.000000	65.025234 
4218.000000	64.980077 
4217.000000	64.930033 
4216.000000	64.880728 
4215.000000	64.839029 
4214.000000	64.811491 
4213.000000	64.803075 
4212.000000	64.816188 
4211.000000	64.849591 
4210.000000	64.898467 
4209.000000	64.954924 
4208.000000	65.009140 
4207.000000	65.051913 
4206.000000	65.075850 
4205.000000	65.078282 
4204.000000	65.061140 
4203.000000	65.031647 
4202.000000	65.000152 
4201.000000	64.978146 
4200.000000	64.975142 
4199.000000	64.996576 
4198.000000	65.041804 
4197.000000	65.104293 
4196.000000	65.172386 
4195.000000	65.231990 
4194.000000	65.269160 
4193.000000	65.273189 
4192.000000	65.238475 
4191.000000	65.165662 
4190.000000	65.061235 
4189.000000	64.935851 
4188.000000	64.802742 
4187.000000	64.675045 
4186.000000	64.564800 
4185.000000	64.480972 
4184.000000	64.429235 
4183.000000	64.412045 
4182.000000	64.428114 
4181.000000	64.473032 
4180.000000	64.539861 
4179.000000	64.619350 
4178.000000	64.702153 
4177.000000	64.779567 
4176.000000	64.845013 
4175.000000	64.893865 
4174.000000	64.924454 
4173.000000	64.937376 
4172.000000	64.935088 
4171.000000	64.920949 
4170.000000	64.898538 
4169.000000	64.871096 
4168.000000	64.841723 
4167.000000	64.812755 
4166.000000	64.785909 
4165.000000	64.762425 
4164.000000	64.743304 
4163.000000	64.729404 
4162.000000	64.721202 
4161.000000	64.719057 
4160.000000	64.723134 
4159.000000	64.733171 
