PE IR       SPECTRUM    SPECTRUM    ASCII       PEDS        1.60        
  -1
C-1AE0~1.ASC
17/03/27
15:59:14.00
17/03/27
15:59:14.00
tln
$C-4040-8_t0019$<tbV0>[-5.2,-10.4,8.0,0.0,27,1,0]
370.000000
64









2002,4.07    
MIRTGS : RIGHTBACK : INTERNAL 2
MIR : ON : INTERNAL 2
OPTKBR

0.200000
8
8.000000
FILLER
RATIO
SPECTRUM
UNLOCKED 256

DOUBLE
64
COMBINED
1
0
0


1.000000
RATIO


1
0
TRUE
51149
0
LEFT NOT FITTED RIGHT NOT FITTED 0
NONE
NONE
15600
12.000000
4.427000
51148
TRUE
1 0 8 72 0 0 0 0 

15798.010000






#HDR
-1
-1
#GR
CM-1
%T
0.00002384185791015625
0.0
5000.000000
-1.000000
4631
8
72.230935
31.012654
#DATA
5000.000000	63.669991 
4999.000000	63.553810 
4998.000000	63.447690 
4997.000000	63.365674 
4996.000000	63.323259 
4995.000000	63.334321 
4994.000000	63.407325 
4993.000000	63.541388 
4992.000000	63.726162 
4991.000000	63.942575 
4990.000000	64.165806 
4989.000000	64.368915 
4988.000000	64.529275 
4987.000000	64.632654 
4986.000000	64.675378 
4985.000000	64.664101 
4984.000000	64.611792 
4983.000000	64.533638 
4982.000000	64.442825 
4981.000000	64.347743 
4980.000000	64.251017 
4979.000000	64.151549 
4978.000000	64.048242 
4977.000000	63.943099 
4976.000000	63.845109 
4975.000000	63.768100 
4974.000000	63.728356 
4973.000000	63.738203 
4972.000000	63.801836 
4971.000000	63.910841 
4970.000000	64.044189 
4969.000000	64.171814 
4968.000000	64.260077 
4967.000000	64.280986 
4966.000000	64.220094 
4965.000000	64.079737 
4964.000000	63.878107 
4963.000000	63.645792 
4962.000000	63.418412 
4961.000000	63.228058 
4960.000000	63.096117 
4959.000000	63.029885 
4958.000000	63.022470 
4957.000000	63.058519 
4956.000000	63.119792 
4955.000000	63.190007 
4954.000000	63.257646 
4953.000000	63.315105 
4952.000000	63.357520 
4951.000000	63.378953 
4950.000000	63.372445 
4949.000000	63.328361 
4948.000000	63.238787 
4947.000000	63.100934 
4946.000000	62.921118 
4945.000000	62.714529 
4944.000000	62.506461 
4943.000000	62.326908 
4942.000000	62.207770 
4941.000000	62.174701 
4940.000000	62.243771 
4939.000000	62.417054 
4938.000000	62.681508 
4937.000000	63.011193 
4936.000000	63.370275 
4935.000000	63.719439 
4934.000000	64.020776 
4933.000000	64.243435 
4932.000000	64.368486 
4931.000000	64.390611 
4930.000000	64.319300 
4929.000000	64.175939 
4928.000000	63.991498 
4927.000000	63.800644 
4926.000000	63.636064 
4925.000000	63.522481 
4924.000000	63.473987 
4923.000000	63.492155 
4922.000000	63.567638 
4921.000000	63.683629 
4920.000000	63.819718 
4919.000000	63.957524 
4918.000000	64.083003 
4917.000000	64.189696 
4916.000000	64.276504 
4915.000000	64.347839 
4914.000000	64.408707 
4913.000000	64.464473 
4912.000000	64.518475 
4911.000000	64.571738 
4910.000000	64.624094 
4909.000000	64.673781 
4908.000000	64.720487 
4907.000000	64.762496 
4906.000000	64.798378 
4905.000000	64.823579 
4904.000000	64.831328 
4903.000000	64.814829 
4902.000000	64.769577 
4901.000000	64.694476 
4900.000000	64.593338 
4899.000000	64.476680 
4898.000000	64.359736 
4897.000000	64.259862 
4896.000000	64.192390 
4895.000000	64.166331 
4894.000000	64.182424 
4893.000000	64.232778 
4892.000000	64.303278 
4891.000000	64.376640 
4890.000000	64.437818 
4889.000000	64.476537 
4888.000000	64.490962 
4887.000000	64.487195 
4886.000000	64.477252 
4885.000000	64.474153 
4884.000000	64.488291 
4883.000000	64.524769 
4882.000000	64.580678 
4881.000000	64.646577 
4880.000000	64.707398 
4879.000000	64.747142 
4878.000000	64.751577 
4877.000000	64.712333 
4876.000000	64.627814 
4875.000000	64.503955 
4874.000000	64.352774 
4873.000000	64.190292 
4872.000000	64.034152 
4871.000000	63.900685 
4870.000000	63.803148 
4869.000000	63.749504 
4868.000000	63.741564 
4867.000000	63.774943 
4866.000000	63.840341 
4865.000000	63.925623 
4864.000000	64.016962 
4863.000000	64.102482 
4862.000000	64.172744 
4861.000000	64.222836 
4860.000000	64.251470 
4859.000000	64.261102 
4858.000000	64.255642 
4857.000000	64.240336 
4856.000000	64.220476 
4855.000000	64.200735 
4854.000000	64.184761 
4853.000000	64.175176 
4852.000000	64.174175 
4851.000000	64.182710 
4850.000000	64.200806 
4849.000000	64.226937 
4848.000000	64.258384 
4847.000000	64.290690 
4846.000000	64.318680 
4845.000000	64.337730 
4844.000000	64.344978 
4843.000000	64.340353 
4842.000000	64.326953 
4841.000000	64.309763 
4840.000000	64.294958 
4839.000000	64.288687 
4838.000000	64.295411 
4837.000000	64.316892 
4836.000000	64.351654 
4835.000000	64.395976 
4834.000000	64.443969 
4833.000000	64.489769 
4832.000000	64.527177 
4831.000000	64.551401 
4830.000000	64.558529 
4829.000000	64.546537 
4828.000000	64.514517 
4827.000000	64.462709 
4826.000000	64.392280 
4825.000000	64.305686 
4824.000000	64.206480 
4823.000000	64.099979 
4822.000000	63.991904 
4821.000000	63.888382 
4820.000000	63.795113 
4819.000000	63.717103 
4818.000000	63.657641 
4817.000000	63.618278 
4816.000000	63.598585 
4815.000000	63.596796 
4814.000000	63.609766 
4813.000000	63.633918 
4812.000000	63.664865 
4811.000000	63.698720 
4810.000000	63.731551 
4809.000000	63.760375 
4808.000000	63.782715 
4807.000000	63.797068 
4806.000000	63.802528 
4805.000000	63.798904 
4804.000000	63.786721 
4803.000000	63.767075 
4802.000000	63.741588 
4801.000000	63.712453 
4800.000000	63.682079 
4799.000000	63.653850 
4798.000000	63.631629 
4797.000000	63.620066 
4796.000000	63.623809 
4795.000000	63.647079 
4794.000000	63.692426 
4793.000000	63.760471 
4792.000000	63.849043 
4791.000000	63.952946 
4790.000000	64.064431 
4789.000000	64.174270 
4788.000000	64.273238 
4787.000000	64.353251 
4786.000000	64.408779 
4785.000000	64.438176 
4784.000000	64.443492 
4783.000000	64.430141 
4782.000000	64.405202 
4781.000000	64.376735 
4780.000000	64.351224 
4779.000000	64.333653 
4778.000000	64.325451 
4777.000000	64.325737 
4776.000000	64.331102 
4775.000000	64.337420 
4774.000000	64.340424 
4773.000000	64.337158 
4772.000000	64.326667 
4771.000000	64.310050 
4770.000000	64.290070 
4769.000000	64.269948 
4768.000000	64.252591 
4767.000000	64.239740 
4766.000000	64.231324 
4765.000000	64.225745 
4764.000000	64.221000 
4763.000000	64.215397 
4762.000000	64.208078 
4761.000000	64.199376 
4760.000000	64.191246 
4759.000000	64.186000 
4758.000000	64.185380 
4757.000000	64.189577 
4756.000000	64.197373 
4755.000000	64.206051 
4754.000000	64.211845 
4753.000000	64.211034 
4752.000000	64.201092 
4751.000000	64.181280 
4750.000000	64.153218 
4749.000000	64.120221 
4748.000000	64.086198 
4747.000000	64.054894 
4746.000000	64.029073 
4745.000000	64.009904 
4744.000000	63.996815 
4743.000000	63.987994 
4742.000000	63.981080 
4741.000000	63.973712 
4740.000000	63.964033 
4739.000000	63.951039 
4738.000000	63.934350 
4737.000000	63.914227 
4736.000000	63.891458 
4735.000000	63.866877 
4734.000000	63.841509 
4733.000000	63.816285 
4732.000000	63.792371 
4731.000000	63.771176 
4730.000000	63.754701 
4729.000000	63.744735 
4728.000000	63.743519 
4727.000000	63.752651 
4726.000000	63.773655 
4725.000000	63.806939 
4724.000000	63.852214 
4723.000000	63.907742 
4722.000000	63.970828 
4721.000000	64.037728 
4720.000000	64.104080 
4719.000000	64.165520 
4718.000000	64.217925 
4717.000000	64.257884 
4716.000000	64.283227 
4715.000000	64.293384 
4714.000000	64.288687 
4713.000000	64.270424 
4712.000000	64.240479 
4711.000000	64.201378 
4710.000000	64.156293 
4709.000000	64.109086 
4708.000000	64.064335 
4707.000000	64.027190 
4706.000000	64.003062 
4705.000000	63.996601 
4704.000000	64.010858 
4703.000000	64.046335 
4702.000000	64.100670 
4701.000000	64.168572 
4700.000000	64.241957 
4699.000000	64.311814 
4698.000000	64.369487 
4697.000000	64.408826 
4696.000000	64.426803 
4695.000000	64.424777 
4694.000000	64.407944 
4693.000000	64.384102 
4692.000000	64.361953 
4691.000000	64.348530 
4690.000000	64.347910 
4689.000000	64.359974 
4688.000000	64.380979 
4687.000000	64.404511 
4686.000000	64.423561 
4685.000000	64.432287 
4684.000000	64.427590 
4683.000000	64.409804 
4682.000000	64.382028 
4681.000000	64.349126 
4680.000000	64.315676 
4679.000000	64.284443 
4678.000000	64.255428 
4677.000000	64.226245 
4676.000000	64.192795 
4675.000000	64.151048 
4674.000000	64.098739 
4673.000000	64.036464 
4672.000000	63.968443 
4671.000000	63.901019 
4670.000000	63.842344 
4669.000000	63.799238 
4668.000000	63.777351 
4667.000000	63.779544 
4666.000000	63.805842 
4665.000000	63.853144 
4664.000000	63.916420 
4663.000000	63.989758 
4662.000000	64.066982 
4661.000000	64.142251 
4660.000000	64.210605 
4659.000000	64.267945 
4658.000000	64.311480 
4657.000000	64.339590 
4656.000000	64.352059 
4655.000000	64.349794 
4654.000000	64.335203 
4653.000000	64.311480 
4652.000000	64.282584 
4651.000000	64.252710 
4650.000000	64.226031 
4649.000000	64.206171 
4648.000000	64.196348 
4647.000000	64.198231 
4646.000000	64.212775 
4645.000000	64.238667 
4644.000000	64.272904 
4643.000000	64.310097 
4642.000000	64.343810 
4641.000000	64.367222 
4640.000000	64.373850 
4639.000000	64.360189 
4638.000000	64.326238 
4637.000000	64.276194 
4636.000000	64.217376 
4635.000000	64.159250 
4634.000000	64.111566 
4633.000000	64.082050 
4632.000000	64.074778 
4631.000000	64.089035 
4630.000000	64.119720 
4629.000000	64.159035 
4628.000000	64.198398 
4627.000000	64.230275 
4626.000000	64.249753 
4625.000000	64.255428 
4624.000000	64.249157 
4623.000000	64.234232 
4622.000000	64.214682 
4621.000000	64.193630 
4620.000000	64.173126 
4619.000000	64.153671 
4618.000000	64.135432 
4617.000000	64.119124 
4616.000000	64.106822 
4615.000000	64.102029 
4614.000000	64.109539 
4613.000000	64.134240 
4612.000000	64.179468 
4611.000000	64.245223 
4610.000000	64.327406 
4609.000000	64.417839 
4608.000000	64.505839 
4607.000000	64.580059 
4606.000000	64.631533 
4605.000000	64.655303 
4604.000000	64.651894 
4603.000000	64.626717 
4602.000000	64.588189 
4601.000000	64.545178 
4600.000000	64.505004 
4599.000000	64.471507 
4598.000000	64.444708 
4597.000000	64.421224 
4596.000000	64.396452 
4595.000000	64.366102 
4594.000000	64.328360 
4593.000000	64.284014 
4592.000000	64.236211 
4591.000000	64.189195 
4590.000000	64.146280 
4589.000000	64.109587 
4588.000000	64.078426 
4587.000000	64.051365 
4586.000000	64.027023 
4585.000000	64.005374 
4584.000000	63.988018 
4583.000000	63.977909 
4582.000000	63.978362 
4581.000000	63.990950 
4580.000000	64.014244 
4579.000000	64.044046 
4578.000000	64.074230 
4577.000000	64.098429 
4576.000000	64.111852 
4575.000000	64.113044 
4574.000000	64.104247 
4573.000000	64.090657 
4572.000000	64.078760 
4571.000000	64.073777 
4570.000000	64.078164 
4569.000000	64.090967 
4568.000000	64.108157 
4567.000000	64.123725 
4566.000000	64.131641 
4565.000000	64.128947 
4564.000000	64.115309 
4563.000000	64.093542 
4562.000000	64.067244 
4561.000000	64.040017 
4560.000000	64.012765 
4559.000000	63.983464 
4558.000000	63.947486 
4557.000000	63.899326 
4556.000000	63.834810 
4555.000000	63.753151 
4554.000000	63.658308 
4553.000000	63.558816 
4552.000000	63.466000 
4551.000000	63.391470 
4550.000000	63.344073 
4549.000000	63.327884 
4548.000000	63.341069 
4547.000000	63.376998 
4546.000000	63.426041 
4545.000000	63.478755 
4544.000000	63.528418 
4543.000000	63.572883 
4542.000000	63.614273 
4541.000000	63.657617 
4540.000000	63.707995 
4539.000000	63.768005 
4538.000000	63.836336 
4537.000000	63.906812 
4536.000000	63.970279 
4535.000000	64.016079 
4534.000000	64.036059 
4533.000000	64.025640 
4532.000000	63.985610 
4531.000000	63.921737 
4530.000000	63.843631 
4529.000000	63.763093 
4528.000000	63.691544 
4527.000000	63.638448 
4526.000000	63.610053 
4525.000000	63.608598 
4524.000000	63.632678 
4523.000000	63.677573 
4522.000000	63.736557 
4521.000000	63.802695 
4520.000000	63.869690 
4519.000000	63.932585 
4518.000000	63.988041 
4517.000000	64.033627 
4516.000000	64.068436 
4515.000000	64.091777 
4514.000000	64.104294 
4513.000000	64.108324 
4512.000000	64.106988 
4511.000000	64.105105 
4510.000000	64.106583 
4509.000000	64.114212 
4508.000000	64.128398 
4507.000000	64.147639 
4506.000000	64.168691 
4505.000000	64.188075 
4504.000000	64.202308 
4503.000000	64.209747 
4502.000000	64.209127 
4501.000000	64.199852 
4500.000000	64.180755 
4499.000000	64.150476 
4498.000000	64.106035 
4497.000000	64.044070 
4496.000000	63.962316 
4495.000000	63.861250 
4494.000000	63.745665 
4493.000000	63.624334 
4492.000000	63.509416 
4491.000000	63.413667 
4490.000000	63.345694 
4489.000000	63.310050 
4488.000000	63.303828 
4487.000000	63.321471 
4486.000000	63.356494 
4485.000000	63.404965 
4484.000000	63.468718 
4483.000000	63.551807 
4482.000000	63.654446 
4481.000000	63.774085 
4480.000000	63.903045 
4479.000000	64.030742 
4478.000000	64.143371 
4477.000000	64.230990 
4476.000000	64.291262 
4475.000000	64.328408 
4474.000000	64.352941 
4473.000000	64.376640 
4472.000000	64.408779 
4471.000000	64.454078 
4470.000000	64.511919 
4469.000000	64.574956 
4468.000000	64.631724 
4467.000000	64.675736 
4466.000000	64.706707 
4465.000000	64.728522 
4464.000000	64.748811 
4463.000000	64.773464 
4462.000000	64.809274 
4461.000000	64.854621 
4460.000000	64.912223 
4459.000000	64.988970 
4458.000000	65.103983 
4457.000000	65.285038 
4456.000000	65.564584 
4455.000000	65.970420 
4454.000000	66.514563 
4453.000000	67.183852 
4452.000000	67.938160 
4451.000000	68.716216 
4450.000000	69.443368 
4449.000000	70.049691 
4448.000000	70.475888 
4447.000000	70.687818 
4446.000000	70.672726 
4445.000000	70.442080 
4444.000000	70.016455 
4443.000000	69.421887 
4442.000000	68.682837 
4441.000000	67.823195 
4440.000000	66.871047 
4439.000000	65.862822 
4438.000000	64.850163 
4437.000000	63.895392 
4436.000000	63.063907 
4435.000000	62.413311 
4434.000000	61.975646 
4433.000000	61.756563 
4432.000000	61.729335 
4431.000000	61.847472 
4430.000000	62.046146 
4429.000000	62.265586 
4428.000000	62.456345 
4427.000000	62.593936 
4426.000000	62.669253 
4425.000000	62.696695 
4424.000000	62.701416 
4423.000000	62.711739 
4422.000000	62.745833 
4421.000000	62.809300 
4420.000000	62.894344 
4419.000000	62.980580 
4418.000000	63.042426 
4417.000000	63.058638 
4416.000000	63.019633 
4415.000000	62.934041 
4414.000000	62.827348 
4413.000000	62.725543 
4412.000000	62.649130 
4411.000000	62.614011 
4410.000000	62.625741 
4409.000000	62.676239 
4408.000000	62.745785 
4407.000000	62.817955 
4406.000000	62.875390 
4405.000000	62.897539 
4404.000000	62.867212 
4403.000000	62.776136 
4402.000000	62.624216 
4401.000000	62.418627 
4400.000000	62.172579 
4399.000000	61.907744 
4398.000000	61.642265 
4397.000000	61.392402 
4396.000000	61.160135 
4395.000000	60.931253 
4394.000000	60.686469 
4393.000000	60.407280 
4392.000000	60.096788 
4391.000000	59.781455 
4390.000000	59.536266 
4389.000000	59.470319 
4388.000000	59.708380 
4387.000000	60.354065 
4386.000000	61.451935 
4385.000000	62.964963 
4384.000000	64.759659 
4383.000000	66.636514 
4382.000000	68.372416 
4381.000000	69.776368 
4380.000000	70.737981 
4379.000000	71.247434 
4378.000000	71.396636 
4377.000000	71.337604 
4376.000000	71.244120 
4375.000000	71.246552 
4374.000000	71.408724 
4373.000000	71.697807 
4372.000000	72.019457 
4371.000000	72.230935 
4370.000000	72.207260 
4369.000000	71.863460 
4368.000000	71.196913 
4367.000000	70.271635 
4366.000000	69.203925 
4365.000000	68.126678 
4364.000000	67.152905 
4363.000000	66.358900 
4362.000000	65.770959 
4361.000000	65.375518 
4360.000000	65.131759 
4359.000000	64.989376 
4358.000000	64.905333 
4357.000000	64.844870 
4356.000000	64.790654 
4355.000000	64.735722 
4354.000000	64.685034 
4353.000000	64.637112 
4352.000000	64.590287 
4351.000000	64.542889 
4350.000000	64.492225 
4349.000000	64.432525 
4348.000000	64.358282 
4347.000000	64.269590 
4346.000000	64.168119 
4345.000000	64.055275 
4344.000000	63.933587 
4343.000000	63.804721 
4342.000000	63.672494 
4341.000000	63.544249 
4340.000000	63.427352 
4339.000000	63.327860 
4338.000000	63.248610 
4337.000000	63.188338 
4336.000000	63.142371 
4335.000000	63.104009 
4334.000000	63.070225 
4333.000000	63.043260 
4332.000000	63.026499 
4331.000000	63.024711 
4330.000000	63.044166 
4329.000000	63.090896 
4328.000000	63.166856 
4327.000000	63.269948 
4326.000000	63.394379 
4325.000000	63.531160 
4324.000000	63.669133 
4323.000000	63.796925 
4322.000000	63.905549 
4321.000000	63.988995 
4320.000000	64.044308 
4319.000000	64.072012 
4318.000000	64.075875 
4317.000000	64.061450 
4316.000000	64.035129 
4315.000000	64.002919 
4314.000000	63.970994 
4313.000000	63.943195 
4312.000000	63.921451 
4311.000000	63.905167 
4310.000000	63.892507 
4309.000000	63.879728 
4308.000000	63.862276 
4307.000000	63.835930 
4306.000000	63.797879 
4305.000000	63.746953 
4304.000000	63.684630 
4303.000000	63.614368 
4302.000000	63.542294 
4301.000000	63.475894 
4300.000000	63.423538 
4299.000000	63.392543 
4298.000000	63.387942 
4297.000000	63.411545 
4296.000000	63.461208 
4295.000000	63.530683 
4294.000000	63.610768 
4293.000000	63.691234 
4292.000000	63.762378 
4291.000000	63.816261 
4290.000000	63.848423 
4289.000000	63.858246 
4288.000000	63.848614 
4287.000000	63.824510 
4286.000000	63.791942 
4285.000000	63.756537 
4284.000000	63.722372 
4283.000000	63.691997 
4282.000000	63.665699 
4281.000000	63.642501 
4280.000000	63.620805 
4279.000000	63.599586 
4278.000000	63.578581 
4277.000000	63.558745 
4276.000000	63.541603 
4275.000000	63.529157 
4274.000000	63.522791 
4273.000000	63.522958 
4272.000000	63.529157 
4271.000000	63.540124 
4270.000000	63.553738 
4269.000000	63.568115 
4268.000000	63.582110 
4267.000000	63.595056 
4266.000000	63.606929 
4265.000000	63.617730 
4264.000000	63.627219 
4263.000000	63.634419 
4262.000000	63.637661 
4261.000000	63.635063 
4260.000000	63.624858 
4259.000000	63.606309 
4258.000000	63.580203 
4257.000000	63.549089 
4256.000000	63.516831 
4255.000000	63.487410 
4254.000000	63.463997 
4253.000000	63.448309 
4252.000000	63.440370 
4251.000000	63.438534 
4250.000000	63.440299 
4249.000000	63.443350 
4248.000000	63.446283 
4247.000000	63.449287 
4246.000000	63.453912 
4245.000000	63.462066 
4244.000000	63.475394 
4243.000000	63.493943 
4242.000000	63.516211 
4241.000000	63.538765 
4240.000000	63.557958 
4239.000000	63.570404 
4238.000000	63.574862 
4237.000000	63.572239 
4236.000000	63.566040 
4235.000000	63.560867 
4234.000000	63.561964 
4233.000000	63.573026 
4232.000000	63.596200 
4231.000000	63.631391 
4230.000000	63.676834 
4229.000000	63.729596 
4228.000000	63.786005 
4227.000000	63.842344 
4226.000000	63.895010 
4225.000000	63.940548 
4224.000000	63.975453 
4223.000000	63.996410 
4222.000000	64.000248 
4221.000000	63.984847 
4220.000000	63.950204 
4219.000000	63.898563 
4218.000000	63.835215 
4217.000000	63.767361 
4216.000000	63.703489 
4215.000000	63.651418 
4214.000000	63.616919 
4213.000000	63.602662 
4212.000000	63.608169 
4211.000000	63.629698 
4210.000000	63.661313 
4209.000000	63.696169 
4208.000000	63.727378 
4207.000000	63.750028 
4206.000000	63.761115 
4205.000000	63.760924 
4204.000000	63.752365 
4203.000000	63.740229 
4202.000000	63.729739 
4201.000000	63.724780 
4200.000000	63.726568 
4199.000000	63.733077 
4198.000000	63.739562 
4197.000000	63.739514 
4196.000000	63.726687 
4195.000000	63.696908 
4194.000000	63.649749 
4193.000000	63.588953 
4192.000000	63.522005 
4191.000000	63.458156 
4190.000000	63.406443 
4189.000000	63.372826 
4188.000000	63.359522 
4187.000000	63.363981 
4186.000000	63.381028 
4185.000000	63.404536 
4184.000000	63.429713 
4183.000000	63.454413 
4182.000000	63.479113 
4181.000000	63.505959 
4180.000000	63.537311 
4179.000000	63.573622 
4178.000000	63.613891 
4177.000000	63.655114 
4176.000000	63.693714 
4175.000000	63.726472 
4174.000000	63.752055 
4173.000000	63.771367 
4172.000000	63.787341 
4171.000000	63.804030 
4170.000000	63.825106 
4169.000000	63.852572 
4168.000000	63.886427 
4167.000000	63.924384 
4166.000000	63.962960 
4165.000000	63.997554 
4164.000000	64.024877 
4163.000000	64.042091 
4162.000000	64.047193 
4161.000000	64.038848 
4160.000000	64.016389 
4159.000000	63.980031 
