PE IR       SPECTRUM    SPECTRUM    ASCII       PEDS        1.60        
  -1
C-1CEF~1.ASC
17/03/27
19:09:55.00
17/03/27
19:09:55.00
tln
$C-4040-8_t0057$<tbV0>[10.4,0.0,8.0,0.0,27,1,0]
370.000000
64









2002,4.07    
MIRTGS : RIGHTBACK : INTERNAL 2
MIR : ON : INTERNAL 2
OPTKBR

0.200000
8
8.000000
FILLER
RATIO
SPECTRUM
UNLOCKED 256

DOUBLE
64
COMBINED
1
0
0


1.000000
RATIO


1
0
TRUE
51149
0
LEFT NOT FITTED RIGHT NOT FITTED 0
NONE
NONE
15600
12.000000
4.427000
51148
TRUE
1 0 8 72 0 0 0 0 

15798.010000






#HDR
-1
-1
#GR
CM-1
%T
0.00002384185791015625
0.0
5000.000000
-1.000000
4631
8
85.567307
19.030427
#DATA
5000.000000	65.159749 
4999.000000	65.172004 
4998.000000	65.159630 
4997.000000	65.119791 
4996.000000	65.055465 
4995.000000	64.975047 
4994.000000	64.891743 
4993.000000	64.821219 
4992.000000	64.777302 
4991.000000	64.769148 
4990.000000	64.797973 
4989.000000	64.856719 
4988.000000	64.931654 
4987.000000	65.006279 
4986.000000	65.064167 
4985.000000	65.092754 
4984.000000	65.085959 
4983.000000	65.045571 
4982.000000	64.979910 
4981.000000	64.902305 
4980.000000	64.828562 
4979.000000	64.773988 
4978.000000	64.751601 
4977.000000	64.769220 
4976.000000	64.828944 
4975.000000	64.926123 
4974.000000	65.051078 
4973.000000	65.189909 
4972.000000	65.326642 
4971.000000	65.446567 
4970.000000	65.537834 
4969.000000	65.594315 
4968.000000	65.615844 
4967.000000	65.607881 
4966.000000	65.580177 
4965.000000	65.543246 
4964.000000	65.506601 
4963.000000	65.475726 
4962.000000	65.451979 
4961.000000	65.432572 
4960.000000	65.412950 
4959.000000	65.388751 
4958.000000	65.358281 
4957.000000	65.322160 
4956.000000	65.283632 
4955.000000	65.246582 
4954.000000	65.214538 
4953.000000	65.189218 
4952.000000	65.170645 
4951.000000	65.156722 
4950.000000	65.145277 
4949.000000	65.135240 
4948.000000	65.127968 
4947.000000	65.127325 
4946.000000	65.138792 
4945.000000	65.168070 
4944.000000	65.218353 
4943.000000	65.288496 
4942.000000	65.371680 
4941.000000	65.457224 
4940.000000	65.531206 
4939.000000	65.579605 
4938.000000	65.591406 
4937.000000	65.561103 
4936.000000	65.490937 
4935.000000	65.390348 
4934.000000	65.275239 
4933.000000	65.164828 
4932.000000	65.078234 
4931.000000	65.030741 
4930.000000	65.030193 
4929.000000	65.075373 
4928.000000	65.156364 
4927.000000	65.256857 
4926.000000	65.357494 
4925.000000	65.440130 
4924.000000	65.491104 
4923.000000	65.503668 
4922.000000	65.478539 
4921.000000	65.422487 
4920.000000	65.345382 
4919.000000	65.257549 
4918.000000	65.167593 
4917.000000	65.081000 
4916.000000	64.999938 
4915.000000	64.924907 
4914.000000	64.856886 
4913.000000	64.798021 
4912.000000	64.752745 
4911.000000	64.726567 
4910.000000	64.724111 
4909.000000	64.747619 
4908.000000	64.794445 
4907.000000	64.858365 
4906.000000	64.929866 
4905.000000	64.998912 
4904.000000	65.056872 
4903.000000	65.098381 
4902.000000	65.121841 
4901.000000	65.129399 
4900.000000	65.125179 
4899.000000	65.112972 
4898.000000	65.094280 
4897.000000	65.068173 
4896.000000	65.030741 
4895.000000	64.976692 
4894.000000	64.900779 
4893.000000	64.800643 
4892.000000	64.678072 
4891.000000	64.539170 
4890.000000	64.394545 
4889.000000	64.256501 
4888.000000	64.138174 
4887.000000	64.049983 
4886.000000	63.999080 
4885.000000	63.988113 
4884.000000	64.015197 
4883.000000	64.073610 
4882.000000	64.154171 
4881.000000	64.246177 
4880.000000	64.339470 
4879.000000	64.425134 
4878.000000	64.496588 
4877.000000	64.549422 
4876.000000	64.581799 
4875.000000	64.594221 
4874.000000	64.588999 
4873.000000	64.569997 
4872.000000	64.543342 
4871.000000	64.516401 
4870.000000	64.497256 
4869.000000	64.492917 
4868.000000	64.507770 
4867.000000	64.542460 
4866.000000	64.593482 
4865.000000	64.654016 
4864.000000	64.714598 
4863.000000	64.766645 
4862.000000	64.804005 
4861.000000	64.825701 
4860.000000	64.835596 
4859.000000	64.842152 
4858.000000	64.856171 
4857.000000	64.887189 
4856.000000	64.940500 
4855.000000	65.014934 
4854.000000	65.103101 
4853.000000	65.192222 
4852.000000	65.267682 
4851.000000	65.315747 
4850.000000	65.327501 
4849.000000	65.299916 
4848.000000	65.236997 
4847.000000	65.147972 
4846.000000	65.045404 
4845.000000	64.942908 
4844.000000	64.852762 
4843.000000	64.784455 
4842.000000	64.743208 
4841.000000	64.730477 
4840.000000	64.743947 
4839.000000	64.778590 
4838.000000	64.827775 
4837.000000	64.883923 
4836.000000	64.940023 
4835.000000	64.989328 
4834.000000	65.027165 
4833.000000	65.050673 
4832.000000	65.059018 
4831.000000	65.053081 
4830.000000	65.035080 
4829.000000	65.008378 
4828.000000	64.976501 
4827.000000	64.942741 
4826.000000	64.910197 
4825.000000	64.881873 
4824.000000	64.860582 
4823.000000	64.849019 
4822.000000	64.849090 
4821.000000	64.861583 
4820.000000	64.885401 
4819.000000	64.917516 
4818.000000	64.953041 
4817.000000	64.986228 
4816.000000	65.011310 
4815.000000	65.024018 
4814.000000	65.022230 
4813.000000	65.006828 
4812.000000	64.981818 
4811.000000	64.953064 
4810.000000	64.927148 
4809.000000	64.909386 
4808.000000	64.902710 
4807.000000	64.906716 
4806.000000	64.918327 
4805.000000	64.931893 
4804.000000	64.940690 
4803.000000	64.939236 
4802.000000	64.924407 
4801.000000	64.896678 
4800.000000	64.859676 
4799.000000	64.819955 
4798.000000	64.785170 
4797.000000	64.762759 
4796.000000	64.758110 
4795.000000	64.773631 
4794.000000	64.808154 
4793.000000	64.857268 
4792.000000	64.914321 
4791.000000	64.971542 
4790.000000	65.021467 
4789.000000	65.058279 
4788.000000	65.078711 
4787.000000	65.082502 
4786.000000	65.071916 
4785.000000	65.051245 
4784.000000	65.025019 
4783.000000	64.997673 
4782.000000	64.971423 
4781.000000	64.946722 
4780.000000	64.921879 
4779.000000	64.894461 
4778.000000	64.862227 
4777.000000	64.824199 
4776.000000	64.781689 
4775.000000	64.738464 
4774.000000	64.699983 
4773.000000	64.671945 
4772.000000	64.659094 
4771.000000	64.663863 
4770.000000	64.685463 
4769.000000	64.719533 
4768.000000	64.759445 
4767.000000	64.797806 
4766.000000	64.828133 
4765.000000	64.846515 
4764.000000	64.852118 
4763.000000	64.847016 
4762.000000	64.835739 
4761.000000	64.823293 
4760.000000	64.814352 
4759.000000	64.811110 
4758.000000	64.813566 
4757.000000	64.818429 
4756.000000	64.820575 
4755.000000	64.813828 
4754.000000	64.793467 
4753.000000	64.757037 
4752.000000	64.705133 
4751.000000	64.641666 
4750.000000	64.573264 
4749.000000	64.507365 
4748.000000	64.450287 
4747.000000	64.405918 
4746.000000	64.374828 
4745.000000	64.354610 
4744.000000	64.340543 
4743.000000	64.327740 
4742.000000	64.312815 
4741.000000	64.295101 
4740.000000	64.276957 
4739.000000	64.263105 
4738.000000	64.259076 
4737.000000	64.268970 
4736.000000	64.294457 
4735.000000	64.333105 
4734.000000	64.379596 
4733.000000	64.426946 
4732.000000	64.468860 
4731.000000	64.501380 
4730.000000	64.524221 
4729.000000	64.540433 
4728.000000	64.555549 
4727.000000	64.575386 
4726.000000	64.603948 
4725.000000	64.641928 
4724.000000	64.686346 
4723.000000	64.731431 
4722.000000	64.770245 
4721.000000	64.796900 
4720.000000	64.808440 
4719.000000	64.805984 
4718.000000	64.794158 
4717.000000	64.779591 
4716.000000	64.769101 
4715.000000	64.767932 
4714.000000	64.778161 
4713.000000	64.798092 
4712.000000	64.823532 
4711.000000	64.848947 
4710.000000	64.868950 
4709.000000	64.879798 
4708.000000	64.879918 
4707.000000	64.870047 
4706.000000	64.852404 
4705.000000	64.830017 
4704.000000	64.805245 
4703.000000	64.779782 
4702.000000	64.755177 
4701.000000	64.732670 
4700.000000	64.713358 
4699.000000	64.698457 
4698.000000	64.689850 
4697.000000	64.689064 
4696.000000	64.696645 
4695.000000	64.712023 
4694.000000	64.733242 
4693.000000	64.757776 
4692.000000	64.782500 
4691.000000	64.805173 
4690.000000	64.824652 
4689.000000	64.841318 
4688.000000	64.856672 
4687.000000	64.873313 
4686.000000	64.893817 
4685.000000	64.920067 
4684.000000	64.952588 
4683.000000	64.990520 
4682.000000	65.031385 
4681.000000	65.072131 
4680.000000	65.108704 
4679.000000	65.137004 
4678.000000	65.152478 
4677.000000	65.151619 
4676.000000	65.131616 
4675.000000	65.090799 
4674.000000	65.029168 
4673.000000	64.949440 
4672.000000	64.856719 
4671.000000	64.758229 
4670.000000	64.662623 
4669.000000	64.579367 
4668.000000	64.516758 
4667.000000	64.480400 
4666.000000	64.472222 
4665.000000	64.489841 
4664.000000	64.527487 
4663.000000	64.577102 
4662.000000	64.629483 
4661.000000	64.675831 
4660.000000	64.709138 
4659.000000	64.725160 
4658.000000	64.722609 
4657.000000	64.703154 
4656.000000	64.671635 
4655.000000	64.635181 
4654.000000	64.601993 
4653.000000	64.579963 
4652.000000	64.575672 
4651.000000	64.592933 
4650.000000	64.632177 
4649.000000	64.690566 
4648.000000	64.762926 
4647.000000	64.842939 
4646.000000	64.924383 
4645.000000	65.002441 
4644.000000	65.074753 
4643.000000	65.140485 
4642.000000	65.200304 
4641.000000	65.253710 
4640.000000	65.298175 
4639.000000	65.329074 
4638.000000	65.340971 
4637.000000	65.328860 
4636.000000	65.290307 
4635.000000	65.227460 
4634.000000	65.147924 
4633.000000	65.062546 
4632.000000	64.983129 
4631.000000	64.919400 
4630.000000	64.876914 
4629.000000	64.855623 
4628.000000	64.850425 
4627.000000	64.852881 
4626.000000	64.853692 
4625.000000	64.845800 
4624.000000	64.825773 
4623.000000	64.794158 
4622.000000	64.754199 
4621.000000	64.709901 
4620.000000	64.664840 
4619.000000	64.619565 
4618.000000	64.573431 
4617.000000	64.524841 
4616.000000	64.473438 
4615.000000	64.421439 
4614.000000	64.373826 
4613.000000	64.337635 
4612.000000	64.320516 
4611.000000	64.327883 
4610.000000	64.362668 
4609.000000	64.423418 
4608.000000	64.505314 
4607.000000	64.600682 
4606.000000	64.700841 
4605.000000	64.797186 
4604.000000	64.882659 
4603.000000	64.952039 
4602.000000	65.001797 
4601.000000	65.029835 
4600.000000	65.035200 
4599.000000	65.018010 
4598.000000	64.979434 
4597.000000	64.921617 
4596.000000	64.848971 
4595.000000	64.767599 
4594.000000	64.685273 
4593.000000	64.610719 
4592.000000	64.551901 
4591.000000	64.515733 
4590.000000	64.506483 
4589.000000	64.525842 
4588.000000	64.572381 
4587.000000	64.642286 
4586.000000	64.729237 
4585.000000	64.825963 
4584.000000	64.924645 
4583.000000	65.018153 
4582.000000	65.100502 
4581.000000	65.167522 
4580.000000	65.216612 
4579.000000	65.247058 
4578.000000	65.259671 
4577.000000	65.256237 
4576.000000	65.239095 
4575.000000	65.211224 
4574.000000	65.175485 
4573.000000	65.134668 
4572.000000	65.090775 
4571.000000	65.045094 
4570.000000	64.998054 
4569.000000	64.949798 
4568.000000	64.900779 
4567.000000	64.852094 
4566.000000	64.805889 
4565.000000	64.765214 
4564.000000	64.733648 
4563.000000	64.713835 
4562.000000	64.707469 
4561.000000	64.714288 
4560.000000	64.732170 
4559.000000	64.757418 
4558.000000	64.785575 
4557.000000	64.812135 
4556.000000	64.833211 
4555.000000	64.846110 
4554.000000	64.849162 
4553.000000	64.841508 
4552.000000	64.823246 
4551.000000	64.795470 
4550.000000	64.760136 
4549.000000	64.720463 
4548.000000	64.682173 
4547.000000	64.652752 
4546.000000	64.640522 
4545.000000	64.652562 
4544.000000	64.692783 
4543.000000	64.760327 
4542.000000	64.848756 
4541.000000	64.947319 
4540.000000	65.042757 
4539.000000	65.122580 
4538.000000	65.178012 
4537.000000	65.205574 
4536.000000	65.207171 
4535.000000	65.189456 
4534.000000	65.161561 
4533.000000	65.132999 
4532.000000	65.111160 
4531.000000	65.100359 
4530.000000	65.102076 
4529.000000	65.114855 
4528.000000	65.136265 
4527.000000	65.162873 
4526.000000	65.191841 
4525.000000	65.219283 
4524.000000	65.241050 
4523.000000	65.251803 
4522.000000	65.245890 
4521.000000	65.218877 
4520.000000	65.168976 
4519.000000	65.098738 
4518.000000	65.015268 
4517.000000	64.928865 
4516.000000	64.851403 
4515.000000	64.793777 
4514.000000	64.763736 
4513.000000	64.763808 
4512.000000	64.791369 
4511.000000	64.839172 
4510.000000	64.897394 
4509.000000	64.955902 
4508.000000	65.006518 
4507.000000	65.043616 
4506.000000	65.065741 
4505.000000	65.074920 
4504.000000	65.075612 
4503.000000	65.072512 
4502.000000	65.069603 
4501.000000	65.069198 
4500.000000	65.071606 
4499.000000	65.075778 
4498.000000	65.079402 
4497.000000	65.080356 
4496.000000	65.077185 
4495.000000	65.070080 
4494.000000	65.061259 
4493.000000	65.054965 
4492.000000	65.056347 
4491.000000	65.070414 
4490.000000	65.100288 
4489.000000	65.146470 
4488.000000	65.206503 
4487.000000	65.274977 
4486.000000	65.344882 
4485.000000	65.408325 
4484.000000	65.459012 
4483.000000	65.491890 
4482.000000	65.503525 
4481.000000	65.492296 
4480.000000	65.458488 
4479.000000	65.404343 
4478.000000	65.334081 
4477.000000	65.253615 
4476.000000	65.170526 
4475.000000	65.092849 
4474.000000	65.028357 
4473.000000	64.982628 
4472.000000	64.958524 
4471.000000	64.955043 
4470.000000	64.967942 
4469.000000	64.990234 
4468.000000	65.014100 
4467.000000	65.032577 
4466.000000	65.041494 
4465.000000	65.039849 
4464.000000	65.030503 
4463.000000	65.018653 
4462.000000	65.010976 
4461.000000	65.013289 
4460.000000	65.029573 
4459.000000	65.060901 
4458.000000	65.105485 
4457.000000	65.159726 
4456.000000	65.218687 
4455.000000	65.277838 
4454.000000	65.333557 
4453.000000	65.383124 
4452.000000	65.425467 
4451.000000	65.460491 
4450.000000	65.488672 
4449.000000	65.510439 
4448.000000	65.525913 
4447.000000	65.534877 
4446.000000	65.537333 
4445.000000	65.534210 
4444.000000	65.527153 
4443.000000	65.518617 
4442.000000	65.511679 
4441.000000	65.509581 
4440.000000	65.514469 
4439.000000	65.527057 
4438.000000	65.546321 
4437.000000	65.570235 
4436.000000	65.596413 
4435.000000	65.623211 
4434.000000	65.650320 
4433.000000	65.678501 
4432.000000	65.709519 
4431.000000	65.744304 
4430.000000	65.782141 
4429.000000	65.819931 
4428.000000	65.853357 
4427.000000	65.876579 
4426.000000	65.884017 
4425.000000	65.871548 
4424.000000	65.838241 
4423.000000	65.786767 
4422.000000	65.722632 
4421.000000	65.654611 
4420.000000	65.593218 
4419.000000	65.548443 
4418.000000	65.527749 
4417.000000	65.533375 
4416.000000	65.562009 
4415.000000	65.605378 
4414.000000	65.652680 
4413.000000	65.694618 
4412.000000	65.725708 
4411.000000	65.746760 
4410.000000	65.763330 
4409.000000	65.782213 
4408.000000	65.808415 
4407.000000	65.842437 
4406.000000	65.879249 
4405.000000	65.910458 
4404.000000	65.925240 
4403.000000	65.914678 
4402.000000	65.872669 
4401.000000	65.800023 
4400.000000	65.701961 
4399.000000	65.583753 
4398.000000	65.454030 
4397.000000	65.327620 
4396.000000	65.216565 
4395.000000	65.123486 
4394.000000	65.051031 
4393.000000	65.003228 
4392.000000	64.984989 
4391.000000	65.003204 
4390.000000	65.055823 
4389.000000	65.131449 
4388.000000	65.212535 
4387.000000	65.279936 
4386.000000	65.328979 
4385.000000	65.368390 
4384.000000	65.417838 
4383.000000	65.497970 
4382.000000	65.617346 
4381.000000	65.769600 
4380.000000	65.924859 
4379.000000	66.044950 
4378.000000	66.107058 
4377.000000	66.094732 
4376.000000	66.038560 
4375.000000	65.952014 
4374.000000	65.829658 
4373.000000	65.613842 
4372.000000	65.200901 
4371.000000	64.468073 
4370.000000	63.300752 
4369.000000	61.664843 
4368.000000	59.633398 
4367.000000	57.408428 
4366.000000	55.288171 
4365.000000	53.611993 
4364.000000	52.678751 
4363.000000	52.664017 
4362.000000	53.564929 
4361.000000	55.180644 
4360.000000	57.150769 
4359.000000	59.020543 
4358.000000	60.355687 
4357.000000	60.829162 
4356.000000	60.318517 
4355.000000	58.926439 
4354.000000	56.970548 
4353.000000	54.891204 
4352.000000	53.157281 
4351.000000	52.142381 
4350.000000	52.055382 
4349.000000	52.901554 
4348.000000	54.507064 
4347.000000	56.596946 
4346.000000	58.856797 
4345.000000	61.028838 
4344.000000	62.935638 
4343.000000	64.487957 
4342.000000	65.678954 
4341.000000	66.529035 
4340.000000	67.088222 
4339.000000	67.398190 
4338.000000	67.505478 
4337.000000	67.463016 
4336.000000	67.316818 
4335.000000	67.110657 
4334.000000	66.881823 
4333.000000	66.662001 
4332.000000	66.465115 
4331.000000	66.290473 
4330.000000	66.129183 
4329.000000	65.969586 
4328.000000	65.805816 
4327.000000	65.640497 
4326.000000	65.480875 
4325.000000	65.339684 
4324.000000	65.232396 
4323.000000	65.171217 
4322.000000	65.156984 
4321.000000	65.181493 
4320.000000	65.223765 
4319.000000	65.261602 
4318.000000	65.279936 
4317.000000	65.271687 
4316.000000	65.241241 
4315.000000	65.197658 
4314.000000	65.144371 
4313.000000	65.088295 
4312.000000	65.039777 
4311.000000	65.005707 
4310.000000	64.987826 
4309.000000	64.986085 
4308.000000	64.999747 
4307.000000	65.025210 
4306.000000	65.057778 
4305.000000	65.093588 
4304.000000	65.130925 
4303.000000	65.171170 
4302.000000	65.217900 
4301.000000	65.274238 
4300.000000	65.341114 
4299.000000	65.416836 
4298.000000	65.496158 
4297.000000	65.570354 
4296.000000	65.629720 
4295.000000	65.666055 
4294.000000	65.675067 
4293.000000	65.657877 
4292.000000	65.621018 
4291.000000	65.575528 
4290.000000	65.533995 
4289.000000	65.507793 
4288.000000	65.503954 
4287.000000	65.523672 
4286.000000	65.563130 
4285.000000	65.615415 
4284.000000	65.672540 
4283.000000	65.727829 
4282.000000	65.777158 
4281.000000	65.819478 
4280.000000	65.855407 
4279.000000	65.886211 
4278.000000	65.912389 
4277.000000	65.932965 
4276.000000	65.945982 
4275.000000	65.948772 
4274.000000	65.939998 
4273.000000	65.919375 
4272.000000	65.889334 
4271.000000	65.852808 
4270.000000	65.813589 
4269.000000	65.773487 
4268.000000	65.732169 
4267.000000	65.686798 
4266.000000	65.633249 
4265.000000	65.567374 
4264.000000	65.487122 
4263.000000	65.393567 
4262.000000	65.291452 
4261.000000	65.188336 
4260.000000	65.092945 
4259.000000	65.012907 
4258.000000	64.952778 
4257.000000	64.913344 
4256.000000	64.891338 
4255.000000	64.881014 
4254.000000	64.875698 
4253.000000	64.869809 
4252.000000	64.860463 
4251.000000	64.848184 
4250.000000	64.836454 
4249.000000	64.829730 
4248.000000	64.832305 
4247.000000	64.846301 
4246.000000	64.871335 
4245.000000	64.903974 
4244.000000	64.938974 
4243.000000	64.970636 
4242.000000	64.994382 
4241.000000	65.008020 
4240.000000	65.012454 
4239.000000	65.010356 
4238.000000	65.006470 
4237.000000	65.005970 
4236.000000	65.013194 
4235.000000	65.030384 
4234.000000	65.057778 
4233.000000	65.093922 
4232.000000	65.135812 
4231.000000	65.179944 
4230.000000	65.222835 
4229.000000	65.262007 
4228.000000	65.295910 
4227.000000	65.323877 
4226.000000	65.346384 
4225.000000	65.364336 
4224.000000	65.378928 
4223.000000	65.390849 
4222.000000	65.400648 
4221.000000	65.408062 
4220.000000	65.411949 
4219.000000	65.410399 
4218.000000	65.400934 
4217.000000	65.381908 
4216.000000	65.353631 
4215.000000	65.318870 
4214.000000	65.282058 
4213.000000	65.249371 
4212.000000	65.227651 
4211.000000	65.222549 
4210.000000	65.236759 
4209.000000	65.269398 
4208.000000	65.316438 
4207.000000	65.370631 
4206.000000	65.423083 
4205.000000	65.464591 
4204.000000	65.487527 
4203.000000	65.487241 
4202.000000	65.462732 
4201.000000	65.417480 
4200.000000	65.358805 
4199.000000	65.296864 
4198.000000	65.242481 
4197.000000	65.206217 
4196.000000	65.195322 
4195.000000	65.212798 
4194.000000	65.255212 
4193.000000	65.312790 
4192.000000	65.370559 
4191.000000	65.411019 
4190.000000	65.417861 
4189.000000	65.379595 
4188.000000	65.292382 
4187.000000	65.161442 
4186.000000	64.999580 
4185.000000	64.824509 
4184.000000	64.654994 
4183.000000	64.507031 
4182.000000	64.391040 
4181.000000	64.310503 
4180.000000	64.262890 
4179.000000	64.241933 
4178.000000	64.239621 
4177.000000	64.248800 
4176.000000	64.264345 
4175.000000	64.283394 
4174.000000	64.304590 
4173.000000	64.326810 
4172.000000	64.348340 
4171.000000	64.366579 
4170.000000	64.378952 
4169.000000	64.383673 
4168.000000	64.381599 
4167.000000	64.375925 
4166.000000	64.371776 
4165.000000	64.374470 
4164.000000	64.387965 
4163.000000	64.413523 
4162.000000	64.448976 
4161.000000	64.489173 
4160.000000	64.527487 
4159.000000	64.557933 
