PE IR       SPECTRUM    SPECTRUM    ASCII       PEDS        1.60        
  -1
C-4C09~1.ASC
17/03/28
00:21:56.00
17/03/28
00:21:56.00
tln
$C-4040-8_t0117$<tbV0>[-2.6,13.0,8.0,0.0,27,1,0]
370.000000
64









2002,4.07    
MIRTGS : RIGHTBACK : INTERNAL 2
MIR : ON : INTERNAL 2
OPTKBR

0.200000
8
8.000000
FILLER
RATIO
SPECTRUM
UNLOCKED 256

DOUBLE
64
COMBINED
1
0
0


1.000000
RATIO


1
0
TRUE
51149
0
LEFT NOT FITTED RIGHT NOT FITTED 0
NONE
NONE
15600
12.000000
4.427000
51148
TRUE
1 0 8 72 0 0 0 0 

15798.010000






#HDR
-1
-1
#GR
CM-1
%T
0.00002384185791015625
0.0
5000.000000
-1.000000
4631
8
89.695358
22.782778
#DATA
5000.000000	64.597535 
4999.000000	64.648175 
4998.000000	64.708852 
4997.000000	64.772129 
4996.000000	64.830255 
4995.000000	64.876365 
4994.000000	64.906287 
4993.000000	64.917826 
4992.000000	64.912891 
4991.000000	64.896917 
4990.000000	64.877939 
4989.000000	64.864563 
4988.000000	64.864134 
4987.000000	64.881134 
4986.000000	64.915585 
4985.000000	64.963006 
4984.000000	65.016436 
4983.000000	65.068626 
4982.000000	65.114212 
4981.000000	65.151262 
4980.000000	65.181612 
4979.000000	65.210294 
4978.000000	65.243625 
4977.000000	65.287065 
4976.000000	65.344071 
4975.000000	65.414357 
4974.000000	65.494561 
4973.000000	65.578031 
4972.000000	65.656757 
4971.000000	65.721654 
4970.000000	65.766382 
4969.000000	65.785574 
4968.000000	65.776348 
4967.000000	65.737318 
4966.000000	65.669775 
4965.000000	65.576338 
4964.000000	65.461516 
4963.000000	65.330386 
4962.000000	65.189576 
4961.000000	65.044879 
4960.000000	64.901876 
4959.000000	64.764475 
4958.000000	64.635300 
4957.000000	64.516425 
4956.000000	64.409828 
4955.000000	64.317607 
4954.000000	64.242148 
4953.000000	64.185428 
4952.000000	64.149165 
4951.000000	64.132523 
4950.000000	64.133286 
4949.000000	64.147162 
4948.000000	64.170479 
4947.000000	64.199328 
4946.000000	64.232850 
4945.000000	64.272427 
4944.000000	64.322566 
4943.000000	64.388513 
4942.000000	64.474987 
4941.000000	64.583730 
4940.000000	64.712190 
4939.000000	64.852786 
4938.000000	64.993906 
4937.000000	65.122556 
4936.000000	65.226125 
4935.000000	65.296220 
4934.000000	65.328502 
4933.000000	65.323662 
4932.000000	65.286374 
4931.000000	65.224456 
4930.000000	65.145444 
4929.000000	65.055704 
4928.000000	64.960408 
4927.000000	64.864015 
4926.000000	64.770960 
4925.000000	64.686393 
4924.000000	64.616918 
4923.000000	64.569926 
4922.000000	64.552044 
4921.000000	64.567565 
4920.000000	64.615845 
4919.000000	64.691662 
4918.000000	64.785337 
4917.000000	64.884662 
4916.000000	64.975929 
4915.000000	65.047359 
4914.000000	65.091562 
4913.000000	65.106034 
4912.000000	65.092849 
4911.000000	65.057754 
4910.000000	65.008234 
4909.000000	64.952349 
4908.000000	64.896965 
4907.000000	64.847898 
4906.000000	64.810276 
4905.000000	64.787507 
4904.000000	64.781737 
4903.000000	64.792418 
4902.000000	64.816641 
4901.000000	64.848470 
4900.000000	64.880061 
4899.000000	64.902925 
4898.000000	64.909625 
4897.000000	64.896512 
4896.000000	64.863467 
4895.000000	64.813327 
4894.000000	64.749765 
4893.000000	64.676856 
4892.000000	64.596724 
4891.000000	64.508485 
4890.000000	64.409971 
4889.000000	64.299011 
4888.000000	64.176774 
4887.000000	64.049029 
4886.000000	63.926935 
4885.000000	63.825130 
4884.000000	63.758277 
4883.000000	63.736772 
4882.000000	63.763356 
4881.000000	63.830637 
4880.000000	63.923382 
4879.000000	64.020943 
4878.000000	64.103531 
4877.000000	64.156317 
4876.000000	64.173722 
4875.000000	64.160132 
4874.000000	64.128279 
4873.000000	64.095354 
4872.000000	64.078783 
4871.000000	64.091515 
4870.000000	64.139628 
4869.000000	64.220952 
4868.000000	64.327025 
4867.000000	64.444708 
4866.000000	64.560794 
4865.000000	64.663743 
4864.000000	64.746022 
4863.000000	64.804911 
4862.000000	64.841079 
4861.000000	64.858841 
4860.000000	64.863300 
4859.000000	64.860844 
4858.000000	64.857983 
4857.000000	64.860486 
4856.000000	64.873480 
4855.000000	64.899611 
4854.000000	64.940214 
4853.000000	64.992427 
4852.000000	65.049982 
4851.000000	65.103292 
4850.000000	65.141630 
4849.000000	65.154838 
4848.000000	65.136146 
4847.000000	65.084075 
4846.000000	65.003466 
4845.000000	64.905142 
4844.000000	64.803576 
4843.000000	64.714026 
4842.000000	64.648604 
4841.000000	64.613795 
4840.000000	64.608693 
4839.000000	64.626049 
4838.000000	64.653968 
4837.000000	64.679908 
4836.000000	64.693498 
4835.000000	64.688253 
4834.000000	64.663338 
4833.000000	64.622616 
4832.000000	64.573550 
4831.000000	64.523315 
4830.000000	64.478802 
4829.000000	64.444494 
4828.000000	64.422869 
4827.000000	64.414548 
4826.000000	64.419126 
4825.000000	64.435768 
4824.000000	64.463710 
4823.000000	64.502310 
4822.000000	64.550995 
4821.000000	64.609003 
4820.000000	64.675045 
4819.000000	64.747047 
4818.000000	64.822459 
4817.000000	64.898014 
4816.000000	64.970731 
4815.000000	65.037155 
4814.000000	65.093517 
4813.000000	65.135574 
4812.000000	65.159821 
4811.000000	65.163421 
4810.000000	65.144991 
4809.000000	65.104866 
4808.000000	65.046596 
4807.000000	64.975857 
4806.000000	64.900469 
4805.000000	64.828968 
4804.000000	64.769029 
4803.000000	64.726591 
4802.000000	64.704895 
4801.000000	64.704275 
4800.000000	64.722323 
4799.000000	64.754486 
4798.000000	64.794993 
4797.000000	64.838027 
4796.000000	64.878582 
4795.000000	64.913344 
4794.000000	64.941096 
4793.000000	64.962577 
4792.000000	64.979767 
4791.000000	64.996314 
4790.000000	65.016388 
4789.000000	65.043878 
4788.000000	65.081071 
4787.000000	65.128874 
4786.000000	65.185356 
4785.000000	65.246534 
4784.000000	65.305829 
4783.000000	65.355587 
4782.000000	65.388107 
4781.000000	65.397548 
4780.000000	65.381002 
4779.000000	65.339517 
4778.000000	65.278077 
4777.000000	65.205287 
4776.000000	65.131020 
4775.000000	65.064764 
4774.000000	65.013527 
4773.000000	64.981079 
4772.000000	64.966964 
4771.000000	64.967107 
4770.000000	64.975094 
4769.000000	64.984083 
4768.000000	64.987659 
4767.000000	64.981389 
4766.000000	64.962720 
4765.000000	64.931464 
4764.000000	64.889550 
4763.000000	64.840865 
4762.000000	64.789795 
4761.000000	64.741301 
4760.000000	64.700555 
4759.000000	64.672493 
4758.000000	64.661002 
4757.000000	64.668393 
4756.000000	64.694905 
4755.000000	64.738321 
4754.000000	64.793848 
4753.000000	64.855265 
4752.000000	64.915418 
4751.000000	64.967989 
4750.000000	65.008378 
4749.000000	65.034651 
4748.000000	65.047383 
4747.000000	65.049695 
4746.000000	65.046310 
4745.000000	65.042638 
4744.000000	65.043187 
4743.000000	65.050935 
4742.000000	65.067028 
4741.000000	65.089631 
4740.000000	65.114545 
4739.000000	65.135908 
4738.000000	65.147519 
4737.000000	65.144062 
4736.000000	65.122795 
4735.000000	65.083694 
4734.000000	65.030074 
4733.000000	64.967823 
4732.000000	64.904546 
4731.000000	64.848184 
4730.000000	64.805817 
4729.000000	64.782333 
4728.000000	64.780211 
4727.000000	64.798903 
4726.000000	64.835786 
4725.000000	64.887237 
4724.000000	64.948940 
4723.000000	65.016031 
4722.000000	65.083980 
4721.000000	65.148973 
4720.000000	65.207672 
4719.000000	65.256905 
4718.000000	65.294432 
4717.000000	65.319085 
4716.000000	65.330886 
4715.000000	65.331220 
4714.000000	65.322232 
4713.000000	65.306425 
4712.000000	65.286421 
4711.000000	65.264511 
4710.000000	65.242362 
4709.000000	65.221047 
4708.000000	65.201640 
4707.000000	65.185213 
4706.000000	65.173506 
4705.000000	65.167760 
4704.000000	65.169024 
4703.000000	65.176033 
4702.000000	65.184974 
4701.000000	65.189337 
4700.000000	65.180826 
4699.000000	65.151262 
4698.000000	65.094518 
4697.000000	65.009045 
4696.000000	64.898991 
4695.000000	64.774465 
4694.000000	64.649391 
4693.000000	64.539122 
4692.000000	64.457011 
4691.000000	64.412260 
4690.000000	64.408087 
4689.000000	64.441394 
4688.000000	64.503860 
4687.000000	64.584684 
4686.000000	64.673042 
4685.000000	64.759683 
4684.000000	64.837956 
4683.000000	64.903855 
4682.000000	64.955496 
4681.000000	64.991474 
4680.000000	65.010738 
4679.000000	65.012383 
4678.000000	64.995956 
4677.000000	64.963340 
4676.000000	64.918065 
4675.000000	64.865756 
4674.000000	64.813303 
4673.000000	64.768338 
4672.000000	64.737868 
4671.000000	64.726924 
4670.000000	64.738178 
4669.000000	64.771080 
4668.000000	64.822506 
4667.000000	64.887309 
4666.000000	64.959311 
4665.000000	65.032052 
4664.000000	65.099310 
4663.000000	65.155386 
4662.000000	65.195775 
4661.000000	65.217351 
4660.000000	65.218687 
4659.000000	65.199899 
4658.000000	65.162968 
4657.000000	65.111446 
4656.000000	65.049743 
4655.000000	64.983129 
4654.000000	64.916753 
4653.000000	64.856076 
4652.000000	64.807462 
4651.000000	64.777302 
4650.000000	64.771389 
4649.000000	64.793157 
4648.000000	64.842867 
4647.000000	64.916014 
4646.000000	65.003371 
4645.000000	65.092062 
4644.000000	65.167260 
4643.000000	65.215802 
4642.000000	65.229177 
4641.000000	65.205311 
4640.000000	65.148854 
4639.000000	65.070199 
4638.000000	64.983320 
4637.000000	64.901590 
4636.000000	64.835095 
4635.000000	64.788222 
4634.000000	64.759564 
4633.000000	64.743685 
4632.000000	64.733815 
4631.000000	64.724278 
4630.000000	64.712023 
4629.000000	64.697241 
4628.000000	64.682388 
4627.000000	64.669680 
4626.000000	64.660000 
4625.000000	64.651083 
4624.000000	64.638948 
4623.000000	64.618229 
4622.000000	64.585852 
4621.000000	64.541697 
4620.000000	64.491415 
4619.000000	64.444923 
4618.000000	64.415740 
4617.000000	64.416885 
4616.000000	64.458179 
4615.000000	64.542841 
4614.000000	64.666438 
4613.000000	64.817214 
4612.000000	64.978075 
4611.000000	65.130352 
4610.000000	65.256690 
4609.000000	65.344190 
4608.000000	65.386700 
4607.000000	65.385174 
4606.000000	65.346503 
4605.000000	65.281152 
4604.000000	65.201544 
4603.000000	65.119242 
4602.000000	65.043091 
4601.000000	64.978051 
4600.000000	64.925813 
4599.000000	64.885473 
4598.000000	64.855384 
4597.000000	64.834260 
4596.000000	64.821529 
4595.000000	64.817881 
4594.000000	64.824223 
4593.000000	64.841771 
4592.000000	64.869570 
4591.000000	64.906001 
4590.000000	64.947652 
4589.000000	64.991331 
4588.000000	65.033841 
4587.000000	65.074086 
4586.000000	65.113091 
4585.000000	65.153908 
4584.000000	65.200328 
4583.000000	65.255737 
4582.000000	65.321660 
4581.000000	65.396285 
4580.000000	65.474343 
4579.000000	65.547943 
4578.000000	65.608406 
4577.000000	65.648007 
4576.000000	65.661621 
4575.000000	65.647578 
4574.000000	65.607428 
4573.000000	65.545773 
4572.000000	65.468811 
4571.000000	65.383124 
4570.000000	65.294432 
4569.000000	65.207529 
4568.000000	65.125918 
4567.000000	65.052199 
4566.000000	64.988517 
4565.000000	64.937019 
4564.000000	64.899945 
4563.000000	64.879155 
4562.000000	64.875435 
4561.000000	64.887309 
4560.000000	64.911007 
4559.000000	64.939904 
4558.000000	64.966273 
4557.000000	64.982032 
4556.000000	64.982247 
4555.000000	64.966154 
4554.000000	64.938592 
4553.000000	64.908599 
4552.000000	64.887809 
4551.000000	64.886975 
4550.000000	64.912843 
4549.000000	64.965343 
4548.000000	65.036749 
4547.000000	65.113019 
4546.000000	65.176606 
4545.000000	65.211033 
4544.000000	65.205264 
4543.000000	65.157127 
4542.000000	65.073847 
4541.000000	64.970850 
4540.000000	64.867186 
4539.000000	64.781737 
4538.000000	64.728832 
4537.000000	64.715504 
4536.000000	64.740848 
4535.000000	64.796805 
4534.000000	64.871740 
4533.000000	64.952301 
4532.000000	65.026831 
4531.000000	65.087032 
4530.000000	65.128302 
4529.000000	65.150237 
4528.000000	65.154957 
4527.000000	65.146732 
4526.000000	65.130376 
4525.000000	65.110349 
4524.000000	65.089988 
4523.000000	65.071487 
4522.000000	65.055871 
4521.000000	65.042662 
4520.000000	65.030217 
4519.000000	65.016317 
4518.000000	64.999175 
4517.000000	64.978218 
4516.000000	64.954495 
4515.000000	64.930772 
4514.000000	64.910817 
4513.000000	64.898490 
4512.000000	64.896059 
4511.000000	64.903402 
4510.000000	64.917492 
4509.000000	64.932489 
4508.000000	64.941763 
4507.000000	64.939308 
4506.000000	64.922094 
4505.000000	64.890646 
4504.000000	64.850139 
4503.000000	64.808654 
4502.000000	64.776349 
4501.000000	64.763021 
4500.000000	64.775753 
4499.000000	64.817070 
4498.000000	64.884352 
4497.000000	64.970111 
4496.000000	65.063619 
4495.000000	65.153002 
4494.000000	65.227246 
4493.000000	65.278077 
4492.000000	65.301275 
4491.000000	65.297126 
4490.000000	65.269064 
4489.000000	65.223431 
4488.000000	65.168190 
4487.000000	65.111708 
4486.000000	65.062737 
4485.000000	65.027832 
4484.000000	65.012288 
4483.000000	65.017104 
4482.000000	65.039587 
4481.000000	65.072703 
4480.000000	65.106606 
4479.000000	65.131139 
4478.000000	65.137171 
4477.000000	65.120673 
4476.000000	65.083169 
4475.000000	65.032696 
4474.000000	64.981532 
4473.000000	64.943623 
4472.000000	64.930772 
4471.000000	64.949488 
4470.000000	64.999151 
4469.000000	65.072417 
4468.000000	65.157341 
4467.000000	65.240907 
4466.000000	65.312409 
4465.000000	65.365910 
4464.000000	65.400886 
4463.000000	65.421080 
4462.000000	65.432238 
4461.000000	65.438652 
4460.000000	65.442228 
4459.000000	65.441656 
4458.000000	65.434503 
4457.000000	65.418601 
4456.000000	65.394639 
4455.000000	65.367937 
4454.000000	65.347337 
4453.000000	65.343785 
4452.000000	65.366530 
4451.000000	65.419816 
4450.000000	65.501332 
4449.000000	65.601730 
4448.000000	65.707254 
4447.000000	65.802669 
4446.000000	65.875935 
4445.000000	65.921330 
4444.000000	65.939831 
4443.000000	65.938115 
4442.000000	65.926456 
4441.000000	65.915107 
4440.000000	65.911555 
4439.000000	65.918588 
4438.000000	65.932893 
4437.000000	65.946888 
4436.000000	65.954542 
4435.000000	65.951275 
4434.000000	65.937304 
4433.000000	65.914487 
4432.000000	65.884113 
4431.000000	65.846633 
4430.000000	65.795969 
4429.000000	65.727710 
4428.000000	65.645122 
4427.000000	65.556836 
4426.000000	65.475821 
4425.000000	65.416502 
4424.000000	65.389370 
4423.000000	65.400910 
4422.000000	65.449333 
4421.000000	65.530872 
4420.000000	65.640306 
4419.000000	65.775060 
4418.000000	65.935158 
4417.000000	66.119003 
4416.000000	66.319942 
4415.000000	66.518712 
4414.000000	66.684484 
4413.000000	66.772747 
4412.000000	66.739368 
4411.000000	66.555333 
4410.000000	66.219711 
4409.000000	65.775823 
4408.000000	65.293073 
4407.000000	64.868831 
4406.000000	64.577865 
4405.000000	64.445328 
4404.000000	64.431548 
4403.000000	64.429211 
4402.000000	64.308905 
4401.000000	63.955354 
4400.000000	63.318037 
4399.000000	62.439703 
4398.000000	61.447501 
4397.000000	60.521030 
4396.000000	59.842491 
4395.000000	59.537982 
4394.000000	59.650087 
4393.000000	60.121488 
4392.000000	60.817980 
4391.000000	61.566066 
4390.000000	62.201786 
4389.000000	62.614655 
4388.000000	62.769460 
4387.000000	62.710714 
4386.000000	62.542009 
4385.000000	62.393569 
4384.000000	62.379622 
4383.000000	62.569046 
4382.000000	62.972593 
4381.000000	63.542628 
4380.000000	64.200377 
4379.000000	64.852833 
4378.000000	65.426039 
4377.000000	65.874409 
4376.000000	66.190075 
4375.000000	66.394400 
4374.000000	66.518378 
4373.000000	66.596245 
4372.000000	66.650342 
4371.000000	66.690802 
4370.000000	66.720581 
4369.000000	66.735720 
4368.000000	66.741108 
4367.000000	66.737866 
4366.000000	66.728615 
4365.000000	66.710591 
4364.000000	66.676807 
4363.000000	66.617012 
4362.000000	66.521215 
4361.000000	66.387534 
4360.000000	66.223764 
4359.000000	66.046786 
4358.000000	65.878486 
4357.000000	65.734672 
4356.000000	65.622925 
4355.000000	65.543341 
4354.000000	65.488648 
4353.000000	65.448498 
4352.000000	65.411734 
4351.000000	65.370011 
4350.000000	65.319037 
4349.000000	65.256595 
4348.000000	65.184092 
4347.000000	65.106105 
4346.000000	65.027427 
4345.000000	64.949035 
4344.000000	64.870643 
4343.000000	64.790892 
4342.000000	64.709043 
4341.000000	64.625477 
4340.000000	64.544153 
4339.000000	64.472150 
4338.000000	64.418864 
4337.000000	64.393544 
4336.000000	64.403653 
4335.000000	64.452266 
4334.000000	64.537405 
4333.000000	64.651441 
4332.000000	64.781522 
4331.000000	64.911675 
4330.000000	65.025806 
4329.000000	65.110397 
4328.000000	65.155935 
4327.000000	65.158987 
4326.000000	65.123271 
4325.000000	65.058493 
4324.000000	64.977931 
4323.000000	64.896035 
4322.000000	64.827013 
4321.000000	64.780998 
4320.000000	64.763474 
4319.000000	64.773392 
4318.000000	64.805579 
4317.000000	64.850449 
4316.000000	64.896893 
4315.000000	64.934372 
4314.000000	64.955067 
4313.000000	64.955449 
4312.000000	64.936113 
4311.000000	64.901971 
4310.000000	64.860343 
4309.000000	64.819931 
4308.000000	64.788913 
4307.000000	64.773678 
4306.000000	64.777827 
4305.000000	64.802241 
4304.000000	64.845228 
4303.000000	64.903259 
4302.000000	64.971399 
4301.000000	65.044140 
4300.000000	65.116071 
4299.000000	65.181756 
4298.000000	65.236830 
4297.000000	65.277981 
4296.000000	65.303921 
4295.000000	65.315294 
4294.000000	65.314722 
4293.000000	65.306377 
4292.000000	65.294814 
4291.000000	65.285134 
4290.000000	65.280294 
4289.000000	65.281105 
4288.000000	65.284895 
4287.000000	65.287160 
4286.000000	65.281462 
4285.000000	65.261697 
4284.000000	65.223073 
4283.000000	65.163826 
4282.000000	65.085911 
4281.000000	64.995312 
4280.000000	64.900469 
4279.000000	64.811086 
4278.000000	64.736223 
4277.000000	64.682936 
4276.000000	64.655065 
4275.000000	64.653420 
4274.000000	64.676189 
4273.000000	64.720273 
4272.000000	64.781403 
4271.000000	64.855289 
4270.000000	64.937734 
4269.000000	65.024924 
4268.000000	65.112018 
4267.000000	65.194463 
4266.000000	65.267753 
4265.000000	65.328025 
4264.000000	65.372323 
4263.000000	65.398883 
4262.000000	65.407752 
4261.000000	65.399932 
4260.000000	65.378212 
4259.000000	65.345406 
4258.000000	65.304613 
4257.000000	65.258789 
4256.000000	65.211009 
4255.000000	65.163898 
4254.000000	65.119504 
4253.000000	65.079474 
4252.000000	65.045237 
4251.000000	65.017032 
4250.000000	64.994144 
4249.000000	64.975118 
4248.000000	64.958477 
4247.000000	64.942598 
4246.000000	64.926743 
4245.000000	64.911293 
4244.000000	64.897394 
4243.000000	64.886760 
4242.000000	64.880490 
4241.000000	64.878249 
4240.000000	64.878392 
4239.000000	64.878082 
4238.000000	64.874291 
4237.000000	64.863824 
4236.000000	64.845728 
4235.000000	64.821720 
4234.000000	64.796614 
4233.000000	64.776778 
4232.000000	64.769268 
4231.000000	64.779639 
4230.000000	64.810776 
4229.000000	64.861845 
4228.000000	64.928555 
4227.000000	65.003824 
4226.000000	65.079569 
4225.000000	65.148329 
4224.000000	65.204644 
4223.000000	65.245866 
4222.000000	65.271902 
4221.000000	65.284609 
4220.000000	65.287470 
4219.000000	65.284013 
4218.000000	65.277433 
4217.000000	65.269088 
4216.000000	65.259385 
4215.000000	65.246629 
4214.000000	65.229105 
4213.000000	65.204310 
4212.000000	65.169191 
4211.000000	65.122222 
4210.000000	65.063762 
4209.000000	64.997553 
4208.000000	64.929485 
4207.000000	64.868402 
4206.000000	64.824271 
4205.000000	64.806056 
4204.000000	64.819455 
4203.000000	64.864826 
4202.000000	64.936542 
4201.000000	65.022683 
4200.000000	65.107226 
4199.000000	65.172672 
4198.000000	65.203571 
4197.000000	65.189456 
4196.000000	65.126776 
4195.000000	65.018796 
4194.000000	64.874815 
4193.000000	64.708065 
4192.000000	64.534187 
4191.000000	64.367294 
4190.000000	64.220905 
4189.000000	64.106535 
4188.000000	64.034986 
4187.000000	64.014720 
4186.000000	64.052152 
4185.000000	64.149975 
4184.000000	64.306139 
4183.000000	64.511251 
4182.000000	64.749860 
4181.000000	65.000486 
4180.000000	65.239667 
4179.000000	65.444827 
4178.000000	65.599298 
4177.000000	65.694808 
4176.000000	65.733027 
4175.000000	65.724706 
4174.000000	65.685439 
4173.000000	65.631532 
4172.000000	65.576219 
4171.000000	65.526771 
4170.000000	65.484356 
4169.000000	65.444612 
4168.000000	65.401601 
4167.000000	65.349531 
4166.000000	65.285444 
4165.000000	65.209889 
4164.000000	65.126585 
4163.000000	65.041613 
4162.000000	64.960503 
4161.000000	64.888310 
4160.000000	64.827871 
4159.000000	64.780616 
