PE IR       SPECTRUM    SPECTRUM    ASCII       PEDS        1.60        
  -1
C-9AE0~1.ASC
17/03/27
16:52:31.00
17/03/27
16:52:31.00
tln
$C-4040-8_t0029$<tbV0>[-2.6,-7.8,8.0,0.0,27,1,0]
370.000000
64









2002,4.07    
MIRTGS : RIGHTBACK : INTERNAL 2
MIR : ON : INTERNAL 2
OPTKBR

0.200000
8
8.000000
FILLER
RATIO
SPECTRUM
UNLOCKED 256

DOUBLE
64
COMBINED
1
0
0


1.000000
RATIO


1
0
TRUE
51149
0
LEFT NOT FITTED RIGHT NOT FITTED 0
NONE
NONE
15600
12.000000
4.427000
51148
TRUE
1 0 8 72 0 0 0 0 

15798.010000






#HDR
-1
-1
#GR
CM-1
%T
0.00002384185791015625
0.0
5000.000000
-1.000000
4631
8
67.935490
28.926157
#DATA
5000.000000	63.929510 
4999.000000	63.882112 
4998.000000	63.852357 
4997.000000	63.841772 
4996.000000	63.848090 
4995.000000	63.866806 
4994.000000	63.891005 
4993.000000	63.913488 
4992.000000	63.927030 
4991.000000	63.925027 
4990.000000	63.903522 
4989.000000	63.860654 
4988.000000	63.799667 
4987.000000	63.727831 
4986.000000	63.656902 
4985.000000	63.600468 
4984.000000	63.572263 
4983.000000	63.582897 
4982.000000	63.637137 
4981.000000	63.732075 
4980.000000	63.856625 
4979.000000	63.993430 
4978.000000	64.121603 
4977.000000	64.221453 
4976.000000	64.278483 
4975.000000	64.286947 
4974.000000	64.250183 
4973.000000	64.180016 
4972.000000	64.093613 
4971.000000	64.009642 
4970.000000	63.944554 
4969.000000	63.908815 
4968.000000	63.906168 
4967.000000	63.932657 
4966.000000	63.980126 
4965.000000	64.036607 
4964.000000	64.090108 
4963.000000	64.130330 
4962.000000	64.150047 
4961.000000	64.146947 
4960.000000	64.122986 
4959.000000	64.084315 
4958.000000	64.039158 
4957.000000	63.996982 
4956.000000	63.966083 
4955.000000	63.952422 
4954.000000	63.958215 
4953.000000	63.981199 
4952.000000	64.015078 
4951.000000	64.050602 
4950.000000	64.077830 
4949.000000	64.088320 
4948.000000	64.077496 
4947.000000	64.045333 
4946.000000	63.997077 
4945.000000	63.941931 
4944.000000	63.890933 
4943.000000	63.854455 
4942.000000	63.839077 
4941.000000	63.846254 
4940.000000	63.871741 
4939.000000	63.907361 
4938.000000	63.942384 
4937.000000	63.966393 
4936.000000	63.971614 
4935.000000	63.954997 
4934.000000	63.918471 
4933.000000	63.868045 
4932.000000	63.812160 
4931.000000	63.759350 
4930.000000	63.716053 
4929.000000	63.685178 
4928.000000	63.666057 
4927.000000	63.655424 
4926.000000	63.648366 
4925.000000	63.640427 
4924.000000	63.628745 
4923.000000	63.613367 
4922.000000	63.596677 
4921.000000	63.583445 
4920.000000	63.578605 
4919.000000	63.587045 
4918.000000	63.612532 
4917.000000	63.656592 
4916.000000	63.718461 
4915.000000	63.794326 
4914.000000	63.878417 
4913.000000	63.962960 
4912.000000	64.039397 
4911.000000	64.100241 
4910.000000	64.139890 
4909.000000	64.156699 
4908.000000	64.152979 
4907.000000	64.135384 
4906.000000	64.113616 
4905.000000	64.098453 
4904.000000	64.099287 
4903.000000	64.122033 
4902.000000	64.167881 
4901.000000	64.232730 
4900.000000	64.308238 
4899.000000	64.383316 
4898.000000	64.446592 
4897.000000	64.489626 
4896.000000	64.508032 
4895.000000	64.501976 
4894.000000	64.475250 
4893.000000	64.434480 
4892.000000	64.386343 
4891.000000	64.336442 
4890.000000	64.287447 
4889.000000	64.239645 
4888.000000	64.190864 
4887.000000	64.139199 
4886.000000	64.083123 
4885.000000	64.022850 
4884.000000	63.960552 
4883.000000	63.900661 
4882.000000	63.847804 
4881.000000	63.805103 
4880.000000	63.773894 
4879.000000	63.752818 
4878.000000	63.738608 
4877.000000	63.726902 
4876.000000	63.714241 
4875.000000	63.699388 
4874.000000	63.684296 
4873.000000	63.674139 
4872.000000	63.675904 
4871.000000	63.696813 
4870.000000	63.742041 
4869.000000	63.812875 
4868.000000	63.906359 
4867.000000	64.014291 
4866.000000	64.125609 
4865.000000	64.226555 
4864.000000	64.304041 
4863.000000	64.346575 
4862.000000	64.347314 
4861.000000	64.303684 
4860.000000	64.217996 
4859.000000	64.096999 
4858.000000	63.951492 
4857.000000	63.794469 
4856.000000	63.639378 
4855.000000	63.499307 
4854.000000	63.385891 
4853.000000	63.307619 
4852.000000	63.269233 
4851.000000	63.271474 
4850.000000	63.311409 
4849.000000	63.382411 
4848.000000	63.475203 
4847.000000	63.578987 
4846.000000	63.682723 
4845.000000	63.776302 
4844.000000	63.851737 
4843.000000	63.903808 
4842.000000	63.930487 
4841.000000	63.933348 
4840.000000	63.916730 
4839.000000	63.887190 
4838.000000	63.851785 
4837.000000	63.817811 
4836.000000	63.790869 
4835.000000	63.774681 
4834.000000	63.770675 
4833.000000	63.779067 
4832.000000	63.798880 
4831.000000	63.828420 
4830.000000	63.866209 
4829.000000	63.910865 
4828.000000	63.961791 
4827.000000	64.018416 
4826.000000	64.079999 
4825.000000	64.144754 
4824.000000	64.210581 
4823.000000	64.274740 
4822.000000	64.334297 
4821.000000	64.386272 
4820.000000	64.428114 
4819.000000	64.457893 
4818.000000	64.474749 
4817.000000	64.478683 
4816.000000	64.470100 
4815.000000	64.449644 
4814.000000	64.419031 
4813.000000	64.380097 
4812.000000	64.335465 
4811.000000	64.287233 
4810.000000	64.237999 
4809.000000	64.189672 
4808.000000	64.143705 
4807.000000	64.100956 
4806.000000	64.061284 
4805.000000	64.024519 
4804.000000	63.990521 
4803.000000	63.959860 
4802.000000	63.933563 
4801.000000	63.913297 
4800.000000	63.900876 
4799.000000	63.897299 
4798.000000	63.901829 
4797.000000	63.911747 
4796.000000	63.922381 
4795.000000	63.927531 
4794.000000	63.920736 
4793.000000	63.896656 
4792.000000	63.852453 
4791.000000	63.788604 
4790.000000	63.708901 
4789.000000	63.620066 
4788.000000	63.530468 
4787.000000	63.448214 
4786.000000	63.380002 
4785.000000	63.330054 
4784.000000	63.299870 
4783.000000	63.288402 
4782.000000	63.293051 
4781.000000	63.310265 
4780.000000	63.337159 
4779.000000	63.370537 
4778.000000	63.408994 
4777.000000	63.450837 
4776.000000	63.495850 
4775.000000	63.543486 
4774.000000	63.593840 
4773.000000	63.646864 
4772.000000	63.702368 
4771.000000	63.759803 
4770.000000	63.818168 
4769.000000	63.875865 
4768.000000	63.931107 
4767.000000	63.982057 
4766.000000	64.027237 
4765.000000	64.065766 
4764.000000	64.097809 
4763.000000	64.124274 
4762.000000	64.147067 
4761.000000	64.168119 
4760.000000	64.188718 
4759.000000	64.208936 
4758.000000	64.227676 
4757.000000	64.242815 
4756.000000	64.251899 
4755.000000	64.252591 
4754.000000	64.244198 
4753.000000	64.227437 
4752.000000	64.204740 
4751.000000	64.179635 
4750.000000	64.156055 
4749.000000	64.137268 
4748.000000	64.125657 
4747.000000	64.121413 
4746.000000	64.123010 
4745.000000	64.126896 
4744.000000	64.128589 
4743.000000	64.123201 
4742.000000	64.106559 
4741.000000	64.076590 
4740.000000	64.033961 
4739.000000	63.982224 
4738.000000	63.926911 
4737.000000	63.875079 
4736.000000	63.833403 
4735.000000	63.806867 
4734.000000	63.797545 
4733.000000	63.804149 
4732.000000	63.822317 
4731.000000	63.845205 
4730.000000	63.865327 
4729.000000	63.876152 
4728.000000	63.873910 
4727.000000	63.857507 
4726.000000	63.829660 
4725.000000	63.795328 
4724.000000	63.760972 
4723.000000	63.732790 
4722.000000	63.715338 
4721.000000	63.710904 
4720.000000	63.718724 
4719.000000	63.735723 
4718.000000	63.756752 
4717.000000	63.776135 
4716.000000	63.788652 
4715.000000	63.790845 
4714.000000	63.782143 
4713.000000	63.765048 
4712.000000	63.744568 
4711.000000	63.726973 
4710.000000	63.718390 
4709.000000	63.722872 
4708.000000	63.741707 
4707.000000	63.772416 
4706.000000	63.808941 
4705.000000	63.842916 
4704.000000	63.865900 
4703.000000	63.871455 
4702.000000	63.856434 
4701.000000	63.822221 
4700.000000	63.774108 
4699.000000	63.720202 
4698.000000	63.669323 
4697.000000	63.629126 
4696.000000	63.604378 
4695.000000	63.596034 
4694.000000	63.601827 
4693.000000	63.616800 
4692.000000	63.635277 
4691.000000	63.651537 
4690.000000	63.661026 
4689.000000	63.660788 
4688.000000	63.649559 
4687.000000	63.627958 
4686.000000	63.597965 
4685.000000	63.562893 
4684.000000	63.526749 
4683.000000	63.494992 
4682.000000	63.473391 
4681.000000	63.467454 
4680.000000	63.480997 
4679.000000	63.515138 
4678.000000	63.567590 
4677.000000	63.632202 
4676.000000	63.700437 
4675.000000	63.762879 
4674.000000	63.811612 
4673.000000	63.841509 
4672.000000	63.851642 
4671.000000	63.844871 
4670.000000	63.827157 
4669.000000	63.805866 
4668.000000	63.787436 
4667.000000	63.776063 
4666.000000	63.772869 
4665.000000	63.776588 
4664.000000	63.783454 
4663.000000	63.789176 
4662.000000	63.789725 
4661.000000	63.782811 
4660.000000	63.767433 
4659.000000	63.743972 
4658.000000	63.713645 
4657.000000	63.677954 
4656.000000	63.638567 
4655.000000	63.596630 
4654.000000	63.553547 
4653.000000	63.510322 
4652.000000	63.467550 
4651.000000	63.425397 
4650.000000	63.383603 
4649.000000	63.342213 
4648.000000	63.301301 
4647.000000	63.262414 
4646.000000	63.227415 
4645.000000	63.199639 
4644.000000	63.182568 
4643.000000	63.179349 
4642.000000	63.191294 
4641.000000	63.217926 
4640.000000	63.256335 
4639.000000	63.302135 
4638.000000	63.349771 
4637.000000	63.394594 
4636.000000	63.433694 
4635.000000	63.466691 
4634.000000	63.495612 
4633.000000	63.523697 
4632.000000	63.553977 
4631.000000	63.588142 
4630.000000	63.625693 
4629.000000	63.664054 
4628.000000	63.699293 
4627.000000	63.727855 
4626.000000	63.747620 
4625.000000	63.758635 
4624.000000	63.763093 
4623.000000	63.765215 
4622.000000	63.769841 
4621.000000	63.780665 
4620.000000	63.799452 
4619.000000	63.825702 
4618.000000	63.856649 
4617.000000	63.888263 
4616.000000	63.915801 
4615.000000	63.935613 
4614.000000	63.945126 
4613.000000	63.943719 
4612.000000	63.932228 
4611.000000	63.912367 
4610.000000	63.886642 
4609.000000	63.858008 
4608.000000	63.829302 
4607.000000	63.803339 
4606.000000	63.782405 
4605.000000	63.768267 
4604.000000	63.761854 
4603.000000	63.763236 
4602.000000	63.771820 
4601.000000	63.786649 
4600.000000	63.806319 
4599.000000	63.829517 
4598.000000	63.855528 
4597.000000	63.883972 
4596.000000	63.914656 
4595.000000	63.947081 
4594.000000	63.980150 
4593.000000	64.011740 
4592.000000	64.038944 
4591.000000	64.057731 
4590.000000	64.064264 
4589.000000	64.054965 
4588.000000	64.028143 
4587.000000	63.983917 
4586.000000	63.924837 
4585.000000	63.855576 
4584.000000	63.782262 
4583.000000	63.712286 
4582.000000	63.653278 
4581.000000	63.612079 
4580.000000	63.593769 
4579.000000	63.600921 
4578.000000	63.633131 
4577.000000	63.686800 
4576.000000	63.755393 
4575.000000	63.830304 
4574.000000	63.902306 
4573.000000	63.962578 
4572.000000	64.004468 
4571.000000	64.024519 
4570.000000	64.022970 
4569.000000	64.003682 
4568.000000	63.973093 
4567.000000	63.939166 
4566.000000	63.909268 
4565.000000	63.889217 
4564.000000	63.881564 
4563.000000	63.885974 
4562.000000	63.898825 
4561.000000	63.915228 
4560.000000	63.929367 
4559.000000	63.936114 
4558.000000	63.932156 
4557.000000	63.916587 
4556.000000	63.891005 
4555.000000	63.858699 
4554.000000	63.824033 
4553.000000	63.791322 
4552.000000	63.763356 
4551.000000	63.740777 
4550.000000	63.722348 
4549.000000	63.705635 
4548.000000	63.687753 
4547.000000	63.666534 
4546.000000	63.641214 
4545.000000	63.612890 
4544.000000	63.583946 
4543.000000	63.557815 
4542.000000	63.537144 
4541.000000	63.524317 
4540.000000	63.520383 
4539.000000	63.526225 
4538.000000	63.541579 
4537.000000	63.566446 
4536.000000	63.601040 
4535.000000	63.645815 
4534.000000	63.700771 
4533.000000	63.765001 
4532.000000	63.835811 
4531.000000	63.909101 
4530.000000	63.979268 
4529.000000	64.040803 
4528.000000	64.089035 
4527.000000	64.121627 
4526.000000	64.139342 
4525.000000	64.145302 
4524.000000	64.144206 
4523.000000	64.141321 
4522.000000	64.141297 
4521.000000	64.146947 
4520.000000	64.158773 
4519.000000	64.175820 
4518.000000	64.195656 
4517.000000	64.215302 
4516.000000	64.231300 
4515.000000	64.241051 
4514.000000	64.242529 
4513.000000	64.234161 
4512.000000	64.214825 
4511.000000	64.184021 
4510.000000	64.142227 
4509.000000	64.090752 
4508.000000	64.032363 
4507.000000	63.971066 
4506.000000	63.912272 
4505.000000	63.861894 
4504.000000	63.825845 
4503.000000	63.808226 
4502.000000	63.811826 
4501.000000	63.837289 
4500.000000	63.882875 
4499.000000	63.944244 
4498.000000	64.015626 
4497.000000	64.090609 
4496.000000	64.162492 
4495.000000	64.225554 
4494.000000	64.276075 
4493.000000	64.312958 
4492.000000	64.337825 
4491.000000	64.354372 
4490.000000	64.367175 
4489.000000	64.380431 
4488.000000	64.397621 
4487.000000	64.420127 
4486.000000	64.447736 
4485.000000	64.478111 
4484.000000	64.508390 
4483.000000	64.535164 
4482.000000	64.555835 
4481.000000	64.568352 
4480.000000	64.571952 
4479.000000	64.566373 
4478.000000	64.551877 
4477.000000	64.528751 
4476.000000	64.497518 
4475.000000	64.458513 
4474.000000	64.412450 
4473.000000	64.360475 
4472.000000	64.304590 
4471.000000	64.247298 
4470.000000	64.191865 
4469.000000	64.141750 
4468.000000	64.100694 
4467.000000	64.072585 
4466.000000	64.061164 
4465.000000	64.069247 
4464.000000	64.098310 
4463.000000	64.148044 
4462.000000	64.215636 
4461.000000	64.295196 
4460.000000	64.378285 
4459.000000	64.455175 
4458.000000	64.516210 
4457.000000	64.553046 
4456.000000	64.560794 
4455.000000	64.538955 
4454.000000	64.491605 
4453.000000	64.426898 
4452.000000	64.354920 
4451.000000	64.286065 
4450.000000	64.228582 
4449.000000	64.187479 
4448.000000	64.163899 
4447.000000	64.156222 
4446.000000	64.160728 
4445.000000	64.173197 
4444.000000	64.190673 
4443.000000	64.211821 
4442.000000	64.237213 
4441.000000	64.268374 
4440.000000	64.306664 
4439.000000	64.351749 
4438.000000	64.401459 
4437.000000	64.451050 
4436.000000	64.493751 
4435.000000	64.521789 
4434.000000	64.528870 
4433.000000	64.511132 
4432.000000	64.467906 
4431.000000	64.402556 
4430.000000	64.322400 
4429.000000	64.237666 
4428.000000	64.160013 
4427.000000	64.100074 
4426.000000	64.066553 
4425.000000	64.062595 
4424.000000	64.085340 
4423.000000	64.125800 
4422.000000	64.170718 
4421.000000	64.205741 
4420.000000	64.218306 
4419.000000	64.201831 
4418.000000	64.157414 
4417.000000	64.091467 
4416.000000	64.013743 
4415.000000	63.935208 
4414.000000	63.865661 
4413.000000	63.814282 
4412.000000	63.787961 
4411.000000	63.789844 
4410.000000	63.819837 
4409.000000	63.874602 
4408.000000	63.949561 
4407.000000	64.039802 
4406.000000	64.141869 
4405.000000	64.251279 
4404.000000	64.365482 
4403.000000	64.482021 
4402.000000	64.599156 
4401.000000	64.718294 
4400.000000	64.838266 
4399.000000	64.952015 
4398.000000	65.049457 
4397.000000	65.120768 
4396.000000	65.158271 
4395.000000	65.151906 
4394.000000	65.111589 
4393.000000	65.072035 
4392.000000	65.075206 
4391.000000	65.159273 
4390.000000	65.342450 
4389.000000	65.614342 
4388.000000	65.927219 
4387.000000	66.208338 
4386.000000	66.371893 
4385.000000	66.348361 
4384.000000	66.116642 
4383.000000	65.714502 
4382.000000	65.231060 
4381.000000	64.784193 
4380.000000	64.501643 
4379.000000	64.472293 
4378.000000	64.717245 
4377.000000	65.176129 
4376.000000	65.730190 
4375.000000	66.216516 
4374.000000	66.488909 
4373.000000	66.421008 
4372.000000	65.965199 
4371.000000	65.106534 
4370.000000	63.867330 
4369.000000	62.272071 
4368.000000	60.337066 
4367.000000	58.083057 
4366.000000	55.547928 
4365.000000	52.820587 
4364.000000	50.052833 
4363.000000	47.465491 
4362.000000	45.324945 
4361.000000	43.895196 
4360.000000	43.389439 
4359.000000	43.924713 
4358.000000	45.497107 
4357.000000	47.963166 
4356.000000	51.072096 
4355.000000	54.500865 
4354.000000	57.919931 
4353.000000	61.031579 
4352.000000	63.625216 
4351.000000	65.586042 
4350.000000	66.903567 
4349.000000	67.647743 
4348.000000	67.935490 
4347.000000	67.902803 
4346.000000	67.664766 
4345.000000	67.330408 
4344.000000	66.957664 
4343.000000	66.587901 
4342.000000	66.224884 
4341.000000	65.876483 
4340.000000	65.535855 
4339.000000	65.201067 
4338.000000	64.873409 
4337.000000	64.563560 
4336.000000	64.282274 
4335.000000	64.037322 
4334.000000	63.839530 
4333.000000	63.700342 
4332.000000	63.624429 
4331.000000	63.609457 
4330.000000	63.648605 
4329.000000	63.731050 
4328.000000	63.840842 
4327.000000	63.961935 
4326.000000	64.074087 
4325.000000	64.161825 
4324.000000	64.223790 
4323.000000	64.267945 
4322.000000	64.297533 
4321.000000	64.318656 
4320.000000	64.345741 
4319.000000	64.389252 
4318.000000	64.449262 
4317.000000	64.518761 
4316.000000	64.587426 
4315.000000	64.642333 
4314.000000	64.673185 
4313.000000	64.673781 
4312.000000	64.643454 
4311.000000	64.588809 
4310.000000	64.522695 
4309.000000	64.458990 
4308.000000	64.408779 
4307.000000	64.379668 
4306.000000	64.374065 
4305.000000	64.388227 
4304.000000	64.413690 
4303.000000	64.441275 
4302.000000	64.462804 
4301.000000	64.471769 
4300.000000	64.465093 
4299.000000	64.442229 
4298.000000	64.406061 
4297.000000	64.361739 
4296.000000	64.315962 
4295.000000	64.275479 
4294.000000	64.245676 
4293.000000	64.230060 
4292.000000	64.228987 
4291.000000	64.239287 
4290.000000	64.255738 
4289.000000	64.272427 
4288.000000	64.284634 
4287.000000	64.289426 
4286.000000	64.287424 
4285.000000	64.282178 
4284.000000	64.279627 
4283.000000	64.285731 
4282.000000	64.305973 
4281.000000	64.343571 
4280.000000	64.398765 
4279.000000	64.468240 
4278.000000	64.546036 
4277.000000	64.624428 
4276.000000	64.695668 
4275.000000	64.753246 
4274.000000	64.792919 
4273.000000	64.813160 
4272.000000	64.815044 
4271.000000	64.801478 
4270.000000	64.776921 
4269.000000	64.745783 
4268.000000	64.712548 
4267.000000	64.679980 
4266.000000	64.649510 
4265.000000	64.620566 
4264.000000	64.592170 
4263.000000	64.562344 
4262.000000	64.529395 
4261.000000	64.492106 
4260.000000	64.450168 
4259.000000	64.404153 
4258.000000	64.355111 
4257.000000	64.304447 
4256.000000	64.253497 
4255.000000	64.204001 
4254.000000	64.157843 
4253.000000	64.116930 
4252.000000	64.082527 
4251.000000	64.054989 
4250.000000	64.033460 
4249.000000	64.015245 
4248.000000	63.996767 
4247.000000	63.974237 
4246.000000	63.945317 
4245.000000	63.909244 
4244.000000	63.868212 
4243.000000	63.826918 
4242.000000	63.792109 
4241.000000	63.770508 
4240.000000	63.767576 
4239.000000	63.785743 
4238.000000	63.823699 
4237.000000	63.876295 
4236.000000	63.935494 
4235.000000	63.991951 
4234.000000	64.036917 
4233.000000	64.064097 
4232.000000	64.070677 
4231.000000	64.057755 
4230.000000	64.029550 
4229.000000	63.992047 
4228.000000	63.951563 
4227.000000	63.913083 
4226.000000	63.879728 
4225.000000	63.852477 
4224.000000	63.830280 
4223.000000	63.810873 
4222.000000	63.792228 
4221.000000	63.773298 
4220.000000	63.754606 
4219.000000	63.738036 
4218.000000	63.726329 
4217.000000	63.722133 
4216.000000	63.726949 
4215.000000	63.740682 
4214.000000	63.761210 
4213.000000	63.784813 
4212.000000	63.807153 
4211.000000	63.823318 
4210.000000	63.829898 
4209.000000	63.824224 
4208.000000	63.804984 
4207.000000	63.771915 
4206.000000	63.725805 
4205.000000	63.668203 
4204.000000	63.601446 
4203.000000	63.528895 
4202.000000	63.455057 
4201.000000	63.385319 
4200.000000	63.325357 
4199.000000	63.280606 
4198.000000	63.255143 
4197.000000	63.250088 
4196.000000	63.263106 
4195.000000	63.288593 
4194.000000	63.318896 
4193.000000	63.345289 
4192.000000	63.360333 
4191.000000	63.359189 
4190.000000	63.341045 
4189.000000	63.308906 
4188.000000	63.268899 
4187.000000	63.228368 
4186.000000	63.194489 
4185.000000	63.172459 
4184.000000	63.164734 
4183.000000	63.170814 
4182.000000	63.187909 
4181.000000	63.211798 
4180.000000	63.238644 
4179.000000	63.265705 
4178.000000	63.292574 
4177.000000	63.320493 
4176.000000	63.352489 
4175.000000	63.391995 
4174.000000	63.442063 
4173.000000	63.503861 
4172.000000	63.576984 
4171.000000	63.658761 
4170.000000	63.744616 
4169.000000	63.828253 
4168.000000	63.903307 
4167.000000	63.963556 
4166.000000	64.003992 
4165.000000	64.021158 
4164.000000	64.013791 
4163.000000	63.982915 
4162.000000	63.931870 
4161.000000	63.865971 
4160.000000	63.791823 
4159.000000	63.716793 
