PE IR       SPECTRUM    SPECTRUM    ASCII       PEDS        1.60        
  -1
C-9C65~1.ASC
17/03/27
20:07:25.00
17/03/27
20:07:25.00
tln
$C-4040-8_t0068$<tbV0>[10.4,2.6,8.0,0.0,27,1,0]
370.000000
64









2002,4.07    
MIRTGS : RIGHTBACK : INTERNAL 2
MIR : ON : INTERNAL 2
OPTKBR

0.200000
8
8.000000
FILLER
RATIO
SPECTRUM
UNLOCKED 256

DOUBLE
64
COMBINED
1
0
0


1.000000
RATIO


1
0
TRUE
51149
0
LEFT NOT FITTED RIGHT NOT FITTED 0
NONE
NONE
15600
12.000000
4.427000
51148
TRUE
1 0 8 72 0 0 0 0 

15798.010000






#HDR
-1
-1
#GR
CM-1
%T
0.00002384185791015625
0.0
5000.000000
-1.000000
4631
8
94.337487
25.433468
#DATA
5000.000000	65.354990 
4999.000000	65.317058 
4998.000000	65.263295 
4997.000000	65.204620 
4996.000000	65.150809 
4995.000000	65.109300 
4994.000000	65.082859 
4993.000000	65.070271 
4992.000000	65.066576 
4991.000000	65.065193 
4990.000000	65.059947 
4989.000000	65.046668 
4988.000000	65.025115 
4987.000000	64.998936 
4986.000000	64.975094 
4985.000000	64.961647 
4984.000000	64.966559 
4983.000000	64.995527 
4982.000000	65.050959 
4981.000000	65.130877 
4980.000000	65.229916 
4979.000000	65.339231 
4978.000000	65.448427 
4977.000000	65.546083 
4976.000000	65.621185 
4975.000000	65.663695 
4974.000000	65.665817 
4973.000000	65.623307 
4972.000000	65.536785 
4971.000000	65.411758 
4970.000000	65.258741 
4969.000000	65.091538 
4968.000000	64.926481 
4967.000000	64.779186 
4966.000000	64.662456 
4965.000000	64.584136 
4964.000000	64.546370 
4963.000000	64.545631 
4962.000000	64.573884 
4961.000000	64.621114 
4960.000000	64.677095 
4959.000000	64.733886 
4958.000000	64.786362 
4957.000000	64.833164 
4956.000000	64.875555 
4955.000000	64.916515 
4954.000000	64.958786 
4953.000000	65.004372 
4952.000000	65.053033 
4951.000000	65.103006 
4950.000000	65.150523 
4949.000000	65.190839 
4948.000000	65.218281 
4947.000000	65.228104 
4946.000000	65.216326 
4945.000000	65.181016 
4944.000000	65.122032 
4943.000000	65.042161 
4942.000000	64.946246 
4941.000000	64.840888 
4940.000000	64.733552 
4939.000000	64.632415 
4938.000000	64.544749 
4937.000000	64.476013 
4936.000000	64.429306 
4935.000000	64.405322 
4934.000000	64.402365 
4933.000000	64.416360 
4932.000000	64.442110 
4931.000000	64.473819 
4930.000000	64.506387 
4929.000000	64.535927 
4928.000000	64.559602 
4927.000000	64.575982 
4926.000000	64.585614 
4925.000000	64.591050 
4924.000000	64.595127 
4923.000000	64.601111 
4922.000000	64.612460 
4921.000000	64.632129 
4920.000000	64.661955 
4919.000000	64.702296 
4918.000000	64.752697 
4917.000000	64.810895 
4916.000000	64.874219 
4915.000000	64.938306 
4914.000000	64.997553 
4913.000000	65.045595 
4912.000000	65.076828 
4911.000000	65.087032 
4910.000000	65.074014 
4909.000000	65.038990 
4908.000000	64.987349 
4907.000000	64.926648 
4906.000000	64.865350 
4905.000000	64.811110 
4904.000000	64.769244 
4903.000000	64.740991 
4902.000000	64.723467 
4901.000000	64.709949 
4900.000000	64.691495 
4899.000000	64.658546 
4898.000000	64.603662 
4897.000000	64.522790 
4896.000000	64.417386 
4895.000000	64.293885 
4894.000000	64.164113 
4893.000000	64.041781 
4892.000000	63.941693 
4891.000000	63.876652 
4890.000000	63.855814 
4889.000000	63.882374 
4888.000000	63.953828 
4887.000000	64.061927 
4886.000000	64.195227 
4885.000000	64.339756 
4884.000000	64.483070 
4883.000000	64.615416 
4882.000000	64.730811 
4881.000000	64.826416 
4880.000000	64.901399 
4879.000000	64.955472 
4878.000000	64.988064 
4877.000000	64.998173 
4876.000000	64.985728 
4875.000000	64.952588 
4874.000000	64.904236 
4873.000000	64.849591 
4872.000000	64.799261 
4871.000000	64.763116 
4870.000000	64.748120 
4869.000000	64.756107 
4868.000000	64.782309 
4867.000000	64.817118 
4866.000000	64.848828 
4865.000000	64.867091 
4864.000000	64.865803 
4863.000000	64.844918 
4862.000000	64.811110 
4861.000000	64.774847 
4860.000000	64.746689 
4859.000000	64.734077 
4858.000000	64.738607 
4857.000000	64.755988 
4856.000000	64.778041 
4855.000000	64.794945 
4854.000000	64.798641 
4853.000000	64.785075 
4852.000000	64.755821 
4851.000000	64.716076 
4850.000000	64.672732 
4849.000000	64.632606 
4848.000000	64.600443 
4847.000000	64.577794 
4846.000000	64.563393 
4845.000000	64.555430 
4844.000000	64.553022 
4843.000000	64.557504 
4842.000000	64.572572 
4841.000000	64.603185 
4840.000000	64.654135 
4839.000000	64.727544 
4838.000000	64.821696 
4837.000000	64.930415 
4836.000000	65.043711 
4835.000000	65.150165 
4834.000000	65.238213 
4833.000000	65.298819 
4832.000000	65.326237 
4831.000000	65.319466 
4830.000000	65.281724 
4829.000000	65.219640 
4828.000000	65.142321 
4827.000000	65.060043 
4826.000000	64.982390 
4825.000000	64.917540 
4824.000000	64.870619 
4823.000000	64.843678 
4822.000000	64.834833 
4821.000000	64.839124 
4820.000000	64.848875 
4819.000000	64.855957 
4818.000000	64.853262 
4817.000000	64.836883 
4816.000000	64.806890 
4815.000000	64.767861 
4814.000000	64.727115 
4813.000000	64.693617 
4812.000000	64.674901 
4811.000000	64.675855 
4810.000000	64.697360 
4809.000000	64.736318 
4808.000000	64.786338 
4807.000000	64.839529 
4806.000000	64.888358 
4805.000000	64.926981 
4804.000000	64.952111 
4803.000000	64.963483 
4802.000000	64.962697 
4801.000000	64.952850 
4800.000000	64.936947 
4799.000000	64.917588 
4798.000000	64.896416 
4797.000000	64.874553 
4796.000000	64.852881 
4795.000000	64.832186 
4794.000000	64.813446 
4793.000000	64.797949 
4792.000000	64.787316 
4791.000000	64.782810 
4790.000000	64.785361 
4789.000000	64.795446 
4788.000000	64.812994 
4787.000000	64.837098 
4786.000000	64.866423 
4785.000000	64.898777 
4784.000000	64.932155 
4783.000000	64.964485 
4782.000000	64.994668 
4781.000000	65.021991 
4780.000000	65.047097 
4779.000000	65.071606 
4778.000000	65.097737 
4777.000000	65.128016 
4776.000000	65.163993 
4775.000000	65.206122 
4774.000000	65.252327 
4773.000000	65.298533 
4772.000000	65.338516 
4771.000000	65.365624 
4770.000000	65.373921 
4769.000000	65.360116 
4768.000000	65.324831 
4767.000000	65.272998 
4766.000000	65.213847 
4765.000000	65.158820 
4764.000000	65.119624 
4763.000000	65.105056 
4762.000000	65.119385 
4761.000000	65.160584 
4760.000000	65.220642 
4759.000000	65.287017 
4758.000000	65.345358 
4757.000000	65.382814 
4756.000000	65.390896 
4755.000000	65.367460 
4754.000000	65.316653 
4753.000000	65.248131 
4752.000000	65.174198 
4751.000000	65.107226 
4750.000000	65.056872 
4749.000000	65.027785 
4748.000000	65.019750 
4747.000000	65.027713 
4746.000000	65.044236 
4745.000000	65.061187 
4744.000000	65.072321 
4743.000000	65.074300 
4742.000000	65.066862 
4741.000000	65.052890 
4740.000000	65.037035 
4739.000000	65.024232 
4738.000000	65.018463 
4737.000000	65.022230 
4736.000000	65.036010 
4735.000000	65.058660 
4734.000000	65.087747 
4733.000000	65.120124 
4732.000000	65.152382 
4731.000000	65.181398 
4730.000000	65.205121 
4729.000000	65.222573 
4728.000000	65.234541 
4727.000000	65.242862 
4726.000000	65.250492 
4725.000000	65.261054 
4724.000000	65.277361 
4723.000000	65.301370 
4722.000000	65.332365 
4721.000000	65.367150 
4720.000000	65.400385 
4719.000000	65.426158 
4718.000000	65.438938 
4717.000000	65.434932 
4716.000000	65.413355 
4715.000000	65.377044 
4714.000000	65.331482 
4713.000000	65.283751 
4712.000000	65.240621 
4711.000000	65.206980 
4710.000000	65.184950 
4709.000000	65.173578 
4708.000000	65.169644 
4707.000000	65.168786 
4706.000000	65.167117 
4705.000000	65.162467 
4704.000000	65.154194 
4703.000000	65.143847 
4702.000000	65.133810 
4701.000000	65.127205 
4700.000000	65.125823 
4699.000000	65.131163 
4698.000000	65.143632 
4697.000000	65.163564 
4696.000000	65.191388 
4695.000000	65.227699 
4694.000000	65.273427 
4693.000000	65.328764 
4692.000000	65.392494 
4691.000000	65.461564 
4690.000000	65.530991 
4689.000000	65.594601 
4688.000000	65.646052 
4687.000000	65.680670 
4686.000000	65.696287 
4685.000000	65.694165 
4684.000000	65.678572 
4683.000000	65.654802 
4682.000000	65.627694 
4681.000000	65.600442 
4680.000000	65.573954 
4679.000000	65.547156 
4678.000000	65.518236 
4677.000000	65.485930 
4676.000000	65.450811 
4675.000000	65.416526 
4674.000000	65.388727 
4673.000000	65.373706 
4672.000000	65.376424 
4671.000000	65.398645 
4670.000000	65.438008 
4669.000000	65.487790 
4668.000000	65.538454 
4667.000000	65.579724 
4666.000000	65.602946 
4665.000000	65.603208 
4664.000000	65.580534 
4663.000000	65.539574 
4662.000000	65.488886 
4661.000000	65.438675 
4660.000000	65.400099 
4659.000000	65.382599 
4658.000000	65.392923 
4657.000000	65.433168 
4656.000000	65.500473 
4655.000000	65.586447 
4654.000000	65.678501 
4653.000000	65.761470 
4652.000000	65.820097 
4651.000000	65.842318 
4650.000000	65.821075 
4649.000000	65.756821 
4648.000000	65.657281 
4647.000000	65.536642 
4646.000000	65.412616 
4645.000000	65.302896 
4644.000000	65.222072 
4643.000000	65.178680 
4642.000000	65.174102 
4641.000000	65.202999 
4640.000000	65.255689 
4639.000000	65.320396 
4638.000000	65.386056 
4637.000000	65.444588 
4636.000000	65.491771 
4635.000000	65.527009 
4634.000000	65.551686 
4633.000000	65.569329 
4632.000000	65.583729 
4631.000000	65.598273 
4630.000000	65.614748 
4629.000000	65.633559 
4628.000000	65.653300 
4627.000000	65.671682 
4626.000000	65.685510 
4625.000000	65.691375 
4624.000000	65.685892 
4623.000000	65.666794 
4622.000000	65.633153 
4621.000000	65.586113 
4620.000000	65.528607 
4619.000000	65.465021 
4618.000000	65.400576 
4617.000000	65.340614 
4616.000000	65.289449 
4615.000000	65.249896 
4614.000000	65.222620 
4613.000000	65.206217 
4612.000000	65.197277 
4611.000000	65.191793 
4610.000000	65.184688 
4609.000000	65.170884 
4608.000000	65.145802 
4607.000000	65.106201 
4606.000000	65.050864 
4605.000000	64.980983 
4604.000000	64.900374 
4603.000000	64.815402 
4602.000000	64.734435 
4601.000000	64.666581 
4600.000000	64.620089 
4599.000000	64.600729 
4598.000000	64.610624 
4597.000000	64.647579 
4596.000000	64.704990 
4595.000000	64.773225 
4594.000000	64.841341 
4593.000000	64.899063 
4592.000000	64.938354 
4591.000000	64.954996 
4590.000000	64.948105 
4589.000000	64.920711 
4588.000000	64.878010 
4587.000000	64.827156 
4586.000000	64.775300 
4585.000000	64.729881 
4584.000000	64.697432 
4583.000000	64.683771 
4582.000000	64.693164 
4581.000000	64.728164 
4580.000000	64.788889 
4579.000000	64.872074 
4578.000000	64.971160 
4577.000000	65.076327 
4576.000000	65.175867 
4575.000000	65.258026 
4574.000000	65.313172 
4573.000000	65.336132 
4572.000000	65.326833 
4571.000000	65.290141 
4570.000000	65.234518 
4569.000000	65.170764 
4568.000000	65.109252 
4567.000000	65.058517 
4566.000000	65.023040 
4565.000000	65.003800 
4564.000000	64.997482 
4563.000000	64.999008 
4562.000000	65.001916 
4561.000000	65.000557 
4560.000000	64.990997 
4559.000000	64.971470 
4558.000000	64.942836 
4557.000000	64.908123 
4556.000000	64.871335 
4555.000000	64.835882 
4554.000000	64.804220 
4553.000000	64.777183 
4552.000000	64.754319 
4551.000000	64.734387 
4550.000000	64.715957 
4549.000000	64.698457 
4548.000000	64.683175 
4547.000000	64.673328 
4546.000000	64.672827 
4545.000000	64.684653 
4544.000000	64.710235 
4543.000000	64.747381 
4542.000000	64.789724 
4541.000000	64.827466 
4540.000000	64.848804 
4539.000000	64.843821 
4538.000000	64.805984 
4537.000000	64.736843 
4536.000000	64.645361 
4535.000000	64.548802 
4534.000000	64.468669 
4533.000000	64.426684 
4532.000000	64.439415 
4531.000000	64.513683 
4530.000000	64.644789 
4529.000000	64.815807 
4528.000000	65.001487 
4527.000000	65.172767 
4526.000000	65.303087 
4525.000000	65.373134 
4524.000000	65.374445 
4523.000000	65.310335 
4522.000000	65.194129 
4521.000000	65.045309 
4520.000000	64.884948 
4519.000000	64.732050 
4518.000000	64.600181 
4517.000000	64.497303 
4516.000000	64.425086 
4515.000000	64.381456 
4514.000000	64.361596 
4513.000000	64.360284 
4512.000000	64.372849 
4511.000000	64.393711 
4510.000000	64.418673 
4509.000000	64.443850 
4508.000000	64.466834 
4507.000000	64.485049 
4506.000000	64.497303 
4505.000000	64.503216 
4504.000000	64.503479 
4503.000000	64.499592 
4502.000000	64.493489 
4501.000000	64.486861 
4500.000000	64.481067 
4499.000000	64.477038 
4498.000000	64.475226 
4497.000000	64.475846 
4496.000000	64.479184 
4495.000000	64.485597 
4494.000000	64.496421 
4493.000000	64.512848 
4492.000000	64.535784 
4491.000000	64.563918 
4490.000000	64.593458 
4489.000000	64.617037 
4488.000000	64.625930 
4487.000000	64.610457 
4486.000000	64.561939 
4485.000000	64.475393 
4484.000000	64.351868 
4483.000000	64.199090 
4482.000000	64.030671 
4481.000000	63.864564 
4480.000000	63.719272 
4479.000000	63.611245 
4478.000000	63.551378 
4477.000000	63.543343 
4476.000000	63.582682 
4475.000000	63.658595 
4474.000000	63.756132 
4473.000000	63.859677 
4472.000000	63.955688 
4471.000000	64.035272 
4470.000000	64.094829 
4469.000000	64.135599 
4468.000000	64.161872 
4467.000000	64.178609 
4466.000000	64.189577 
4465.000000	64.196300 
4464.000000	64.197850 
4463.000000	64.192843 
4462.000000	64.180183 
4461.000000	64.161014 
4460.000000	64.138340 
4459.000000	64.116811 
4458.000000	64.100980 
4457.000000	64.094018 
4456.000000	64.096689 
4455.000000	64.106726 
4454.000000	64.119744 
4453.000000	64.130282 
4452.000000	64.133644 
4451.000000	64.126610 
4450.000000	64.109492 
4449.000000	64.086127 
4448.000000	64.062738 
4447.000000	64.045977 
4446.000000	64.041781 
4445.000000	64.053511 
4444.000000	64.081883 
4443.000000	64.124631 
4442.000000	64.176368 
4441.000000	64.229273 
4440.000000	64.274072 
4439.000000	64.302134 
4438.000000	64.305400 
4437.000000	64.279651 
4436.000000	64.226937 
4435.000000	64.155077 
4434.000000	64.077568 
4433.000000	64.008545 
4432.000000	63.958930 
4431.000000	63.933682 
4430.000000	63.928651 
4429.000000	63.934803 
4428.000000	63.941907 
4427.000000	63.942694 
4426.000000	63.936877 
4425.000000	63.929557 
4424.000000	63.929796 
4423.000000	63.945674 
4422.000000	63.978576 
4421.000000	64.025330 
4420.000000	64.078474 
4419.000000	64.127683 
4418.000000	64.164757 
4417.000000	64.176607 
4416.000000	64.146542 
4415.000000	64.071106 
4414.000000	63.961577 
4413.000000	63.824176 
4412.000000	63.662075 
4411.000000	63.492178 
4410.000000	63.336229 
4409.000000	63.211441 
4408.000000	63.127255 
4407.000000	63.079833 
4406.000000	63.057541 
4405.000000	63.041329 
4404.000000	63.015198 
4403.000000	62.982606 
4402.000000	62.952375 
4401.000000	62.941145 
4400.000000	62.955045 
4399.000000	62.967061 
4398.000000	62.942719 
4397.000000	62.860178 
4396.000000	62.702465 
4395.000000	62.470912 
4394.000000	62.171673 
4393.000000	61.804294 
4392.000000	61.405539 
4391.000000	61.030101 
4390.000000	60.886812 
4389.000000	61.296463 
4388.000000	62.660694 
4387.000000	65.330028 
4386.000000	69.393444 
4385.000000	74.620127 
4384.000000	80.386972 
4383.000000	85.863137 
4382.000000	90.284228 
4381.000000	93.120861 
4380.000000	94.337487 
4379.000000	94.249582 
4378.000000	93.396568 
4377.000000	92.311382 
4376.000000	91.282176 
4375.000000	90.331888 
4374.000000	89.279103 
4373.000000	87.818741 
4372.000000	85.803580 
4371.000000	83.190679 
4370.000000	80.149674 
4369.000000	76.955151 
4368.000000	73.896718 
4367.000000	71.233534 
4366.000000	69.112873 
4365.000000	67.577147 
4364.000000	66.567182 
4363.000000	65.958213 
4362.000000	65.606307 
4361.000000	65.377378 
4360.000000	65.179133 
4359.000000	64.972233 
4358.000000	64.769649 
4357.000000	64.589333 
4356.000000	64.451098 
4355.000000	64.357733 
4354.000000	64.300704 
4353.000000	64.255571 
4352.000000	64.198064 
4351.000000	64.132690 
4350.000000	64.077401 
4349.000000	64.043068 
4348.000000	64.041256 
4347.000000	64.075088 
4346.000000	64.142227 
4345.000000	64.238762 
4344.000000	64.355540 
4343.000000	64.474987 
4342.000000	64.582324 
4341.000000	64.672780 
4340.000000	64.743947 
4339.000000	64.792156 
4338.000000	64.819264 
4337.000000	64.833784 
4336.000000	64.838242 
4335.000000	64.827084 
4334.000000	64.801549 
4333.000000	64.769458 
4332.000000	64.738345 
4331.000000	64.714455 
4330.000000	64.703154 
4329.000000	64.706420 
4328.000000	64.721035 
4327.000000	64.739394 
4326.000000	64.752435 
4325.000000	64.751458 
4324.000000	64.730095 
4323.000000	64.686703 
4322.000000	64.625382 
4321.000000	64.554595 
4320.000000	64.485335 
4319.000000	64.428019 
4318.000000	64.389538 
4317.000000	64.371871 
4316.000000	64.371538 
4315.000000	64.381861 
4314.000000	64.394903 
4313.000000	64.404845 
4312.000000	64.409828 
4311.000000	64.411997 
4310.000000	64.416337 
4309.000000	64.428234 
4308.000000	64.451026 
4307.000000	64.483666 
4306.000000	64.520549 
4305.000000	64.553403 
4304.000000	64.573717 
4303.000000	64.575958 
4302.000000	64.559292 
4301.000000	64.527869 
4300.000000	64.489603 
4299.000000	64.453697 
4298.000000	64.427947 
4297.000000	64.416551 
4296.000000	64.418959 
4295.000000	64.430594 
4294.000000	64.444303 
4293.000000	64.452767 
4292.000000	64.450883 
4291.000000	64.437413 
4290.000000	64.415884 
4289.000000	64.393019 
4288.000000	64.377593 
4287.000000	64.377570 
4286.000000	64.397740 
4285.000000	64.437890 
4284.000000	64.493012 
4283.000000	64.554405 
4282.000000	64.611721 
4281.000000	64.655447 
4280.000000	64.679074 
4279.000000	64.680409 
4278.000000	64.661693 
4277.000000	64.628863 
4276.000000	64.589428 
4275.000000	64.550495 
4274.000000	64.517068 
4273.000000	64.491200 
4272.000000	64.471817 
4271.000000	64.455914 
4270.000000	64.440298 
4269.000000	64.422917 
4268.000000	64.403724 
4267.000000	64.385032 
4266.000000	64.369988 
4265.000000	64.362692 
4264.000000	64.365911 
4263.000000	64.381384 
4262.000000	64.408707 
4261.000000	64.446139 
4260.000000	64.490914 
4259.000000	64.539742 
4258.000000	64.589333 
4257.000000	64.636301 
4256.000000	64.677691 
4255.000000	64.710521 
4254.000000	64.732146 
4253.000000	64.740467 
4252.000000	64.734148 
4251.000000	64.713358 
4250.000000	64.679837 
4249.000000	64.636850 
4248.000000	64.588713 
4247.000000	64.540076 
4246.000000	64.495110 
4245.000000	64.456915 
4244.000000	64.427423 
4243.000000	64.407062 
4242.000000	64.395713 
4241.000000	64.392948 
4240.000000	64.398741 
4239.000000	64.413309 
4238.000000	64.437317 
4237.000000	64.470863 
4236.000000	64.513516 
4235.000000	64.563488 
4234.000000	64.617872 
4233.000000	64.672732 
4232.000000	64.723515 
4231.000000	64.765977 
4230.000000	64.796638 
4229.000000	64.813232 
4228.000000	64.815449 
4227.000000	64.804935 
4226.000000	64.784693 
4225.000000	64.758563 
4224.000000	64.730834 
4223.000000	64.705634 
4222.000000	64.686775 
4221.000000	64.676904 
4220.000000	64.677476 
4219.000000	64.688324 
4218.000000	64.708232 
4217.000000	64.734673 
4216.000000	64.763784 
4215.000000	64.791631 
4214.000000	64.814329 
4213.000000	64.829635 
4212.000000	64.836835 
4211.000000	64.837503 
4210.000000	64.834618 
4209.000000	64.832186 
4208.000000	64.834880 
4207.000000	64.845585 
4206.000000	64.865326 
4205.000000	64.891171 
4204.000000	64.916825 
4203.000000	64.933943 
4202.000000	64.934206 
4201.000000	64.911794 
4200.000000	64.865422 
4199.000000	64.799189 
4198.000000	64.722204 
4197.000000	64.646434 
4196.000000	64.584493 
4195.000000	64.546251 
4194.000000	64.537644 
4193.000000	64.560103 
4192.000000	64.610815 
4191.000000	64.684462 
4190.000000	64.773249 
4189.000000	64.869070 
4188.000000	64.962863 
4187.000000	65.045475 
4186.000000	65.107631 
4185.000000	65.139961 
4184.000000	65.135550 
4183.000000	65.090298 
4182.000000	65.006756 
4181.000000	64.894366 
4180.000000	64.769887 
4179.000000	64.655184 
4178.000000	64.572525 
4177.000000	64.539790 
4176.000000	64.566063 
4175.000000	64.649581 
4174.000000	64.777374 
4173.000000	64.928197 
4172.000000	65.077280 
4171.000000	65.201640 
4170.000000	65.284180 
4169.000000	65.316843 
4168.000000	65.300536 
4167.000000	65.244054 
4166.000000	65.160822 
4165.000000	65.065860 
4164.000000	64.972996 
4163.000000	64.892292 
4162.000000	64.830231 
4161.000000	64.788722 
4160.000000	64.767527 
4159.000000	64.764142 
