PE IR       SPECTRUM    SPECTRUM    ASCII       PEDS        1.60        
  -1
C-1A65~1.ASC
17/03/27
15:54:37.00
17/03/27
15:54:37.00
tln
$C-4040-8_t0018$<tbV0>[-2.6,-10.4,8.0,0.0,27,1,0]
370.000000
64









2002,4.07    
MIRTGS : RIGHTBACK : INTERNAL 2
MIR : ON : INTERNAL 2
OPTKBR

0.200000
8
8.000000
FILLER
RATIO
SPECTRUM
UNLOCKED 256

DOUBLE
64
COMBINED
1
0
0


1.000000
RATIO


1
0
TRUE
51149
0
LEFT NOT FITTED RIGHT NOT FITTED 0
NONE
NONE
15600
12.000000
4.427000
51148
TRUE
1 0 8 72 0 0 0 0 

15798.010000






#HDR
-1
-1
#GR
CM-1
%T
0.00002384185791015625
0.0
5000.000000
-1.000000
4631
8
71.734380
28.716731
#DATA
5000.000000	63.818359 
4999.000000	63.760352 
4998.000000	63.726210 
4997.000000	63.721203 
4996.000000	63.748455 
4995.000000	63.807868 
4994.000000	63.896036 
4993.000000	64.005017 
4992.000000	64.124417 
4991.000000	64.242768 
4990.000000	64.348888 
4989.000000	64.433073 
4988.000000	64.489102 
4987.000000	64.515447 
4986.000000	64.514231 
4985.000000	64.490318 
4984.000000	64.449834 
4983.000000	64.398312 
4982.000000	64.339208 
4981.000000	64.273285 
4980.000000	64.198637 
4979.000000	64.112377 
4978.000000	64.012002 
4977.000000	63.898539 
4976.000000	63.778400 
4975.000000	63.663125 
4974.000000	63.567519 
4973.000000	63.505721 
4972.000000	63.487863 
4971.000000	63.516378 
4970.000000	63.584589 
4969.000000	63.677334 
4968.000000	63.772749 
4967.000000	63.848662 
4966.000000	63.887453 
4965.000000	63.880515 
4964.000000	63.829183 
4963.000000	63.744783 
4962.000000	63.645172 
4961.000000	63.549971 
4960.000000	63.475513 
4959.000000	63.431334 
4958.000000	63.418292 
4957.000000	63.430929 
4956.000000	63.459753 
4955.000000	63.494491 
4954.000000	63.526177 
4953.000000	63.546609 
4952.000000	63.548684 
4951.000000	63.525342 
4950.000000	63.470935 
4949.000000	63.380479 
4948.000000	63.253712 
4947.000000	63.096046 
4946.000000	62.921285 
4945.000000	62.748670 
4944.000000	62.603068 
4943.000000	62.509536 
4942.000000	62.490057 
4941.000000	62.557792 
4940.000000	62.714791 
4939.000000	62.950563 
4938.000000	63.242554 
4937.000000	63.559460 
4936.000000	63.865709 
4935.000000	64.127397 
4934.000000	64.317536 
4933.000000	64.419889 
4932.000000	64.431619 
4931.000000	64.362502 
4930.000000	64.233541 
4929.000000	64.072346 
4928.000000	63.908910 
4927.000000	63.770055 
4926.000000	63.675737 
4925.000000	63.635897 
4924.000000	63.650727 
4923.000000	63.711571 
4922.000000	63.804364 
4921.000000	63.913464 
4920.000000	64.024543 
4919.000000	64.128136 
4918.000000	64.219164 
4917.000000	64.298200 
4916.000000	64.368271 
4915.000000	64.433836 
4914.000000	64.497089 
4913.000000	64.558362 
4912.000000	64.616131 
4911.000000	64.667963 
4910.000000	64.713239 
4909.000000	64.751672 
4908.000000	64.785170 
4907.000000	64.814472 
4906.000000	64.839553 
4905.000000	64.856004 
4904.000000	64.855456 
4903.000000	64.828228 
4902.000000	64.766359 
4901.000000	64.666509 
4900.000000	64.532327 
4899.000000	64.374947 
4898.000000	64.211416 
4897.000000	64.061307 
4896.000000	63.942694 
4895.000000	63.867449 
4894.000000	63.840126 
4893.000000	63.857102 
4892.000000	63.909339 
4891.000000	63.985514 
4890.000000	64.074826 
4889.000000	64.169716 
4888.000000	64.265179 
4887.000000	64.358019 
4886.000000	64.444088 
4885.000000	64.516258 
4884.000000	64.564561 
4883.000000	64.577102 
4882.000000	64.543700 
4881.000000	64.459276 
4880.000000	64.327239 
4879.000000	64.160680 
4878.000000	63.980698 
4877.000000	63.812780 
4876.000000	63.681221 
4875.000000	63.603758 
4874.000000	63.587403 
4873.000000	63.627195 
4872.000000	63.707852 
4871.000000	63.808107 
4870.000000	63.905882 
4869.000000	63.984251 
4868.000000	64.033579 
4867.000000	64.054584 
4866.000000	64.055228 
4865.000000	64.049434 
4864.000000	64.051198 
4863.000000	64.072251 
4862.000000	64.119148 
4861.000000	64.191532 
4860.000000	64.283776 
4859.000000	64.385151 
4858.000000	64.484024 
4857.000000	64.568996 
4856.000000	64.632081 
4855.000000	64.668869 
4854.000000	64.678740 
4853.000000	64.664506 
4852.000000	64.631223 
4851.000000	64.584994 
4850.000000	64.531826 
4849.000000	64.476490 
4848.000000	64.422416 
4847.000000	64.371514 
4846.000000	64.324998 
4845.000000	64.283490 
4844.000000	64.247703 
4843.000000	64.218664 
4842.000000	64.197754 
4841.000000	64.186120 
4840.000000	64.184427 
4839.000000	64.191699 
4838.000000	64.206218 
4837.000000	64.225625 
4836.000000	64.247465 
4835.000000	64.269685 
4834.000000	64.290714 
4833.000000	64.309668 
4832.000000	64.325785 
4831.000000	64.338541 
4830.000000	64.346694 
4829.000000	64.348578 
4828.000000	64.341878 
4827.000000	64.324235 
4826.000000	64.294409 
4825.000000	64.252877 
4824.000000	64.201974 
4823.000000	64.145612 
4822.000000	64.087939 
4821.000000	64.032506 
4820.000000	63.981366 
4819.000000	63.934898 
4818.000000	63.891768 
4817.000000	63.850140 
4816.000000	63.808703 
4815.000000	63.768053 
4814.000000	63.730525 
4813.000000	63.700842 
4812.000000	63.684105 
4811.000000	63.685417 
4810.000000	63.708519 
4809.000000	63.754844 
4808.000000	63.822436 
4807.000000	63.906407 
4806.000000	63.999247 
4805.000000	64.091968 
4804.000000	64.175415 
4803.000000	64.241647 
4802.000000	64.285206 
4801.000000	64.303922 
4800.000000	64.299011 
4799.000000	64.275312 
4798.000000	64.240097 
4797.000000	64.202427 
4796.000000	64.171481 
4795.000000	64.154887 
4794.000000	64.157247 
4793.000000	64.179658 
4792.000000	64.219498 
4791.000000	64.270377 
4790.000000	64.323425 
4789.000000	64.369177 
4788.000000	64.398884 
4787.000000	64.405798 
4786.000000	64.386510 
4785.000000	64.341545 
4784.000000	64.275288 
4783.000000	64.194989 
4782.000000	64.109849 
4781.000000	64.029645 
4780.000000	63.962650 
4779.000000	63.914823 
4778.000000	63.888502 
4777.000000	63.882613 
4776.000000	63.892865 
4775.000000	63.913202 
4774.000000	63.936948 
4773.000000	63.957691 
4772.000000	63.971543 
4771.000000	63.977646 
4770.000000	63.977670 
4769.000000	63.974905 
4768.000000	63.973212 
4767.000000	63.975834 
4766.000000	63.984322 
4765.000000	63.998007 
4764.000000	64.014959 
4763.000000	64.032459 
4762.000000	64.048266 
4761.000000	64.061164 
4760.000000	64.071369 
4759.000000	64.080452 
4758.000000	64.090371 
4757.000000	64.103078 
4756.000000	64.119887 
4755.000000	64.141249 
4754.000000	64.166760 
4753.000000	64.194893 
4752.000000	64.223742 
4751.000000	64.250659 
4750.000000	64.273691 
4749.000000	64.290714 
4748.000000	64.299654 
4747.000000	64.298629 
4746.000000	64.286637 
4745.000000	64.263272 
4744.000000	64.229083 
4743.000000	64.185643 
4742.000000	64.135670 
4741.000000	64.082217 
4740.000000	64.028429 
4739.000000	63.976883 
4738.000000	63.929557 
4737.000000	63.887476 
4736.000000	63.850951 
4735.000000	63.819837 
4734.000000	63.793969 
4733.000000	63.772988 
4732.000000	63.756799 
4731.000000	63.744878 
4730.000000	63.736867 
4729.000000	63.731932 
4728.000000	63.729691 
4727.000000	63.729095 
4726.000000	63.729953 
4725.000000	63.732481 
4724.000000	63.737773 
4723.000000	63.746833 
4722.000000	63.760948 
4721.000000	63.780879 
4720.000000	63.806509 
4719.000000	63.836503 
4718.000000	63.868618 
4717.000000	63.900113 
4716.000000	63.928556 
4715.000000	63.952231 
4714.000000	63.970446 
4713.000000	63.983583 
4712.000000	63.993120 
4711.000000	64.000821 
4710.000000	64.008259 
4709.000000	64.016318 
4708.000000	64.025330 
4707.000000	64.034795 
4706.000000	64.043760 
4705.000000	64.050579 
4704.000000	64.054250 
4703.000000	64.053654 
4702.000000	64.048099 
4701.000000	64.036965 
4700.000000	64.019918 
4699.000000	63.996791 
4698.000000	63.967537 
4697.000000	63.932704 
4696.000000	63.893556 
4695.000000	63.852119 
4694.000000	63.811326 
4693.000000	63.774466 
4692.000000	63.744783 
4691.000000	63.724422 
4690.000000	63.713860 
4689.000000	63.711929 
4688.000000	63.715767 
4687.000000	63.721752 
4686.000000	63.726639 
4685.000000	63.728117 
4684.000000	63.725519 
4683.000000	63.720154 
4682.000000	63.714790 
4681.000000	63.712525 
4680.000000	63.716030 
4679.000000	63.726711 
4678.000000	63.744544 
4677.000000	63.767838 
4676.000000	63.793849 
4675.000000	63.819551 
4674.000000	63.842201 
4673.000000	63.860082 
4672.000000	63.872432 
4671.000000	63.879179 
4670.000000	63.880872 
4669.000000	63.878393 
4668.000000	63.873100 
4667.000000	63.866591 
4666.000000	63.860845 
4665.000000	63.858389 
4664.000000	63.861680 
4663.000000	63.872504 
4662.000000	63.891434 
4661.000000	63.917779 
4660.000000	63.948702 
4659.000000	63.979959 
4658.000000	64.006519 
4657.000000	64.023685 
4656.000000	64.028072 
4655.000000	64.018630 
4654.000000	63.996505 
4653.000000	63.964915 
4652.000000	63.928484 
4651.000000	63.892555 
4650.000000	63.861584 
4649.000000	63.839197 
4648.000000	63.827300 
4647.000000	63.826537 
4646.000000	63.836741 
4645.000000	63.856983 
4644.000000	63.885450 
4643.000000	63.919901 
4642.000000	63.957643 
4641.000000	63.995766 
4640.000000	64.030885 
4639.000000	64.060354 
4638.000000	64.082264 
4637.000000	64.096307 
4636.000000	64.103460 
4635.000000	64.106035 
4634.000000	64.107012 
4633.000000	64.108896 
4632.000000	64.112949 
4631.000000	64.118337 
4630.000000	64.122271 
4629.000000	64.120531 
4628.000000	64.108800 
4627.000000	64.083623 
4626.000000	64.044070 
4625.000000	63.991975 
4624.000000	63.932871 
4623.000000	63.874006 
4622.000000	63.824439 
4621.000000	63.792514 
4620.000000	63.785457 
4619.000000	63.807034 
4618.000000	63.858127 
4617.000000	63.936233 
4616.000000	64.036226 
4615.000000	64.150452 
4614.000000	64.270544 
4613.000000	64.388132 
4612.000000	64.495873 
4611.000000	64.587593 
4610.000000	64.658975 
4609.000000	64.707565 
4608.000000	64.732885 
4607.000000	64.736437 
4606.000000	64.721107 
4605.000000	64.690709 
4604.000000	64.649653 
4603.000000	64.602470 
4602.000000	64.553189 
4601.000000	64.504933 
4600.000000	64.460062 
4599.000000	64.420223 
4598.000000	64.386653 
4597.000000	64.359998 
4596.000000	64.340806 
4595.000000	64.328837 
4594.000000	64.322853 
4593.000000	64.320135 
4592.000000	64.316844 
4591.000000	64.308142 
4590.000000	64.288544 
4589.000000	64.254117 
4588.000000	64.202809 
4587.000000	64.136719 
4586.000000	64.061427 
4585.000000	63.986420 
4584.000000	63.922452 
4583.000000	63.880372 
4582.000000	63.868618 
4581.000000	63.890624 
4580.000000	63.943648 
4579.000000	64.019632 
4578.000000	64.106845 
4577.000000	64.191699 
4576.000000	64.261412 
4575.000000	64.306807 
4574.000000	64.323616 
4573.000000	64.312601 
4572.000000	64.279365 
4571.000000	64.232611 
4570.000000	64.182353 
4569.000000	64.138317 
4568.000000	64.107871 
4567.000000	64.094853 
4566.000000	64.099526 
4565.000000	64.119791 
4564.000000	64.151978 
4563.000000	64.192008 
4562.000000	64.236354 
4561.000000	64.282751 
4560.000000	64.329528 
4559.000000	64.374470 
4558.000000	64.414930 
4557.000000	64.447665 
4556.000000	64.468646 
4555.000000	64.473915 
4554.000000	64.460492 
4553.000000	64.427757 
4552.000000	64.376640 
4551.000000	64.310026 
4550.000000	64.231562 
4549.000000	64.145302 
4548.000000	64.054894 
4547.000000	63.963532 
4546.000000	63.873410 
4545.000000	63.787007 
4544.000000	63.708043 
4543.000000	63.641738 
4542.000000	63.594031 
4541.000000	63.570690 
4540.000000	63.574719 
4539.000000	63.606667 
4538.000000	63.662028 
4537.000000	63.734555 
4536.000000	63.815927 
4535.000000	63.899397 
4534.000000	63.980436 
4533.000000	64.058017 
4532.000000	64.133238 
4531.000000	64.208722 
4530.000000	64.286351 
4529.000000	64.366340 
4528.000000	64.446449 
4527.000000	64.522123 
4526.000000	64.587306 
4525.000000	64.634919 
4524.000000	64.658403 
4523.000000	64.652514 
4522.000000	64.614748 
4521.000000	64.546227 
4520.000000	64.452171 
4519.000000	64.341592 
4518.000000	64.226198 
4517.000000	64.118409 
4516.000000	64.029788 
4515.000000	63.969469 
4514.000000	63.942813 
4513.000000	63.950705 
4512.000000	63.989472 
4511.000000	64.052200 
4510.000000	64.129829 
4509.000000	64.211702 
4508.000000	64.288568 
4507.000000	64.352488 
4506.000000	64.399886 
4505.000000	64.431333 
4504.000000	64.450836 
4503.000000	64.464092 
4502.000000	64.476084 
4501.000000	64.489650 
4500.000000	64.503717 
4499.000000	64.514183 
4498.000000	64.513683 
4497.000000	64.494228 
4496.000000	64.449667 
4495.000000	64.378070 
4494.000000	64.283108 
4493.000000	64.173698 
4492.000000	64.062857 
4491.000000	63.964891 
4490.000000	63.890576 
4489.000000	63.846683 
4488.000000	63.834285 
4487.000000	63.851380 
4486.000000	63.894271 
4485.000000	63.958716 
4484.000000	64.044547 
4483.000000	64.149665 
4482.000000	64.265203 
4481.000000	64.378428 
4480.000000	64.472842 
4479.000000	64.533424 
4478.000000	64.548015 
4477.000000	64.515304 
4476.000000	64.447045 
4475.000000	64.364886 
4474.000000	64.295840 
4473.000000	64.263963 
4472.000000	64.283776 
4471.000000	64.357948 
4470.000000	64.477539 
4469.000000	64.623069 
4468.000000	64.770555 
4467.000000	64.902901 
4466.000000	65.013694 
4465.000000	65.104389 
4464.000000	65.183758 
4463.000000	65.260863 
4462.000000	65.346193 
4461.000000	65.440201 
4460.000000	65.545821 
4459.000000	65.668439 
4458.000000	65.824389 
4457.000000	66.038942 
4456.000000	66.343307 
4455.000000	66.766738 
4454.000000	67.324495 
4453.000000	68.008136 
4452.000000	68.781733 
4451.000000	69.587063 
4450.000000	70.349764 
4449.000000	70.997190 
4448.000000	71.465611 
4447.000000	71.716713 
4446.000000	71.734380 
4445.000000	71.528768 
4444.000000	71.120262 
4443.000000	70.535016 
4442.000000	69.797730 
4441.000000	68.932175 
4440.000000	67.966485 
4439.000000	66.936945 
4438.000000	65.895962 
4437.000000	64.907002 
4436.000000	64.037227 
4435.000000	63.346004 
4434.000000	62.866353 
4433.000000	62.604165 
4432.000000	62.532734 
4431.000000	62.605237 
4430.000000	62.758135 
4429.000000	62.932395 
4428.000000	63.078594 
4427.000000	63.170456 
4426.000000	63.197112 
4425.000000	63.169121 
4424.000000	63.105106 
4423.000000	63.028669 
4422.000000	62.955927 
4421.000000	62.897109 
4420.000000	62.856435 
4419.000000	62.830114 
4418.000000	62.808775 
4417.000000	62.788033 
4416.000000	62.771701 
4415.000000	62.766885 
4414.000000	62.782144 
4413.000000	62.820816 
4412.000000	62.879610 
4411.000000	62.950277 
4410.000000	63.021087 
4409.000000	63.080358 
4408.000000	63.119173 
4407.000000	63.133120 
4406.000000	63.124060 
4405.000000	63.098049 
4404.000000	63.066244 
4403.000000	63.039207 
4402.000000	63.030076 
4401.000000	63.048624 
4400.000000	63.104867 
4399.000000	63.216161 
4398.000000	63.388895 
4397.000000	63.622021 
4396.000000	63.886904 
4395.000000	64.139103 
4394.000000	64.300155 
4393.000000	64.272689 
4392.000000	63.964223 
4391.000000	63.313627 
4390.000000	62.324953 
4389.000000	61.076879 
4388.000000	59.727597 
4387.000000	58.479619 
4386.000000	57.533144 
4385.000000	57.027339 
4384.000000	57.000565 
4383.000000	57.369279 
4382.000000	57.937932 
4381.000000	58.452415 
4380.000000	58.655595 
4379.000000	58.373236 
4378.000000	57.550644 
4377.000000	56.292009 
4376.000000	54.817962 
4375.000000	53.433704 
4374.000000	52.435874 
4373.000000	52.058768 
4372.000000	52.404618 
4371.000000	53.438377 
4370.000000	55.002665 
4369.000000	56.862354 
4368.000000	58.768916 
4367.000000	60.506916 
4366.000000	61.933708 
4365.000000	62.990832 
4364.000000	63.691043 
4363.000000	64.101338 
4362.000000	64.306449 
4361.000000	64.392113 
4360.000000	64.420604 
4359.000000	64.430117 
4358.000000	64.430236 
4357.000000	64.426374 
4356.000000	64.418196 
4355.000000	64.406919 
4354.000000	64.394688 
4353.000000	64.388036 
4352.000000	64.393997 
4351.000000	64.414477 
4350.000000	64.448308 
4349.000000	64.490985 
4348.000000	64.536714 
4347.000000	64.582228 
4346.000000	64.624810 
4345.000000	64.662694 
4344.000000	64.694666 
4343.000000	64.718413 
4342.000000	64.732766 
4341.000000	64.738988 
4340.000000	64.738512 
4339.000000	64.733815 
4338.000000	64.724850 
4337.000000	64.707612 
4336.000000	64.681410 
4335.000000	64.650607 
4334.000000	64.616775 
4333.000000	64.579319 
4332.000000	64.539432 
4331.000000	64.500021 
4330.000000	64.463615 
4329.000000	64.433097 
4328.000000	64.411687 
4327.000000	64.402198 
4326.000000	64.406991 
4325.000000	64.426255 
4324.000000	64.457583 
4323.000000	64.495253 
4322.000000	64.530992 
4321.000000	64.555335 
4320.000000	64.559483 
4319.000000	64.537858 
4318.000000	64.489150 
4317.000000	64.418077 
4316.000000	64.334726 
4315.000000	64.252638 
4314.000000	64.185547 
4313.000000	64.144277 
4312.000000	64.134430 
4311.000000	64.154481 
4310.000000	64.196419 
4309.000000	64.247703 
4308.000000	64.294695 
4307.000000	64.326000 
4306.000000	64.335632 
4305.000000	64.324045 
4304.000000	64.298272 
4303.000000	64.269685 
4302.000000	64.251327 
4301.000000	64.254736 
4300.000000	64.286732 
4299.000000	64.348626 
4298.000000	64.434933 
4297.000000	64.535617 
4296.000000	64.637041 
4295.000000	64.725637 
4294.000000	64.789509 
4293.000000	64.821004 
4292.000000	64.817428 
4291.000000	64.780926 
4290.000000	64.717888 
4289.000000	64.637231 
4288.000000	64.548921 
4287.000000	64.462375 
4286.000000	64.384913 
4285.000000	64.321684 
4284.000000	64.275074 
4283.000000	64.245462 
4282.000000	64.231824 
4281.000000	64.232563 
4280.000000	64.245748 
4279.000000	64.269495 
4278.000000	64.302110 
4277.000000	64.341831 
4276.000000	64.386034 
4275.000000	64.431095 
4274.000000	64.472532 
4273.000000	64.505457 
4272.000000	64.525294 
4271.000000	64.528584 
4270.000000	64.513993 
4269.000000	64.482545 
4268.000000	64.438104 
4267.000000	64.386367 
4266.000000	64.334177 
4265.000000	64.287519 
4264.000000	64.251089 
4263.000000	64.226770 
4262.000000	64.214110 
4261.000000	64.209723 
4260.000000	64.209079 
4259.000000	64.206361 
4258.000000	64.196085 
4257.000000	64.173913 
4256.000000	64.137649 
4255.000000	64.087271 
4254.000000	64.024662 
4253.000000	63.953804 
4252.000000	63.880038 
4251.000000	63.809251 
4250.000000	63.747382 
4249.000000	63.699269 
4248.000000	63.668441 
4247.000000	63.656520 
4246.000000	63.663363 
4245.000000	63.686585 
4244.000000	63.722562 
4243.000000	63.766789 
4242.000000	63.815045 
4241.000000	63.863158 
4240.000000	63.908362 
4239.000000	63.948678 
4238.000000	63.983702 
4237.000000	64.013767 
4236.000000	64.039778 
4235.000000	64.062619 
4234.000000	64.082837 
4233.000000	64.100956 
4232.000000	64.116811 
4231.000000	64.130139 
4230.000000	64.140224 
4229.000000	64.146852 
4228.000000	64.149785 
4227.000000	64.148879 
4226.000000	64.144301 
4225.000000	64.136433 
4224.000000	64.125633 
4223.000000	64.111971 
4222.000000	64.095735 
4221.000000	64.077115 
4220.000000	64.056205 
4219.000000	64.033293 
4218.000000	64.009046 
4217.000000	63.984680 
4216.000000	63.961553 
4215.000000	63.941502 
4214.000000	63.926124 
4213.000000	63.916850 
4212.000000	63.915252 
4211.000000	63.921785 
4210.000000	63.935565 
4209.000000	63.954138 
4208.000000	63.973760 
4207.000000	63.989830 
4206.000000	63.997602 
4205.000000	63.993859 
4204.000000	63.977813 
4203.000000	63.951659 
4202.000000	63.919973 
4201.000000	63.889050 
4200.000000	63.865399 
4199.000000	63.853836 
4198.000000	63.856410 
4197.000000	63.872289 
4196.000000	63.898301 
4195.000000	63.930010 
4194.000000	63.962817 
4193.000000	63.993763 
4192.000000	64.021444 
4191.000000	64.046168 
4190.000000	64.068698 
4189.000000	64.088416 
4188.000000	64.103341 
4187.000000	64.109587 
4186.000000	64.103221 
4185.000000	64.081430 
4184.000000	64.044499 
4183.000000	63.996815 
4182.000000	63.945984 
4181.000000	63.901519 
4180.000000	63.871908 
4179.000000	63.862299 
4178.000000	63.872957 
4177.000000	63.898992 
4176.000000	63.931298 
4175.000000	63.958811 
4174.000000	63.970756 
4173.000000	63.959455 
4172.000000	63.921618 
4171.000000	63.859224 
4170.000000	63.778877 
4169.000000	63.690400 
4168.000000	63.604664 
4167.000000	63.531851 
4166.000000	63.479852 
4165.000000	63.453412 
4164.000000	63.453888 
4163.000000	63.479471 
4162.000000	63.526153 
4161.000000	63.588213 
4160.000000	63.658785 
4159.000000	63.730645 
