PE IR       SPECTRUM    SPECTRUM    ASCII       PEDS        1.60        
  -1
C-9D65~1.ASC
17/03/27
21:40:19.00
17/03/27
21:40:19.00
tln
$C-4040-8_t0088$<tbV0>[-13.0,5.2,8.0,0.0,27,1,0]
370.000000
64









2002,4.07    
MIRTGS : RIGHTBACK : INTERNAL 2
MIR : ON : INTERNAL 2
OPTKBR

0.200000
8
8.000000
FILLER
RATIO
SPECTRUM
UNLOCKED 256

DOUBLE
64
COMBINED
1
0
0


1.000000
RATIO


1
0
TRUE
51149
0
LEFT NOT FITTED RIGHT NOT FITTED 0
NONE
NONE
15600
12.000000
4.427000
51148
TRUE
1 0 8 72 0 0 0 0 

15798.010000






#HDR
-1
-1
#GR
CM-1
%T
0.00002384185791015625
0.0
5000.000000
-1.000000
4631
8
124.601602
39.467787
#DATA
5000.000000	64.353823  
4999.000000	64.284682  
4998.000000	64.217615  
4997.000000	64.158105  
4996.000000	64.112448  
4995.000000	64.086341  
4994.000000	64.085030  
4993.000000	64.111423  
4992.000000	64.166665  
4991.000000	64.249157  
4990.000000	64.354753  
4989.000000	64.476990  
4988.000000	64.606833  
4987.000000	64.733123  
4986.000000	64.844441  
4985.000000	64.930868  
4984.000000	64.985370  
4983.000000	65.004801  
4982.000000	64.991092  
4981.000000	64.950680  
4980.000000	64.893460  
4979.000000	64.830255  
4978.000000	64.771318  
4977.000000	64.723587  
4976.000000	64.690470  
4975.000000	64.670538  
4974.000000	64.659237  
4973.000000	64.649224  
4972.000000	64.632654  
4971.000000	64.602875  
4970.000000	64.555287  
4969.000000	64.489746  
4968.000000	64.409160  
4967.000000	64.321565  
4966.000000	64.236736  
4965.000000	64.167404  
4964.000000	64.125943  
4963.000000	64.123558  
4962.000000	64.167261  
4961.000000	64.258718  
4960.000000	64.393329  
4959.000000	64.560008  
4958.000000	64.742350  
4957.000000	64.921998  
4956.000000	65.081691  
4955.000000	65.207648  
4954.000000	65.291714  
4953.000000	65.332508  
4952.000000	65.334677  
4951.000000	65.307283  
4950.000000	65.261030  
4949.000000	65.206503  
4948.000000	65.151357  
4947.000000	65.101432  
4946.000000	65.058350  
4945.000000	65.021371  
4944.000000	64.987373  
4943.000000	64.953732  
4942.000000	64.918446  
4941.000000	64.880990  
4940.000000	64.842534  
4939.000000	64.805388  
4938.000000	64.772629  
4937.000000	64.746570  
4936.000000	64.728665  
4935.000000	64.718794  
4934.000000	64.715194  
4933.000000	64.714646  
4932.000000	64.713263  
4931.000000	64.707136  
4930.000000	64.693212  
4929.000000	64.670038  
4928.000000	64.637231  
4927.000000	64.595794  
4926.000000	64.548206  
4925.000000	64.498209  
4924.000000	64.449810  
4923.000000	64.407181  
4922.000000	64.374470  
4921.000000	64.355301  
4920.000000	64.352560  
4919.000000	64.367938  
4918.000000	64.400815  
4917.000000	64.448595  
4916.000000	64.506530  
4915.000000	64.568805  
4914.000000	64.628672  
4913.000000	64.680314  
4912.000000	64.719533  
4911.000000	64.744734  
4910.000000	64.756774  
4909.000000	64.758825  
4908.000000	64.755439  
4907.000000	64.750790  
4906.000000	64.747548  
4905.000000	64.745998  
4904.000000	64.744424  
4903.000000	64.739489  
4902.000000	64.727950  
4901.000000	64.707708  
4900.000000	64.679598  
4899.000000	64.648461  
4898.000000	64.622855  
4897.000000	64.612960  
4896.000000	64.628458  
4895.000000	64.675903  
4894.000000	64.756584  
4893.000000	64.865231  
4892.000000	64.990353  
4891.000000	65.116453  
4890.000000	65.226626  
4889.000000	65.306401  
4888.000000	65.346527  
4887.000000	65.344285  
4886.000000	65.304660  
4885.000000	65.238595  
4884.000000	65.160822  
4883.000000	65.087223  
4882.000000	65.030813  
4881.000000	65.000438  
4880.000000	64.997792  
4879.000000	65.018224  
4878.000000	65.051198  
4877.000000	65.083861  
4876.000000	65.102362  
4875.000000	65.095257  
4874.000000	65.055322  
4873.000000	64.981007  
4872.000000	64.876222  
4871.000000	64.749550  
4870.000000	64.612126  
4869.000000	64.475870  
4868.000000	64.351248  
4867.000000	64.246344  
4866.000000	64.166259  
4865.000000	64.113306  
4864.000000	64.087653  
4863.000000	64.088273  
4862.000000	64.112591  
4861.000000	64.157509  
4860.000000	64.218020  
4859.000000	64.288687  
4858.000000	64.361596  
4857.000000	64.430093  
4856.000000	64.488792  
4855.000000	64.536070  
4854.000000	64.573740  
4853.000000	64.606809  
4852.000000	64.641618  
4851.000000	64.684152  
4850.000000	64.738130  
4849.000000	64.802670  
4848.000000	64.871954  
4847.000000	64.936470  
4846.000000	64.985394  
4845.000000	65.009546  
4844.000000	65.004086  
4843.000000	64.970111  
4842.000000	64.914727  
4841.000000	64.849567  
4840.000000	64.788413  
4839.000000	64.744257  
4838.000000	64.726352  
4837.000000	64.738845  
4836.000000	64.779520  
4835.000000	64.842224  
4834.000000	64.917016  
4833.000000	64.992594  
4832.000000	65.058660  
4831.000000	65.107178  
4830.000000	65.134978  
4829.000000	65.143060  
4828.000000	65.137243  
4827.000000	65.125799  
4826.000000	65.118122  
4825.000000	65.122485  
4824.000000	65.143394  
4823.000000	65.180540  
4822.000000	65.228056  
4821.000000	65.275907  
4820.000000	65.311431  
4819.000000	65.322494  
4818.000000	65.300488  
4817.000000	65.242576  
4816.000000	65.152716  
4815.000000	65.040802  
4814.000000	64.920616  
4813.000000	64.806938  
4812.000000	64.712142  
4811.000000	64.644479  
4810.000000	64.606714  
4809.000000	64.596915  
4808.000000	64.609599  
4807.000000	64.637994  
4806.000000	64.675211  
4805.000000	64.716196  
4804.000000	64.757347  
4803.000000	64.797377  
4802.000000	64.835429  
4801.000000	64.871191  
4800.000000	64.903426  
4799.000000	64.930272  
4798.000000	64.949345  
4797.000000	64.958643  
4796.000000	64.957237  
4795.000000	64.945459  
4794.000000	64.925289  
4793.000000	64.900016  
4792.000000	64.874124  
4791.000000	64.851927  
4790.000000	64.836907  
4789.000000	64.831495  
4788.000000	64.836287  
4787.000000	64.850139  
4786.000000	64.870166  
4785.000000	64.892315  
4784.000000	64.912533  
4783.000000	64.926910  
4782.000000	64.933419  
4781.000000	64.931917  
4780.000000	64.924883  
4779.000000	64.916110  
4778.000000	64.910840  
4777.000000	64.914393  
4776.000000	64.931082  
4775.000000	64.963364  
4774.000000	65.010881  
4773.000000	65.070557  
4772.000000	65.137004  
4771.000000	65.203690  
4770.000000	65.264439  
4769.000000	65.314388  
4768.000000	65.351796  
4767.000000	65.378117  
4766.000000	65.397644  
4765.000000	65.416145  
4764.000000	65.439128  
4763.000000	65.469837  
4762.000000	65.508604  
4761.000000	65.552115  
4760.000000	65.593910  
4759.000000	65.625953  
4758.000000	65.641379  
4757.000000	65.635943  
4756.000000	65.609693  
4755.000000	65.567135  
4754.000000	65.516114  
4753.000000	65.466284  
4752.000000	65.426778  
4751.000000	65.404176  
4750.000000	65.401077  
4749.000000	65.416026  
4748.000000	65.444660  
4747.000000	65.480685  
4746.000000	65.517807  
4745.000000	65.550374  
4744.000000	65.574479  
4743.000000	65.587806  
4742.000000	65.589332  
4741.000000	65.579485  
4740.000000	65.559720  
4739.000000	65.532541  
4738.000000	65.501356  
4737.000000	65.470981  
4736.000000	65.447044  
4735.000000	65.435218  
4734.000000	65.439844  
4733.000000	65.463352  
4732.000000	65.504837  
4731.000000	65.560054  
4730.000000	65.621685  
4729.000000	65.681004  
4728.000000	65.729379  
4727.000000	65.760064  
4726.000000	65.769362  
4725.000000	65.756988  
4724.000000	65.726065  
4723.000000	65.682291  
4722.000000	65.632605  
4721.000000	65.583682  
4720.000000	65.541028  
4719.000000	65.508747  
4718.000000	65.488910  
4717.000000	65.481925  
4716.000000	65.486550  
4715.000000	65.500497  
4714.000000	65.520739  
4713.000000	65.544033  
4712.000000	65.567016  
4711.000000	65.586280  
4710.000000	65.598893  
4709.000000	65.602660  
4708.000000	65.596246  
4707.000000	65.579509  
4706.000000	65.553379  
4705.000000	65.519785  
4704.000000	65.481472  
4703.000000	65.441966  
4702.000000	65.404844  
4701.000000	65.374159  
4700.000000	65.353560  
4699.000000	65.346455  
4698.000000	65.355348  
4697.000000	65.381193  
4696.000000	65.423059  
4695.000000	65.477514  
4694.000000	65.538883  
4693.000000	65.599727  
4692.000000	65.651702  
4691.000000	65.687441  
4690.000000	65.701675  
4689.000000	65.692687  
4688.000000	65.662765  
4687.000000	65.617513  
4686.000000	65.564703  
4685.000000	65.512585  
4684.000000	65.467977  
4683.000000	65.435075  
4682.000000	65.414786  
4681.000000	65.405082  
4680.000000	65.402150  
4679.000000	65.402317  
4678.000000	65.403580  
4677.000000	65.405607  
4676.000000	65.410423  
4675.000000	65.421295  
4674.000000	65.442061  
4673.000000	65.474724  
4672.000000	65.519404  
4671.000000	65.573573  
4670.000000	65.632486  
4669.000000	65.690588  
4668.000000	65.741991  
4667.000000	65.782094  
4666.000000	65.807843  
4665.000000	65.818405  
4664.000000	65.814876  
4663.000000	65.799760  
4662.000000	65.776538  
4661.000000	65.748882  
4660.000000	65.720534  
4659.000000	65.694594  
4658.000000	65.673351  
4657.000000	65.657830  
4656.000000	65.647363  
4655.000000	65.639472  
4654.000000	65.630054  
4653.000000	65.614104  
4652.000000	65.586662  
4651.000000	65.544104  
4650.000000	65.485072  
4649.000000	65.411782  
4648.000000	65.329647  
4647.000000	65.246844  
4646.000000	65.172362  
4645.000000	65.114521  
4644.000000	65.079092  
4643.000000	65.068149  
4642.000000	65.079498  
4641.000000	65.107583  
4640.000000	65.144681  
4639.000000	65.183067  
4638.000000	65.215992  
4637.000000	65.239763  
4636.000000	65.253734  
4635.000000	65.259742  
4634.000000	65.260529  
4633.000000	65.259265  
4632.000000	65.258264  
4631.000000	65.258216  
4630.000000	65.258121  
4629.000000	65.256047  
4628.000000	65.249633  
4627.000000	65.237355  
4626.000000	65.218734  
4625.000000	65.194249  
4624.000000	65.165328  
4623.000000	65.133857  
4622.000000	65.102148  
4621.000000	65.071845  
4620.000000	65.044593  
4619.000000	65.021753  
4618.000000	65.004825  
4617.000000	64.995408  
4616.000000	64.994907  
4615.000000	65.004301  
4614.000000	65.023231  
4613.000000	65.049672  
4612.000000	65.079522  
4611.000000	65.107274  
4610.000000	65.126061  
4609.000000	65.129208  
4608.000000	65.111446  
4607.000000	65.070223  
4606.000000	65.006017  
4605.000000	64.922618  
4604.000000	64.826750  
4603.000000	64.727306  
4602.000000	64.634442  
4601.000000	64.558100  
4600.000000	64.506697  
4599.000000	64.485931  
4598.000000	64.497876  
4597.000000	64.540410  
4596.000000	64.607667  
4595.000000	64.690470  
4594.000000	64.777874  
4593.000000	64.858412  
4592.000000	64.921617  
4591.000000	64.959645  
4590.000000	64.967727  
4589.000000	64.945363  
4588.000000	64.895510  
4587.000000	64.825081  
4586.000000	64.743328  
4585.000000	64.661622  
4584.000000	64.591598  
4583.000000	64.544200  
4582.000000	64.528536  
4581.000000	64.549779  
4580.000000	64.608693  
4579.000000	64.700078  
4578.000000	64.813661  
4577.000000	64.934492  
4576.000000	65.045905  
4575.000000	65.132808  
4574.000000	65.184998  
4573.000000	65.199208  
4572.000000	65.179133  
4571.000000	65.134215  
4570.000000	65.076518  
4569.000000	65.018630  
4568.000000	64.969754  
4567.000000	64.934372  
4566.000000	64.910793  
4565.000000	64.893960  
4564.000000	64.876055  
4563.000000	64.849901  
4562.000000	64.810705  
4561.000000	64.757394  
4560.000000	64.693450  
4559.000000	64.625549  
4558.000000	64.562296  
4557.000000	64.511466  
4556.000000	64.478516  
4555.000000	64.465570  
4554.000000	64.469933  
4553.000000	64.484834  
4552.000000	64.500284  
4551.000000	64.505624  
4550.000000	64.491081  
4549.000000	64.450693  
4548.000000	64.383983  
4547.000000	64.297366  
4546.000000	64.202594  
4545.000000	64.115047  
4544.000000	64.050817  
4543.000000	64.022850  
4542.000000	64.037775  
4541.000000	64.094233  
4540.000000	64.183139  
4539.000000	64.290165  
4538.000000	64.398789  
4537.000000	64.494729  
4536.000000	64.568471  
4535.000000	64.616942  
4534.000000	64.643907  
4533.000000	64.656186  
4532.000000	64.660859  
4531.000000	64.661431  
4530.000000	64.656782  
4529.000000	64.640116  
4528.000000	64.601659  
4527.000000	64.532113  
4526.000000	64.427137  
4525.000000	64.289641  
4524.000000	64.130735  
4523.000000	63.967990  
4522.000000	63.821840  
4521.000000	63.710713  
4520.000000	63.646864  
4519.000000	63.633108  
4518.000000	63.662934  
4517.000000	63.722848  
4516.000000	63.796281  
4515.000000	63.867259  
4514.000000	63.924527  
4513.000000	63.962817  
4512.000000	63.983535  
4511.000000	63.990998  
4510.000000	63.992094  
4509.000000	63.992643  
4508.000000	63.996863  
4507.000000	64.005780  
4506.000000	64.018368  
4505.000000	64.033389  
4504.000000	64.049220  
4503.000000	64.065814  
4502.000000	64.083194  
4501.000000	64.101672  
4500.000000	64.120364  
4499.000000	64.137029  
4498.000000	64.148092  
4497.000000	64.149403  
4496.000000	64.137935  
4495.000000	64.112710  
4494.000000	64.075207  
4493.000000	64.028978  
4492.000000	63.979268  
4491.000000	63.930964  
4490.000000	63.886833  
4489.000000	63.846135  
4488.000000	63.805556  
4487.000000	63.759493  
4486.000000	63.702106  
4485.000000	63.629317  
4484.000000	63.540053  
4483.000000	63.437962  
4482.000000	63.330626  
4481.000000	63.229060  
4480.000000	63.143801  
4479.000000	63.084411  
4478.000000	63.056993  
4477.000000	63.063073  
4476.000000	63.099122  
4475.000000	63.156938  
4474.000000	63.225150  
4473.000000	63.291215  
4472.000000	63.343739  
4471.000000	63.374900  
4470.000000	63.381385  
4469.000000	63.365268  
4468.000000	63.332653  
4467.000000	63.291859  
4466.000000	63.251161  
4465.000000	63.217091  
4464.000000	63.192772  
4463.000000	63.178443  
4462.000000	63.171148  
4461.000000	63.167452  
4460.000000	63.163089  
4459.000000	63.154077  
4458.000000	63.137269  
4457.000000	63.111209  
4456.000000	63.075876  
4455.000000	63.031244  
4454.000000	62.978696  
4453.000000	62.920260  
4452.000000	62.859511  
4451.000000	62.800884  
4450.000000	62.750029  
4449.000000	62.713122  
4448.000000	62.695574  
4447.000000	62.700653  
4446.000000	62.728786  
4445.000000	62.776637  
4444.000000	62.838816  
4443.000000	62.908625  
4442.000000	62.977981  
4441.000000	63.038635  
4440.000000	63.083291  
4439.000000	63.106942  
4438.000000	63.105678  
4437.000000	63.079142  
4436.000000	63.031864  
4435.000000	62.973618  
4434.000000	62.918186  
4433.000000	62.880969  
4432.000000	62.876677  
4431.000000	62.914776  
4430.000000	62.996768  
4429.000000	63.115143  
4428.000000	63.255858  
4427.000000	63.399958  
4426.000000	63.528203  
4425.000000	63.624596  
4424.000000	63.678336  
4423.000000	63.687062  
4422.000000	63.661432  
4421.000000	63.611221  
4420.000000	63.535213  
4419.000000	63.438630  
4418.000000	63.340759  
4417.000000	63.239526  
4416.000000	63.109087  
4415.000000	62.939882  
4414.000000	62.741088  
4413.000000	62.520813  
4412.000000	62.289381  
4411.000000	62.051725  
4410.000000	61.809134  
4409.000000	61.583113  
4408.000000	61.398768  
4407.000000	61.258602  
4406.000000	61.151885  
4405.000000	61.061930  
4404.000000	60.969758  
4403.000000	60.860395  
4402.000000	60.726928  
4401.000000	60.577154  
4400.000000	60.430836  
4399.000000	60.270190  
4398.000000	60.118699  
4397.000000	60.012054  
4396.000000	60.069561  
4395.000000	60.447239  
4394.000000	61.382818  
4393.000000	63.115692  
4392.000000	65.906095  
4391.000000	69.928455  
4390.000000	75.348567  
4389.000000	82.216405  
4388.000000	90.417671  
4387.000000	99.567699  
4386.000000	108.824419 
4385.000000	117.003774 
4384.000000	122.681736 
4383.000000	124.601602 
4382.000000	122.154116 
4381.000000	115.521502 
4380.000000	105.932736 
4379.000000	95.152759  
4378.000000	85.022115  
4377.000000	76.969933  
4376.000000	71.538472  
4375.000000	68.511128  
4374.000000	67.174100  
4373.000000	66.598653  
4372.000000	66.216921  
4371.000000	65.733981  
4370.000000	65.183305  
4369.000000	64.765191  
4368.000000	64.502382  
4367.000000	64.406538  
4366.000000	64.341092  
4365.000000	64.204001  
4364.000000	63.971304  
4363.000000	63.679742  
4362.000000	63.431620  
4361.000000	63.288116  
4360.000000	63.248562  
4359.000000	63.286757  
4358.000000	63.354015  
4357.000000	63.415718  
4356.000000	63.453054  
4355.000000	63.468861  
4354.000000	63.479804  
4353.000000	63.471698  
4352.000000	63.425874  
4351.000000	63.338136  
4350.000000	63.213920  
4349.000000	63.084697  
4348.000000	62.985754  
4347.000000	62.918138  
4346.000000	62.878608  
4345.000000	62.884044  
4344.000000	62.941503  
4343.000000	63.036632  
4342.000000	63.150882  
4341.000000	63.267564  
4340.000000	63.370704  
4339.000000	63.447499  
4338.000000	63.492870  
4337.000000	63.509321  
4336.000000	63.505268  
4335.000000	63.491845  
4334.000000	63.480949  
4333.000000	63.481855  
4332.000000	63.498592  
4331.000000	63.528919  
4330.000000	63.566613  
4329.000000	63.602781  
4328.000000	63.628268  
4327.000000	63.635993  
4326.000000	63.622927  
4325.000000	63.591051  
4324.000000	63.545989  
4323.000000	63.496732  
4322.000000	63.452315  
4321.000000	63.421344  
4320.000000	63.410162  
4319.000000	63.422107  
4318.000000	63.457727  
4317.000000	63.514184  
4316.000000	63.586544  
4315.000000	63.667941  
4314.000000	63.750839  
4313.000000	63.827586  
4312.000000	63.891172  
4311.000000	63.935995  
4310.000000	63.958430  
4309.000000	63.957595  
4308.000000	63.935565  
4307.000000	63.897013  
4306.000000	63.848376  
4305.000000	63.797593  
4304.000000	63.752532  
4303.000000	63.720226  
4302.000000	63.705134  
4301.000000	63.708615  
4300.000000	63.728356  
4299.000000	63.759303  
4298.000000	63.794565  
4297.000000	63.826775  
4296.000000	63.849496  
4295.000000	63.858270  
4294.000000	63.850975  
4293.000000	63.827538  
4292.000000	63.790202  
4291.000000	63.742303  
4290.000000	63.688588  
4289.000000	63.634228  
4288.000000	63.584685  
4287.000000	63.544964  
4286.000000	63.518905  
4285.000000	63.508820  
4284.000000	63.514494  
4283.000000	63.533234  
4282.000000	63.560342  
4281.000000	63.590121  
4280.000000	63.617038  
4279.000000	63.636946  
4278.000000	63.648486  
4277.000000	63.653135  
4276.000000	63.654947  
4275.000000	63.659214  
4274.000000	63.670396  
4273.000000	63.691282  
4272.000000	63.721990  
4271.000000	63.760280  
4270.000000	63.802599  
4269.000000	63.844633  
4268.000000	63.883948  
4267.000000	63.918781  
4266.000000	63.948249  
4265.000000	63.971543  
4264.000000	63.987612  
4263.000000	63.994836  
4262.000000	63.991093  
4261.000000	63.974905  
4260.000000	63.946652  
4259.000000	63.909220  
4258.000000	63.868427  
4257.000000	63.831949  
4256.000000	63.807916  
4255.000000	63.803076  
4254.000000	63.820981  
4253.000000	63.860845  
4252.000000	63.917636  
4251.000000	63.983321  
4250.000000	64.048838  
4249.000000	64.106082  
4248.000000	64.149713  
4247.000000	64.177846  
4246.000000	64.192628  
4245.000000	64.198303  
4244.000000	64.201259  
4243.000000	64.207887  
4242.000000	64.224100  
4241.000000	64.254307  
4240.000000	64.300823  
4239.000000	64.364171  
4238.000000	64.442014  
4237.000000	64.530301  
4236.000000	64.622092  
4235.000000	64.709043  
4234.000000	64.781618  
4233.000000	64.831018  
4232.000000	64.850306  
4231.000000	64.836072  
4230.000000	64.789438  
4229.000000	64.716172  
4228.000000	64.626526  
4227.000000	64.533376  
4226.000000	64.449739  
4225.000000	64.386534  
4224.000000	64.350414  
4223.000000	64.343047  
4222.000000	64.361190  
4221.000000	64.398145  
4220.000000	64.445519  
4219.000000	64.495086  
4218.000000	64.540481  
4217.000000	64.578008  
4216.000000	64.605808  
4215.000000	64.624094  
4214.000000	64.633178  
4213.000000	64.634561  
4212.000000	64.630079  
4211.000000	64.622688  
4210.000000	64.616632  
4209.000000	64.616250  
4208.000000	64.625930  
4207.000000	64.647889  
4206.000000	64.682173  
4205.000000	64.724326  
4204.000000	64.766263  
4203.000000	64.796972  
4202.000000	64.805364  
4201.000000	64.782905  
4200.000000	64.726376  
4199.000000	64.639568  
4198.000000	64.533448  
4197.000000	64.424419  
4196.000000	64.331650  
4195.000000	64.273166  
4194.000000	64.262390  
