PE IR       SPECTRUM    SPECTRUM    ASCII       PEDS        1.60        
  -1
C-1AE4~1.ASC
17/03/27
15:21:42.00
17/03/27
15:21:42.00
tln
$C-4040-8_t0011$<tbV0>[-13.0,-13.0,8.0,0.0,27,1,0]
370.000000
64









2002,4.07    
MIRTGS : RIGHTBACK : INTERNAL 2
MIR : ON : INTERNAL 2
OPTKBR

0.200000
8
8.000000
FILLER
RATIO
SPECTRUM
UNLOCKED 256

DOUBLE
64
COMBINED
1
0
0


1.000000
RATIO


1
0
TRUE
51149
0
LEFT NOT FITTED RIGHT NOT FITTED 0
NONE
NONE
15600
12.000000
4.427000
51148
TRUE
1 0 8 72 0 0 0 0 

15798.010000






#HDR
-1
-1
#GR
CM-1
%T
0.00002384185791015625
0.0
5000.000000
-1.000000
4631
8
86.505103
40.422487
#DATA
5000.000000	64.542293 
4999.000000	64.445257 
4998.000000	64.366197 
4997.000000	64.314770 
4996.000000	64.299941 
4995.000000	64.328193 
4994.000000	64.401817 
4993.000000	64.516496 
4992.000000	64.662265 
4991.000000	64.824438 
4990.000000	64.985442 
4989.000000	65.127062 
4988.000000	65.234136 
4987.000000	65.296816 
4986.000000	65.312147 
4985.000000	65.284013 
4984.000000	65.221285 
4983.000000	65.135264 
4982.000000	65.037226 
4981.000000	64.936208 
4980.000000	64.837336 
4979.000000	64.742803 
4978.000000	64.653038 
4977.000000	64.569282 
4976.000000	64.496660 
4975.000000	64.443039 
4974.000000	64.417910 
4973.000000	64.428281 
4972.000000	64.475893 
4971.000000	64.553952 
4970.000000	64.646697 
4969.000000	64.732265 
4968.000000	64.785766 
4967.000000	64.787554 
4966.000000	64.728069 
4965.000000	64.611864 
4964.000000	64.456319 
4963.000000	64.288735 
4962.000000	64.139723 
4961.000000	64.035391 
4960.000000	63.990974 
4959.000000	64.007592 
4958.000000	64.072418 
4957.000000	64.164757 
4956.000000	64.261531 
4955.000000	64.343333 
4954.000000	64.397501 
4953.000000	64.416837 
4952.000000	64.398527 
4951.000000	64.340829 
4950.000000	64.242339 
4949.000000	64.100527 
4948.000000	63.915014 
4947.000000	63.691163 
4946.000000	63.442373 
4945.000000	63.189148 
4944.000000	62.958860 
4943.000000	62.780547 
4942.000000	62.680697 
4941.000000	62.676262 
4940.000000	62.772393 
4939.000000	62.959337 
4938.000000	63.214945 
4937.000000	63.508081 
4936.000000	63.804125 
4935.000000	64.070558 
4934.000000	64.281535 
4933.000000	64.420485 
4932.000000	64.482355 
4931.000000	64.472532 
4930.000000	64.405894 
4929.000000	64.303374 
4928.000000	64.189839 
4927.000000	64.089536 
4926.000000	64.022684 
4925.000000	64.002346 
4924.000000	64.032816 
4923.000000	64.110231 
4922.000000	64.224576 
4921.000000	64.362931 
4920.000000	64.511919 
4919.000000	64.661145 
4918.000000	64.803671 
4917.000000	64.936852 
4916.000000	65.060067 
4915.000000	65.173625 
4914.000000	65.275907 
4913.000000	65.363836 
4912.000000	65.433645 
4911.000000	65.481901 
4910.000000	65.508246 
4909.000000	65.515255 
4908.000000	65.510797 
4907.000000	65.502762 
4906.000000	65.498423 
4905.000000	65.499496 
4904.000000	65.501761 
4903.000000	65.496659 
4902.000000	65.474319 
4901.000000	65.426754 
4900.000000	65.351033 
4899.000000	65.251684 
4898.000000	65.140032 
4897.000000	65.031695 
4896.000000	64.942121 
4895.000000	64.882540 
4894.000000	64.856481 
4893.000000	64.858770 
4892.000000	64.877009 
4891.000000	64.895105 
4890.000000	64.897990 
4889.000000	64.874744 
4888.000000	64.822912 
4887.000000	64.748287 
4886.000000	64.664793 
4885.000000	64.588689 
4884.000000	64.536809 
4883.000000	64.521837 
4882.000000	64.549803 
4881.000000	64.618682 
4880.000000	64.718699 
4879.000000	64.835309 
4878.000000	64.951229 
4877.000000	65.050053 
4876.000000	65.118861 
4875.000000	65.150284 
4874.000000	65.143585 
4873.000000	65.104198 
4872.000000	65.042257 
4871.000000	64.969992 
4870.000000	64.900231 
4869.000000	64.843010 
4868.000000	64.804077 
4867.000000	64.783716 
4866.000000	64.778113 
4865.000000	64.780855 
4864.000000	64.784908 
4863.000000	64.785480 
4862.000000	64.781069 
4861.000000	64.774155 
4860.000000	64.769649 
4859.000000	64.773392 
4858.000000	64.789056 
4857.000000	64.817190 
4856.000000	64.854216 
4855.000000	64.893317 
4854.000000	64.926266 
4853.000000	64.945745 
4852.000000	64.947509 
4851.000000	64.931964 
4850.000000	64.904332 
4849.000000	64.873266 
4848.000000	64.848637 
4847.000000	64.838910 
4846.000000	64.848780 
4845.000000	64.878916 
4844.000000	64.925456 
4843.000000	64.981603 
4842.000000	65.038681 
4841.000000	65.088462 
4840.000000	65.124082 
4839.000000	65.141272 
4838.000000	65.138459 
4837.000000	65.116214 
4836.000000	65.076708 
4835.000000	65.023422 
4834.000000	64.960336 
4833.000000	64.891791 
4832.000000	64.821958 
4831.000000	64.755225 
4830.000000	64.695453 
4829.000000	64.645791 
4828.000000	64.608597 
4827.000000	64.584708 
4826.000000	64.574241 
4825.000000	64.576268 
4824.000000	64.589309 
4823.000000	64.611291 
4822.000000	64.640116 
4821.000000	64.673662 
4820.000000	64.709687 
4819.000000	64.745736 
4818.000000	64.779090 
4817.000000	64.806747 
4816.000000	64.826178 
4815.000000	64.835405 
4814.000000	64.833331 
4813.000000	64.820098 
4812.000000	64.797234 
4811.000000	64.767885 
4810.000000	64.736056 
4809.000000	64.706587 
4808.000000	64.684152 
4807.000000	64.672613 
4806.000000	64.674592 
4805.000000	64.690804 
4804.000000	64.720153 
4803.000000	64.759182 
4802.000000	64.802408 
4801.000000	64.843130 
4800.000000	64.874482 
4799.000000	64.891004 
4798.000000	64.889526 
4797.000000	64.870500 
4796.000000	64.837813 
4795.000000	64.798688 
4794.000000	64.761972 
4793.000000	64.736437 
4792.000000	64.728832 
4791.000000	64.742445 
4790.000000	64.776539 
4789.000000	64.826178 
4788.000000	64.883613 
4787.000000	64.939975 
4786.000000	64.987564 
4785.000000	65.020990 
4784.000000	65.038919 
4783.000000	65.043282 
4782.000000	65.038919 
4781.000000	65.032005 
4780.000000	65.028214 
4779.000000	65.031290 
4778.000000	65.041875 
4777.000000	65.058517 
4776.000000	65.076780 
4775.000000	65.091276 
4774.000000	65.096497 
4773.000000	65.088725 
4772.000000	65.066576 
4771.000000	65.031623 
4770.000000	64.987611 
4769.000000	64.939379 
4768.000000	64.891767 
4767.000000	64.848613 
4766.000000	64.811873 
4765.000000	64.781618 
4764.000000	64.756894 
4763.000000	64.736795 
4762.000000	64.720940 
4761.000000	64.710354 
4760.000000	64.707016 
4759.000000	64.713811 
4758.000000	64.732718 
4757.000000	64.764881 
4756.000000	64.809560 
4755.000000	64.864706 
4754.000000	64.926576 
4753.000000	64.990949 
4752.000000	65.053749 
4751.000000	65.111327 
4750.000000	65.161395 
4749.000000	65.202069 
4748.000000	65.231728 
4747.000000	65.248322 
4746.000000	65.250253 
4745.000000	65.235924 
4744.000000	65.204811 
4743.000000	65.157818 
4742.000000	65.098047 
4741.000000	65.029978 
4740.000000	64.959239 
4739.000000	64.891481 
4738.000000	64.831614 
4737.000000	64.782643 
4736.000000	64.745545 
4735.000000	64.719080 
4734.000000	64.700913 
4733.000000	64.688014 
4732.000000	64.678215 
4731.000000	64.669775 
4730.000000	64.663004 
4729.000000	64.659428 
4728.000000	64.662384 
4727.000000	64.674854 
4726.000000	64.699745 
4725.000000	64.738798 
4724.000000	64.791893 
4723.000000	64.856839 
4722.000000	64.928698 
4721.000000	65.000867 
4720.000000	65.065526 
4719.000000	65.115118 
4718.000000	65.143823 
4717.000000	65.148878 
4716.000000	65.131378 
4715.000000	65.096139 
4714.000000	65.050578 
4713.000000	65.003013 
4712.000000	64.961171 
4711.000000	64.930176 
4710.000000	64.911460 
4709.000000	64.902400 
4708.000000	64.897775 
4707.000000	64.890980 
4706.000000	64.875555 
4705.000000	64.847278 
4704.000000	64.804816 
4703.000000	64.750719 
4702.000000	64.690136 
4701.000000	64.630556 
4700.000000	64.579343 
4699.000000	64.543414 
4698.000000	64.527535 
4697.000000	64.534235 
4696.000000	64.563083 
4695.000000	64.611339 
4694.000000	64.674520 
4693.000000	64.746570 
4692.000000	64.820480 
4691.000000	64.889287 
4690.000000	64.946699 
4689.000000	64.987921 
4688.000000	65.009880 
4687.000000	65.012311 
4686.000000	64.997673 
4685.000000	64.971089 
4684.000000	64.939069 
4683.000000	64.908671 
4682.000000	64.885902 
4681.000000	64.874768 
4680.000000	64.876580 
4679.000000	64.890003 
4678.000000	64.911532 
4677.000000	64.936757 
4676.000000	64.961528 
4675.000000	64.983129 
4674.000000	65.000414 
4673.000000	65.013813 
4672.000000	65.024518 
4671.000000	65.033435 
4670.000000	65.040755 
4669.000000	65.045499 
4668.000000	65.045857 
4667.000000	65.039539 
4666.000000	65.025019 
4665.000000	65.002560 
4664.000000	64.974141 
4663.000000	64.943695 
4662.000000	64.915728 
4661.000000	64.894318 
4660.000000	64.881896 
4659.000000	64.878845 
4658.000000	64.882993 
4657.000000	64.890384 
4656.000000	64.896678 
4655.000000	64.898204 
4654.000000	64.893054 
4653.000000	64.881372 
4652.000000	64.864635 
4651.000000	64.845681 
4650.000000	64.827036 
4649.000000	64.811182 
4648.000000	64.799523 
4647.000000	64.792990 
4646.000000	64.792323 
4645.000000	64.798355 
4644.000000	64.812469 
4643.000000	64.836049 
4642.000000	64.870023 
4641.000000	64.913964 
4640.000000	64.965605 
4639.000000	65.020895 
4638.000000	65.074133 
4637.000000	65.119695 
4636.000000	65.153098 
4635.000000	65.171933 
4634.000000	65.176606 
4633.000000	65.169692 
4632.000000	65.155410 
4631.000000	65.138196 
4630.000000	65.121912 
4629.000000	65.109157 
4628.000000	65.101051 
4627.000000	65.097880 
4626.000000	65.099358 
4625.000000	65.105199 
4624.000000	65.115237 
4623.000000	65.129184 
4622.000000	65.146660 
4621.000000	65.166974 
4620.000000	65.188980 
4619.000000	65.211176 
4618.000000	65.231919 
4617.000000	65.250015 
4616.000000	65.264487 
4615.000000	65.275168 
4614.000000	65.281915 
4613.000000	65.284776 
4612.000000	65.283060 
4611.000000	65.275406 
4610.000000	65.259909 
4609.000000	65.234875 
4608.000000	65.199685 
4607.000000	65.155363 
4606.000000	65.105009 
4605.000000	65.053677 
4604.000000	65.007185 
4603.000000	64.971113 
4602.000000	64.949393 
4601.000000	64.943289 
4600.000000	64.950776 
4599.000000	64.966893 
4598.000000	64.984703 
4597.000000	64.997148 
4596.000000	64.998316 
4595.000000	64.985132 
4594.000000	64.958143 
4593.000000	64.920997 
4592.000000	64.879465 
4591.000000	64.839363 
4590.000000	64.805054 
4589.000000	64.778399 
4588.000000	64.758253 
4587.000000	64.741659 
4586.000000	64.725279 
4585.000000	64.706826 
4584.000000	64.686250 
4583.000000	64.666128 
4582.000000	64.651107 
4581.000000	64.646291 
4580.000000	64.655375 
4579.000000	64.679622 
4578.000000	64.716911 
4577.000000	64.762330 
4576.000000	64.809012 
4575.000000	64.849853 
4574.000000	64.878940 
4573.000000	64.892911 
4572.000000	64.891290 
4571.000000	64.875745 
4570.000000	64.849805 
4569.000000	64.817476 
4568.000000	64.782857 
4567.000000	64.749360 
4566.000000	64.719653 
4565.000000	64.696264 
4564.000000	64.680957 
4563.000000	64.675641 
4562.000000	64.680790 
4561.000000	64.695882 
4560.000000	64.717960 
4559.000000	64.741945 
4558.000000	64.761447 
4557.000000	64.769649 
4556.000000	64.761352 
4555.000000	64.733934 
4554.000000	64.688825 
4553.000000	64.631485 
4552.000000	64.569783 
4551.000000	64.512062 
4550.000000	64.465212 
4549.000000	64.433145 
4548.000000	64.415955 
4547.000000	64.410686 
4546.000000	64.412307 
4545.000000	64.415764 
4544.000000	64.418125 
4543.000000	64.419031 
4542.000000	64.420628 
4541.000000	64.426064 
4540.000000	64.437723 
4539.000000	64.455723 
4538.000000	64.477181 
4537.000000	64.496469 
4536.000000	64.506316 
4535.000000	64.500164 
4534.000000	64.474511 
4533.000000	64.430308 
4532.000000	64.372897 
4531.000000	64.311695 
4530.000000	64.257407 
4529.000000	64.220976 
4528.000000	64.211058 
4527.000000	64.232397 
4526.000000	64.284658 
4525.000000	64.362525 
4524.000000	64.456772 
4523.000000	64.555311 
4522.000000	64.645457 
4521.000000	64.715623 
4520.000000	64.757537 
4519.000000	64.767360 
4518.000000	64.746475 
4517.000000	64.700222 
4516.000000	64.637613 
4515.000000	64.569687 
4514.000000	64.508080 
4513.000000	64.464044 
4512.000000	64.445376 
4511.000000	64.457559 
4510.000000	64.499688 
4509.000000	64.565253 
4508.000000	64.642143 
4507.000000	64.715361 
4506.000000	64.769935 
4505.000000	64.794611 
4504.000000	64.783644 
4503.000000	64.737749 
4502.000000	64.662957 
4501.000000	64.568686 
4500.000000	64.465117 
4499.000000	64.361000 
4498.000000	64.262795 
4497.000000	64.174461 
4496.000000	64.098691 
4495.000000	64.037919 
4494.000000	63.995337 
4493.000000	63.974690 
4492.000000	63.978838 
4491.000000	64.009046 
4490.000000	64.061665 
4489.000000	64.130353 
4488.000000	64.204978 
4487.000000	64.277195 
4486.000000	64.342331 
4485.000000	64.401078 
4484.000000	64.463019 
4483.000000	64.537453 
4482.000000	64.627194 
4481.000000	64.726948 
4480.000000	64.823961 
4479.000000	64.899730 
4478.000000	64.934158 
4477.000000	64.913463 
4476.000000	64.837193 
4475.000000	64.716124 
4474.000000	64.571094 
4473.000000	64.426136 
4472.000000	64.302086 
4471.000000	64.213728 
4470.000000	64.167690 
4469.000000	64.161276 
4468.000000	64.184927 
4467.000000	64.230632 
4466.000000	64.294219 
4465.000000	64.372563 
4464.000000	64.465475 
4463.000000	64.570093 
4462.000000	64.686226 
4461.000000	64.806461 
4460.000000	64.930891 
4459.000000	65.066599 
4458.000000	65.234899 
4457.000000	65.466356 
4456.000000	65.795278 
4455.000000	66.250443 
4454.000000	66.842198 
4453.000000	67.554259 
4452.000000	68.341541 
4451.000000	69.138050 
4450.000000	69.865179 
4449.000000	70.451736 
4448.000000	70.840668 
4447.000000	71.003746 
4446.000000	70.936512 
4445.000000	70.659780 
4444.000000	70.202374 
4443.000000	69.595432 
4442.000000	68.865060 
4441.000000	68.033051 
4440.000000	67.124032 
4439.000000	66.170001 
4438.000000	65.219020 
4437.000000	64.330339 
4436.000000	63.565635 
4435.000000	62.978315 
4434.000000	62.593674 
4433.000000	62.410879 
4432.000000	62.398886 
4431.000000	62.509799 
4430.000000	62.682533 
4429.000000	62.863469 
4428.000000	63.011097 
4427.000000	63.106775 
4426.000000	63.144469 
4425.000000	63.137269 
4424.000000	63.105225 
4423.000000	63.070607 
4422.000000	63.050222 
4421.000000	63.047432 
4420.000000	63.049364 
4419.000000	63.037300 
4418.000000	62.996840 
4417.000000	62.914371 
4416.000000	62.782430 
4415.000000	62.607717 
4414.000000	62.409973 
4413.000000	62.216186 
4412.000000	62.053632 
4411.000000	61.943030 
4410.000000	61.892199 
4409.000000	61.893081 
4408.000000	61.924433 
4407.000000	61.957049 
4406.000000	61.962532 
4405.000000	61.924886 
4404.000000	61.839795 
4403.000000	61.717581 
4402.000000	61.574292 
4401.000000	61.416864 
4400.000000	61.253213 
4399.000000	61.071491 
4398.000000	60.882234 
4397.000000	60.708260 
4396.000000	60.620856 
4395.000000	60.718607 
4394.000000	61.135292 
4393.000000	62.003111 
4392.000000	63.417983 
4391.000000	65.400147 
4390.000000	67.863965 
4389.000000	70.614194 
4388.000000	73.366546 
4387.000000	75.794768 
4386.000000	77.593255 
4385.000000	78.534984 
4384.000000	78.525233 
4383.000000	77.611374 
4382.000000	75.971889 
4381.000000	73.868608 
4380.000000	71.601748 
4379.000000	69.440937 
4378.000000	67.595410 
4377.000000	66.174983 
4376.000000	65.212798 
4375.000000	64.662194 
4374.000000	64.441299 
4373.000000	64.451384 
4372.000000	64.598941 
4371.000000	64.818000 
4370.000000	65.059709 
4369.000000	65.303921 
4368.000000	65.527987 
4367.000000	65.724706 
4366.000000	65.884590 
4365.000000	66.004085 
4364.000000	66.079998 
4363.000000	66.113758 
4362.000000	66.110992 
4361.000000	66.074728 
4360.000000	66.004991 
4359.000000	65.903449 
4358.000000	65.773844 
4357.000000	65.618705 
4356.000000	65.442156 
4355.000000	65.257573 
4354.000000	65.083026 
4353.000000	64.934754 
4352.000000	64.825510 
4351.000000	64.760828 
4350.000000	64.738893 
4349.000000	64.754796 
4348.000000	64.798712 
4347.000000	64.851260 
4346.000000	64.895081 
4345.000000	64.921998 
4344.000000	64.930820 
4343.000000	64.924001 
4342.000000	64.908933 
4341.000000	64.893770 
4340.000000	64.885616 
4339.000000	64.888119 
4338.000000	64.900088 
4337.000000	64.915919 
4336.000000	64.927792 
4335.000000	64.928412 
4334.000000	64.912128 
4333.000000	64.877057 
4332.000000	64.825820 
4331.000000	64.765238 
4330.000000	64.704751 
4329.000000	64.654183 
4328.000000	64.621257 
4327.000000	64.609503 
4326.000000	64.618778 
4325.000000	64.644145 
4324.000000	64.676618 
4323.000000	64.705395 
4322.000000	64.720606 
4321.000000	64.715409 
4320.000000	64.686489 
4319.000000	64.635801 
4318.000000	64.569807 
4317.000000	64.498090 
4316.000000	64.430594 
4315.000000	64.375877 
4314.000000	64.339184 
4313.000000	64.321327 
4312.000000	64.319181 
4311.000000	64.326500 
4310.000000	64.335775 
4309.000000	64.340043 
4308.000000	64.334893 
4307.000000	64.318823 
4306.000000	64.293694 
4305.000000	64.264202 
4304.000000	64.236593 
4303.000000	64.217185 
4302.000000	64.211177 
4301.000000	64.221715 
4300.000000	64.249634 
4299.000000	64.293408 
4298.000000	64.349699 
4297.000000	64.413404 
4296.000000	64.479136 
4295.000000	64.541554 
4294.000000	64.596867 
4293.000000	64.642643 
4292.000000	64.678812 
4291.000000	64.706993 
4290.000000	64.729905 
4289.000000	64.750790 
4288.000000	64.771628 
4287.000000	64.793157 
4286.000000	64.813566 
4285.000000	64.829254 
4284.000000	64.835286 
4283.000000	64.827299 
4282.000000	64.802098 
4281.000000	64.758968 
4280.000000	64.700198 
4279.000000	64.631128 
4278.000000	64.558982 
4277.000000	64.491772 
4276.000000	64.436244 
4275.000000	64.397048 
4274.000000	64.375734 
4273.000000	64.371180 
4272.000000	64.379930 
4271.000000	64.397597 
4270.000000	64.419579 
4269.000000	64.442491 
4268.000000	64.464282 
4267.000000	64.484477 
4266.000000	64.503359 
4265.000000	64.521503 
4264.000000	64.538431 
4263.000000	64.552807 
4262.000000	64.562559 
4261.000000	64.565253 
4260.000000	64.558935 
4259.000000	64.543247 
4258.000000	64.519858 
4257.000000	64.492249 
4256.000000	64.465188 
4255.000000	64.443492 
4254.000000	64.430975 
4253.000000	64.428949 
4252.000000	64.435911 
4251.000000	64.447736 
4250.000000	64.458942 
4249.000000	64.464020 
4248.000000	64.459681 
4247.000000	64.445424 
4246.000000	64.424562 
4245.000000	64.403390 
4244.000000	64.390087 
4243.000000	64.392185 
4242.000000	64.414715 
4241.000000	64.458799 
4240.000000	64.520978 
4239.000000	64.593863 
4238.000000	64.667701 
4237.000000	64.732575 
4236.000000	64.780282 
4235.000000	64.806246 
4234.000000	64.809632 
4233.000000	64.793181 
4232.000000	64.761686 
4231.000000	64.720582 
4230.000000	64.674472 
4229.000000	64.626216 
4228.000000	64.577221 
4227.000000	64.528131 
4226.000000	64.479684 
4225.000000	64.433622 
4224.000000	64.393115 
4223.000000	64.362239 
4222.000000	64.344906 
4221.000000	64.343762 
4220.000000	64.358854 
4219.000000	64.387679 
4218.000000	64.424943 
4217.000000	64.464259 
4216.000000	64.499592 
4215.000000	64.526963 
4214.000000	64.544939 
4213.000000	64.555025 
4212.000000	64.560437 
4211.000000	64.565134 
4210.000000	64.572238 
4209.000000	64.582753 
4208.000000	64.595055 
4207.000000	64.605545 
4206.000000	64.609885 
4205.000000	64.604187 
4204.000000	64.586400 
4203.000000	64.556598 
4202.000000	64.517474 
4201.000000	64.472794 
4200.000000	64.426612 
4199.000000	64.382410 
4198.000000	64.342832 
4197.000000	64.309144 
4196.000000	64.281749 
4195.000000	64.261102 
4194.000000	64.247727 
4193.000000	64.241886 
4192.000000	64.243412 
4191.000000	64.251160 
4190.000000	64.263224 
4189.000000	64.276480 
4188.000000	64.288210 
4187.000000	64.295864 
4186.000000	64.299297 
4185.000000	64.300942 
4184.000000	64.305710 
4183.000000	64.319539 
4182.000000	64.348077 
4181.000000	64.394712 
4180.000000	64.459395 
4179.000000	64.537715 
4178.000000	64.622569 
4177.000000	64.705538 
4176.000000	64.779090 
4175.000000	64.838433 
4174.000000	64.881825 
4173.000000	64.910602 
4172.000000	64.928436 
4171.000000	64.940047 
4170.000000	64.950013 
4169.000000	64.961647 
4168.000000	64.977359 
4167.000000	64.997816 
4166.000000	65.022516 
4165.000000	65.049290 
4164.000000	65.076017 
4163.000000	65.099692 
4162.000000	65.117430 
4161.000000	65.126371 
4160.000000	65.124416 
4159.000000	65.110278 
