PE IR       SPECTRUM    SPECTRUM    ASCII       PEDS        1.60        
  -1
C-9AEF~1.ASC
17/03/27
16:43:17.00
17/03/27
16:43:17.00
tln
$C-4040-8_t0027$<tbV0>[2.6,-7.8,8.0,0.0,27,1,0]
370.000000
64









2002,4.07    
MIRTGS : RIGHTBACK : INTERNAL 2
MIR : ON : INTERNAL 2
OPTKBR

0.200000
8
8.000000
FILLER
RATIO
SPECTRUM
UNLOCKED 256

DOUBLE
64
COMBINED
1
0
0


1.000000
RATIO


1
0
TRUE
51149
0
LEFT NOT FITTED RIGHT NOT FITTED 0
NONE
NONE
15600
12.000000
4.427000
51148
TRUE
1 0 8 72 0 0 0 0 

15798.010000






#HDR
-1
-1
#GR
CM-1
%T
0.00002384185791015625
0.0
5000.000000
-1.000000
4631
8
64.837360
15.328335
#DATA
5000.000000	63.291287 
4999.000000	63.273835 
4998.000000	63.262844 
4997.000000	63.260960 
4996.000000	63.270664 
4995.000000	63.293504 
4994.000000	63.329386 
4993.000000	63.376879 
4992.000000	63.431835 
4991.000000	63.488054 
4990.000000	63.537478 
4989.000000	63.571977 
4988.000000	63.583922 
4987.000000	63.567852 
4986.000000	63.521885 
4985.000000	63.448548 
4984.000000	63.353538 
4983.000000	63.244390 
4982.000000	63.129091 
4981.000000	63.014459 
4980.000000	62.904357 
4979.000000	62.800264 
4978.000000	62.701678 
4977.000000	62.608933 
4976.000000	62.524724 
4975.000000	62.455296 
4974.000000	62.409830 
4973.000000	62.398123 
4972.000000	62.426614 
4971.000000	62.496542 
4970.000000	62.600708 
4969.000000	62.726163 
4968.000000	62.855124 
4967.000000	62.970519 
4966.000000	63.059043 
4965.000000	63.115167 
4964.000000	63.141465 
4963.000000	63.147878 
4962.000000	63.147759 
4961.000000	63.155007 
4960.000000	63.180017 
4959.000000	63.227558 
4958.000000	63.296008 
4957.000000	63.378787 
4956.000000	63.466429 
4955.000000	63.549351 
4954.000000	63.619947 
4953.000000	63.672900 
4952.000000	63.705897 
4951.000000	63.718819 
4950.000000	63.713884 
4949.000000	63.694262 
4948.000000	63.664364 
4947.000000	63.630604 
4946.000000	63.599705 
4945.000000	63.578701 
4944.000000	63.572430 
4943.000000	63.583827 
4942.000000	63.611578 
4941.000000	63.650965 
4940.000000	63.693976 
4939.000000	63.731074 
4938.000000	63.753223 
4937.000000	63.754105 
4936.000000	63.731622 
4935.000000	63.687705 
4934.000000	63.628649 
4933.000000	63.563513 
4932.000000	63.501930 
4931.000000	63.451981 
4930.000000	63.418507 
4929.000000	63.402771 
4928.000000	63.402795 
4927.000000	63.414812 
4926.000000	63.434648 
4925.000000	63.459014 
4924.000000	63.485860 
4923.000000	63.514494 
4922.000000	63.544821 
4921.000000	63.576960 
4920.000000	63.609409 
4919.000000	63.639402 
4918.000000	63.663411 
4917.000000	63.677811 
4916.000000	63.680386 
4915.000000	63.670468 
4914.000000	63.650059 
4913.000000	63.622879 
4912.000000	63.593482 
4911.000000	63.566422 
4910.000000	63.545179 
4909.000000	63.532066 
4908.000000	63.527536 
4907.000000	63.531947 
4906.000000	63.545799 
4905.000000	63.570570 
4904.000000	63.608288 
4903.000000	63.660812 
4902.000000	63.728594 
4901.000000	63.809537 
4900.000000	63.898348 
4899.000000	63.986778 
4898.000000	64.064788 
4897.000000	64.122986 
4896.000000	64.154410 
4895.000000	64.156484 
4894.000000	64.131188 
4893.000000	64.085268 
4892.000000	64.027619 
4891.000000	63.968110 
4890.000000	63.913822 
4889.000000	63.868808 
4888.000000	63.832235 
4887.000000	63.799619 
4886.000000	63.764309 
4885.000000	63.720059 
4884.000000	63.663458 
4883.000000	63.595199 
4882.000000	63.520741 
4881.000000	63.448429 
4880.000000	63.387989 
4879.000000	63.347697 
4878.000000	63.332295 
4877.000000	63.341593 
4876.000000	63.370943 
4875.000000	63.412261 
4874.000000	63.456416 
4873.000000	63.495206 
4872.000000	63.523316 
4871.000000	63.539242 
4870.000000	63.544511 
4869.000000	63.543152 
4868.000000	63.539814 
4867.000000	63.538980 
4866.000000	63.543176 
4865.000000	63.553357 
4864.000000	63.569593 
4863.000000	63.591098 
4862.000000	63.617587 
4861.000000	63.648462 
4860.000000	63.682985 
4859.000000	63.719773 
4858.000000	63.756799 
4857.000000	63.790893 
4856.000000	63.817954 
4855.000000	63.834095 
4854.000000	63.836884 
4853.000000	63.825869 
4852.000000	63.802886 
4851.000000	63.771820 
4850.000000	63.738131 
4849.000000	63.707470 
4848.000000	63.684415 
4847.000000	63.671922 
4846.000000	63.670587 
4845.000000	63.679289 
4844.000000	63.695430 
4843.000000	63.715529 
4842.000000	63.736081 
4841.000000	63.754057 
4840.000000	63.767123 
4839.000000	63.773083 
4838.000000	63.770794 
4837.000000	63.759827 
4836.000000	63.741207 
4835.000000	63.717103 
4834.000000	63.691043 
4833.000000	63.667821 
4832.000000	63.652324 
4831.000000	63.648891 
4830.000000	63.659930 
4829.000000	63.685512 
4828.000000	63.722634 
4827.000000	63.765907 
4826.000000	63.808345 
4825.000000	63.842940 
4824.000000	63.863992 
4823.000000	63.868308 
4822.000000	63.855838 
4821.000000	63.829445 
4820.000000	63.794040 
4819.000000	63.755226 
4818.000000	63.718557 
4817.000000	63.688015 
4816.000000	63.666009 
4815.000000	63.652658 
4814.000000	63.646292 
4813.000000	63.643789 
4812.000000	63.641500 
4811.000000	63.635897 
4810.000000	63.624262 
4809.000000	63.605117 
4808.000000	63.577961 
4807.000000	63.543653 
4806.000000	63.503789 
4805.000000	63.461041 
4804.000000	63.418531 
4803.000000	63.380050 
4802.000000	63.349342 
4801.000000	63.329982 
4800.000000	63.324785 
4799.000000	63.334822 
4798.000000	63.358879 
4797.000000	63.392972 
4796.000000	63.430762 
4795.000000	63.464474 
4794.000000	63.486385 
4793.000000	63.490128 
4792.000000	63.472390 
4791.000000	63.434243 
4790.000000	63.381028 
4789.000000	63.321518 
4788.000000	63.265991 
4787.000000	63.223528 
4786.000000	63.200211 
4785.000000	63.197660 
4784.000000	63.213181 
4783.000000	63.240456 
4782.000000	63.271641 
4781.000000	63.299489 
4780.000000	63.319492 
4779.000000	63.330125 
4778.000000	63.333845 
4777.000000	63.335227 
4776.000000	63.339805 
4775.000000	63.351893 
4774.000000	63.373422 
4773.000000	63.403677 
4772.000000	63.438820 
4771.000000	63.472986 
4770.000000	63.499569 
4769.000000	63.513278 
4768.000000	63.510918 
4767.000000	63.492274 
4766.000000	63.459897 
4765.000000	63.418626 
4764.000000	63.374948 
4763.000000	63.335633 
4762.000000	63.306379 
4761.000000	63.290762 
4760.000000	63.290214 
4759.000000	63.303565 
4758.000000	63.327336 
4757.000000	63.356804 
4756.000000	63.386797 
4755.000000	63.413429 
4754.000000	63.433909 
4753.000000	63.448071 
4752.000000	63.457274 
4751.000000	63.465046 
4750.000000	63.475227 
4749.000000	63.491821 
4748.000000	63.517570 
4747.000000	63.553500 
4746.000000	63.598847 
4745.000000	63.650512 
4744.000000	63.703942 
4743.000000	63.753581 
4742.000000	63.794016 
4741.000000	63.820624 
4740.000000	63.830304 
4739.000000	63.821721 
4738.000000	63.795208 
4737.000000	63.752484 
4736.000000	63.695764 
4735.000000	63.627958 
4734.000000	63.551855 
4733.000000	63.470077 
4732.000000	63.385105 
4731.000000	63.299560 
4730.000000	63.216733 
4729.000000	63.140153 
4728.000000	63.074278 
4727.000000	63.022899 
4726.000000	62.989997 
4725.000000	62.978386 
4724.000000	62.989997 
4723.000000	63.023924 
4722.000000	63.077902 
4721.000000	63.147807 
4720.000000	63.228225 
4719.000000	63.312292 
4718.000000	63.393068 
4717.000000	63.463950 
4716.000000	63.519525 
4715.000000	63.556027 
4714.000000	63.572287 
4713.000000	63.569831 
4712.000000	63.552832 
4711.000000	63.527250 
4710.000000	63.499832 
4709.000000	63.476467 
4708.000000	63.461542 
4707.000000	63.456606 
4706.000000	63.460183 
4705.000000	63.468027 
4704.000000	63.474750 
4703.000000	63.474988 
4702.000000	63.464474 
4701.000000	63.440966 
4700.000000	63.405394 
4699.000000	63.360500 
4698.000000	63.310050 
4697.000000	63.257932 
4696.000000	63.207387 
4695.000000	63.160300 
4694.000000	63.116836 
4693.000000	63.076257 
4692.000000	63.037800 
4691.000000	63.001179 
4690.000000	62.967038 
4689.000000	62.937021 
4688.000000	62.913346 
4687.000000	62.898564 
4686.000000	62.894868 
4685.000000	62.903428 
4684.000000	62.923860 
4683.000000	62.955021 
4682.000000	62.994837 
4681.000000	63.040518 
4680.000000	63.088750 
4679.000000	63.135790 
4678.000000	63.178324 
4677.000000	63.212919 
4676.000000	63.237476 
4675.000000	63.251233 
4674.000000	63.255500 
4673.000000	63.253474 
4672.000000	63.249993 
4671.000000	63.250279 
4670.000000	63.259315 
4669.000000	63.280797 
4668.000000	63.316178 
4667.000000	63.364291 
4666.000000	63.422131 
4665.000000	63.485693 
4664.000000	63.550662 
4663.000000	63.613462 
4662.000000	63.671398 
4661.000000	63.723015 
4660.000000	63.766932 
4659.000000	63.801574 
4658.000000	63.824748 
4657.000000	63.833856 
4656.000000	63.826537 
4655.000000	63.801050 
4654.000000	63.757848 
4653.000000	63.699388 
4652.000000	63.630270 
4651.000000	63.556122 
4650.000000	63.482666 
4649.000000	63.414931 
4648.000000	63.356590 
4647.000000	63.310313 
4646.000000	63.277053 
4645.000000	63.257598 
4644.000000	63.252711 
4643.000000	63.263344 
4642.000000	63.289856 
4641.000000	63.331627 
4640.000000	63.386130 
4639.000000	63.448548 
4638.000000	63.511538 
4637.000000	63.566875 
4636.000000	63.606762 
4635.000000	63.625836 
4634.000000	63.622164 
4633.000000	63.598227 
4632.000000	63.560342 
4631.000000	63.517260 
4630.000000	63.478088 
4629.000000	63.450336 
4628.000000	63.438296 
4627.000000	63.442516 
4626.000000	63.459897 
4625.000000	63.484811 
4624.000000	63.510823 
4623.000000	63.532280 
4622.000000	63.545513 
4621.000000	63.549160 
4620.000000	63.544440 
4619.000000	63.533782 
4618.000000	63.520574 
4617.000000	63.507652 
4616.000000	63.496875 
4615.000000	63.488936 
4614.000000	63.482952 
4613.000000	63.477540 
4612.000000	63.470745 
4611.000000	63.460969 
4610.000000	63.447523 
4609.000000	63.430881 
4608.000000	63.412904 
4607.000000	63.396167 
4606.000000	63.383936 
4605.000000	63.379144 
4604.000000	63.384056 
4603.000000	63.399338 
4602.000000	63.423943 
4601.000000	63.454937 
4600.000000	63.488268 
4599.000000	63.519310 
4598.000000	63.543772 
4597.000000	63.558053 
4596.000000	63.560724 
4595.000000	63.551950 
4594.000000	63.533020 
4593.000000	63.505935 
4592.000000	63.472914 
4591.000000	63.435530 
4590.000000	63.394904 
4589.000000	63.351511 
4588.000000	63.305902 
4587.000000	63.259077 
4586.000000	63.213133 
4585.000000	63.171267 
4584.000000	63.137388 
4583.000000	63.115739 
4582.000000	63.109493 
4581.000000	63.120388 
4580.000000	63.147997 
4579.000000	63.189578 
4578.000000	63.240551 
4577.000000	63.295173 
4576.000000	63.347697 
4575.000000	63.393235 
4574.000000	63.428759 
4573.000000	63.453006 
4572.000000	63.466930 
4571.000000	63.473510 
4570.000000	63.476729 
4569.000000	63.480925 
4568.000000	63.489484 
4567.000000	63.504791 
4566.000000	63.526916 
4565.000000	63.554120 
4564.000000	63.582825 
4563.000000	63.608694 
4562.000000	63.627481 
4561.000000	63.636040 
4560.000000	63.633465 
4559.000000	63.621282 
4558.000000	63.603448 
4557.000000	63.585710 
4556.000000	63.574051 
4555.000000	63.573026 
4554.000000	63.584971 
4553.000000	63.609313 
4552.000000	63.642215 
4551.000000	63.677358 
4550.000000	63.707470 
4549.000000	63.725781 
4548.000000	63.727140 
4547.000000	63.708925 
4546.000000	63.671493 
4545.000000	63.617634 
4544.000000	63.552331 
4543.000000	63.481473 
4542.000000	63.410735 
4541.000000	63.344407 
4540.000000	63.285708 
4539.000000	63.235807 
4538.000000	63.194561 
4537.000000	63.160896 
4536.000000	63.133287 
4535.000000	63.110899 
4534.000000	63.092899 
4533.000000	63.079929 
4532.000000	63.073062 
4531.000000	63.074517 
4530.000000	63.085770 
4529.000000	63.108539 
4528.000000	63.143229 
4527.000000	63.189625 
4526.000000	63.246226 
4525.000000	63.310694 
4524.000000	63.379979 
4523.000000	63.450694 
4522.000000	63.519215 
4521.000000	63.581848 
4520.000000	63.634777 
4519.000000	63.674688 
4518.000000	63.698554 
4517.000000	63.704681 
4516.000000	63.692474 
4515.000000	63.663601 
4514.000000	63.621354 
4513.000000	63.570880 
4512.000000	63.517880 
4511.000000	63.468551 
4510.000000	63.427758 
4509.000000	63.398170 
4508.000000	63.379931 
4507.000000	63.371181 
4506.000000	63.368725 
4505.000000	63.369035 
4504.000000	63.369464 
4503.000000	63.368678 
4502.000000	63.367104 
4501.000000	63.366389 
4500.000000	63.368511 
4499.000000	63.374614 
4498.000000	63.384723 
4497.000000	63.397598 
4496.000000	63.411092 
4495.000000	63.422775 
4494.000000	63.431167 
4493.000000	63.435935 
4492.000000	63.438177 
4491.000000	63.439536 
4490.000000	63.441300 
4489.000000	63.443827 
4488.000000	63.445591 
4487.000000	63.444089 
4486.000000	63.436627 
4485.000000	63.421607 
4484.000000	63.399410 
4483.000000	63.372421 
4482.000000	63.344812 
4481.000000	63.321161 
4480.000000	63.305139 
4479.000000	63.298177 
4478.000000	63.299036 
4477.000000	63.303971 
4476.000000	63.308024 
4475.000000	63.306117 
4474.000000	63.294529 
4473.000000	63.272190 
4472.000000	63.241004 
4471.000000	63.205599 
4470.000000	63.172030 
4469.000000	63.146662 
4468.000000	63.134527 
4467.000000	63.138580 
4466.000000	63.158726 
4465.000000	63.192510 
4464.000000	63.235330 
4463.000000	63.281869 
4462.000000	63.326549 
4461.000000	63.364410 
4460.000000	63.391566 
4459.000000	63.405442 
4458.000000	63.404631 
4457.000000	63.388872 
4456.000000	63.359022 
4455.000000	63.317203 
4454.000000	63.266682 
4453.000000	63.211774 
4452.000000	63.157486 
4451.000000	63.109111 
4450.000000	63.071584 
4449.000000	63.048863 
4448.000000	63.043546 
4447.000000	63.056540 
4446.000000	63.086938 
4445.000000	63.131809 
4444.000000	63.187098 
4443.000000	63.248109 
4442.000000	63.309741 
4441.000000	63.367199 
4440.000000	63.415884 
4439.000000	63.451957 
4438.000000	63.472890 
4437.000000	63.477635 
4436.000000	63.466787 
4435.000000	63.442039 
4434.000000	63.406848 
4433.000000	63.364648 
4432.000000	63.318181 
4431.000000	63.269329 
4430.000000	63.218665 
4429.000000	63.166761 
4428.000000	63.115167 
4427.000000	63.066649 
4426.000000	63.026213 
4425.000000	62.998342 
4424.000000	62.985801 
4423.000000	62.987875 
4422.000000	62.999725 
4421.000000	63.013482 
4420.000000	63.019537 
4419.000000	63.010621 
4418.000000	62.983894 
4417.000000	62.940549 
4416.000000	62.885475 
4415.000000	62.826442 
4414.000000	62.772154 
4413.000000	62.733173 
4412.000000	62.719011 
4411.000000	62.734341 
4410.000000	62.778043 
4409.000000	62.843036 
4408.000000	62.918162 
4407.000000	62.990736 
4406.000000	63.049960 
4405.000000	63.088679 
4404.000000	63.106155 
4403.000000	63.105750 
4402.000000	63.095808 
4401.000000	63.090896 
4400.000000	63.103008 
4399.000000	63.137674 
4398.000000	63.191866 
4397.000000	63.249778 
4396.000000	63.296222 
4395.000000	63.319969 
4394.000000	63.325691 
4393.000000	63.334965 
4392.000000	63.381838 
4391.000000	63.504409 
4390.000000	63.718390 
4389.000000	64.007759 
4388.000000	64.315199 
4387.000000	64.555525 
4386.000000	64.637231 
4385.000000	64.493274 
4384.000000	64.109802 
4383.000000	63.535070 
4382.000000	62.880897 
4381.000000	62.285161 
4380.000000	61.882948 
4379.000000	61.753439 
4378.000000	61.891651 
4377.000000	62.206816 
4376.000000	62.537145 
4375.000000	62.710809 
4374.000000	62.593817 
4373.000000	62.143445 
4372.000000	61.424851 
4371.000000	60.600352 
4370.000000	59.881067 
4369.000000	59.470844 
4368.000000	59.499454 
4367.000000	59.995150 
4366.000000	60.873699 
4365.000000	61.966109 
4364.000000	63.066339 
4363.000000	63.983178 
4362.000000	64.588546 
4361.000000	64.837360 
4360.000000	64.769816 
4359.000000	64.483451 
4358.000000	64.100432 
4357.000000	63.728642 
4356.000000	63.436889 
4355.000000	63.251018 
4354.000000	63.153457 
4353.000000	63.115596 
4352.000000	63.101696 
4351.000000	63.090801 
4350.000000	63.076496 
4349.000000	63.064908 
4348.000000	63.070726 
4347.000000	63.100528 
4346.000000	63.156080 
4345.000000	63.228511 
4344.000000	63.302779 
4343.000000	63.362717 
4342.000000	63.393712 
4341.000000	63.388586 
4340.000000	63.346195 
4339.000000	63.271784 
4338.000000	63.174033 
4337.000000	63.062500 
4336.000000	62.945485 
4335.000000	62.829089 
4334.000000	62.718653 
4333.000000	62.619328 
4332.000000	62.540364 
4331.000000	62.493944 
4330.000000	62.487959 
4329.000000	62.525773 
4328.000000	62.604880 
4327.000000	62.717795 
4326.000000	62.852287 
4325.000000	62.994980 
4324.000000	63.131570 
4323.000000	63.251781 
4322.000000	63.350820 
4321.000000	63.430118 
4320.000000	63.495182 
4319.000000	63.553452 
4318.000000	63.611626 
4317.000000	63.672661 
4316.000000	63.735628 
4315.000000	63.794875 
4314.000000	63.843345 
4313.000000	63.872671 
4312.000000	63.876962 
4311.000000	63.852787 
4310.000000	63.801074 
4309.000000	63.725781 
4308.000000	63.633561 
4307.000000	63.532471 
4306.000000	63.430809 
4305.000000	63.335633 
4304.000000	63.252115 
4303.000000	63.183879 
4302.000000	63.133096 
4301.000000	63.100504 
4300.000000	63.086152 
4299.000000	63.088726 
4298.000000	63.106608 
4297.000000	63.137340 
4296.000000	63.178467 
4295.000000	63.226246 
4294.000000	63.276791 
4293.000000	63.326430 
4292.000000	63.371348 
4291.000000	63.407230 
4290.000000	63.430047 
4289.000000	63.436579 
4288.000000	63.424849 
4287.000000	63.394546 
4286.000000	63.348078 
4285.000000	63.290834 
4284.000000	63.230895 
4283.000000	63.177990 
4282.000000	63.141536 
4281.000000	63.128805 
4280.000000	63.143086 
4279.000000	63.182640 
4278.000000	63.240694 
4277.000000	63.306665 
4276.000000	63.368344 
4275.000000	63.414621 
4274.000000	63.437342 
4273.000000	63.433289 
4272.000000	63.404440 
4271.000000	63.357329 
4270.000000	63.300752 
4269.000000	63.243746 
4268.000000	63.194131 
4267.000000	63.156175 
4266.000000	63.130879 
4265.000000	63.115644 
4264.000000	63.106417 
4263.000000	63.098311 
4262.000000	63.087368 
4261.000000	63.071489 
4260.000000	63.050436 
4259.000000	63.026571 
4258.000000	63.003611 
4257.000000	62.986350 
4256.000000	62.978911 
4255.000000	62.984228 
4254.000000	63.002991 
4253.000000	63.033485 
4252.000000	63.071560 
4251.000000	63.111186 
4250.000000	63.145470 
4249.000000	63.167929 
4248.000000	63.173818 
4247.000000	63.161134 
4246.000000	63.131451 
4245.000000	63.089251 
4244.000000	63.041567 
4243.000000	62.997007 
4242.000000	62.963747 
4241.000000	62.948155 
4240.000000	62.953782 
4239.000000	62.980675 
4238.000000	63.025832 
4237.000000	63.083648 
4236.000000	63.147425 
4235.000000	63.210415 
4234.000000	63.267040 
4233.000000	63.313388 
4232.000000	63.347554 
4231.000000	63.369512 
4230.000000	63.380479 
4229.000000	63.382244 
4228.000000	63.376498 
4227.000000	63.364720 
4226.000000	63.348078 
4225.000000	63.327503 
4224.000000	63.303542 
4223.000000	63.276505 
4222.000000	63.246822 
4221.000000	63.215303 
4220.000000	63.183069 
4219.000000	63.151550 
4218.000000	63.122224 
4217.000000	63.096261 
4216.000000	63.074851 
4215.000000	63.058352 
4214.000000	63.046288 
4213.000000	63.036966 
4212.000000	63.027691 
4211.000000	63.015103 
4210.000000	62.996506 
4209.000000	62.969589 
4208.000000	62.932753 
4207.000000	62.886190 
4206.000000	62.831950 
4205.000000	62.773609 
4204.000000	62.715601 
4203.000000	62.662792 
4202.000000	62.619137 
4201.000000	62.588453 
4200.000000	62.573814 
4199.000000	62.577009 
4198.000000	62.598180 
4197.000000	62.635850 
4196.000000	62.686347 
4195.000000	62.744259 
4194.000000	62.802410 
4193.000000	62.852144 
4192.000000	62.884926 
4191.000000	62.892985 
4190.000000	62.871932 
4189.000000	62.821006 
4188.000000	62.745380 
4187.000000	62.654638 
4186.000000	62.563657 
4185.000000	62.489724 
4184.000000	62.450599 
4183.000000	62.460923 
4182.000000	62.528800 
4181.000000	62.654209 
4180.000000	62.826919 
4179.000000	63.028836 
4178.000000	63.234734 
4177.000000	63.416957 
4176.000000	63.550376 
4175.000000	63.617086 
4174.000000	63.610601 
4173.000000	63.536787 
4172.000000	63.413691 
4171.000000	63.267207 
4170.000000	63.125777 
4169.000000	63.013958 
4168.000000	62.948274 
4167.000000	62.933492 
4166.000000	62.963533 
4165.000000	63.022756 
4164.000000	63.091373 
4163.000000	63.149547 
4162.000000	63.181495 
4161.000000	63.179087 
4160.000000	63.140869 
4159.000000	63.073468 
