PE IR       SPECTRUM    SPECTRUM    ASCII       PEDS        1.60        
  -1
C-99EF~1.ASC
17/03/27
15:03:15.00
17/03/27
15:03:15.00
tln
$C-4040-8_t0007$<tbV0>[-2.6,-13.0,8.0,0.0,27,1,0]
370.000000
64









2002,4.07    
MIRTGS : RIGHTBACK : INTERNAL 2
MIR : ON : INTERNAL 2
OPTKBR

0.200000
8
8.000000
FILLER
RATIO
SPECTRUM
UNLOCKED 256

DOUBLE
64
COMBINED
1
0
0


1.000000
RATIO


1
0
TRUE
51149
0
LEFT NOT FITTED RIGHT NOT FITTED 0
NONE
NONE
15600
12.000000
4.427000
51148
TRUE
1 0 8 72 0 0 0 0 

15798.010000






#HDR
-1
-1
#GR
CM-1
%T
0.00002384185791015625
0.0
5000.000000
-1.000000
4631
8
70.954537
15.724730
#DATA
5000.000000	64.241123 
4999.000000	64.137792 
4998.000000	64.041399 
4997.000000	63.969802 
4996.000000	63.937425 
4995.000000	63.953566 
4994.000000	64.018630 
4993.000000	64.123415 
4992.000000	64.251303 
4991.000000	64.382123 
4990.000000	64.495754 
4989.000000	64.575934 
4988.000000	64.613866 
4987.000000	64.608979 
4986.000000	64.568614 
4985.000000	64.505386 
4984.000000	64.432787 
4983.000000	64.361643 
4982.000000	64.298105 
4981.000000	64.242696 
4980.000000	64.190626 
4979.000000	64.134836 
4978.000000	64.069366 
4977.000000	63.992643 
4976.000000	63.910508 
4975.000000	63.834452 
4974.000000	63.778400 
4973.000000	63.753676 
4972.000000	63.765668 
4971.000000	63.809490 
4970.000000	63.869452 
4969.000000	63.922739 
4968.000000	63.943600 
4967.000000	63.911938 
4966.000000	63.818693 
4965.000000	63.670015 
4964.000000	63.485217 
4963.000000	63.294649 
4962.000000	63.131999 
4961.000000	63.027358 
4960.000000	62.999725 
4959.000000	63.053941 
4958.000000	63.179564 
4957.000000	63.356041 
4956.000000	63.557600 
4955.000000	63.759064 
4954.000000	63.939714 
4953.000000	64.083480 
4952.000000	64.179086 
4951.000000	64.218664 
4950.000000	64.196944 
4949.000000	64.110183 
4948.000000	63.957810 
4947.000000	63.745570 
4946.000000	63.486504 
4945.000000	63.200592 
4944.000000	62.914967 
4943.000000	62.660479 
4942.000000	62.468600 
4941.000000	62.365341 
4940.000000	62.367749 
4939.000000	62.480211 
4938.000000	62.692475 
4937.000000	62.980389 
4936.000000	63.309049 
4935.000000	63.637471 
4934.000000	63.925814 
4933.000000	64.140629 
4932.000000	64.261960 
4931.000000	64.285206 
4930.000000	64.222526 
4929.000000	64.098906 
4928.000000	63.948464 
4927.000000	63.806462 
4926.000000	63.703274 
4925.000000	63.657999 
4924.000000	63.676404 
4923.000000	63.751029 
4922.000000	63.865542 
4921.000000	64.000058 
4920.000000	64.136123 
4919.000000	64.261579 
4918.000000	64.371609 
4917.000000	64.468812 
4916.000000	64.559745 
4915.000000	64.651560 
4914.000000	64.746904 
4913.000000	64.843463 
4912.000000	64.934253 
4911.000000	65.009665 
4910.000000	65.061950 
4909.000000	65.086960 
4908.000000	65.087532 
4907.000000	65.071201 
4906.000000	65.049576 
4905.000000	65.032863 
4904.000000	65.026926 
4903.000000	65.032911 
4902.000000	65.047383 
4901.000000	65.063261 
4900.000000	65.072393 
4899.000000	65.068745 
4898.000000	65.050578 
4897.000000	65.020442 
4896.000000	64.985132 
4895.000000	64.953017 
4894.000000	64.932847 
4893.000000	64.931297 
4892.000000	64.951753 
4891.000000	64.994764 
4890.000000	65.056109 
4889.000000	65.129160 
4888.000000	65.203475 
4887.000000	65.267968 
4886.000000	65.310239 
4885.000000	65.318441 
4884.000000	65.283536 
4883.000000	65.201663 
4882.000000	65.074968 
4881.000000	64.912223 
4880.000000	64.727163 
4879.000000	64.536905 
4878.000000	64.358282 
4877.000000	64.205408 
4876.000000	64.087343 
4875.000000	64.007258 
4874.000000	63.963007 
4873.000000	63.948726 
4872.000000	63.956761 
4871.000000	63.979935 
4870.000000	64.012360 
4869.000000	64.050388 
4868.000000	64.091086 
4867.000000	64.132428 
4866.000000	64.171409 
4865.000000	64.204931 
4864.000000	64.229559 
4863.000000	64.242482 
4862.000000	64.242768 
4861.000000	64.230632 
4860.000000	64.208006 
4859.000000	64.177417 
4858.000000	64.141106 
4857.000000	64.101672 
4856.000000	64.061665 
4855.000000	64.024281 
4854.000000	63.993358 
4853.000000	63.973474 
4852.000000	63.969302 
4851.000000	63.984727 
4850.000000	64.021778 
4849.000000	64.079070 
4848.000000	64.151620 
4847.000000	64.231777 
4846.000000	64.310765 
4845.000000	64.380574 
4844.000000	64.436244 
4843.000000	64.477324 
4842.000000	64.507412 
4841.000000	64.533162 
4840.000000	64.561271 
4839.000000	64.596557 
4838.000000	64.639282 
4837.000000	64.685678 
4836.000000	64.727473 
4835.000000	64.755272 
4834.000000	64.759826 
4833.000000	64.735579 
4832.000000	64.681553 
4831.000000	64.602351 
4830.000000	64.507126 
4829.000000	64.407658 
4828.000000	64.315867 
4827.000000	64.241433 
4826.000000	64.189720 
4825.000000	64.161205 
4824.000000	64.151692 
4823.000000	64.153838 
4822.000000	64.158749 
4821.000000	64.158368 
4820.000000	64.146828 
4819.000000	64.121699 
4818.000000	64.084029 
4817.000000	64.037990 
4816.000000	63.989305 
4815.000000	63.944101 
4814.000000	63.907647 
4813.000000	63.883256 
4812.000000	63.871693 
4811.000000	63.871264 
4810.000000	63.878870 
4809.000000	63.890886 
4808.000000	63.903951 
4807.000000	63.915896 
4806.000000	63.925909 
4805.000000	63.934350 
4804.000000	63.942170 
4803.000000	63.950085 
4802.000000	63.957905 
4801.000000	63.964247 
4800.000000	63.966727 
4799.000000	63.962817 
4798.000000	63.950371 
4797.000000	63.929438 
4796.000000	63.902544 
4795.000000	63.874769 
4794.000000	63.852882 
4793.000000	63.843822 
4792.000000	63.852977 
4791.000000	63.882350 
4790.000000	63.929677 
4789.000000	63.988447 
4788.000000	64.049243 
4787.000000	64.101982 
4786.000000	64.138150 
4785.000000	64.153265 
4784.000000	64.147353 
4783.000000	64.124608 
4782.000000	64.091944 
4781.000000	64.057374 
4780.000000	64.027523 
4779.000000	64.006519 
4778.000000	63.994956 
4777.000000	63.990855 
4776.000000	63.990116 
4775.000000	63.988375 
4774.000000	63.982129 
4773.000000	63.969922 
4772.000000	63.952231 
4771.000000	63.931131 
4770.000000	63.909196 
4769.000000	63.888525 
4768.000000	63.869905 
4767.000000	63.852667 
4766.000000	63.834905 
4765.000000	63.814377 
4764.000000	63.789558 
4763.000000	63.760685 
4762.000000	63.729786 
4761.000000	63.700890 
4760.000000	63.679122 
4759.000000	63.669753 
4758.000000	63.676357 
4757.000000	63.699984 
4756.000000	63.738512 
4755.000000	63.787102 
4754.000000	63.838791 
4753.000000	63.886594 
4752.000000	63.924956 
4751.000000	63.951325 
4750.000000	63.966298 
4749.000000	63.973188 
4748.000000	63.976931 
4747.000000	63.982129 
4746.000000	63.991999 
4745.000000	64.006948 
4744.000000	64.024758 
4743.000000	64.041161 
4742.000000	64.051413 
4741.000000	64.051365 
4740.000000	64.038872 
4739.000000	64.014148 
4738.000000	63.979911 
4737.000000	63.939952 
4736.000000	63.898396 
4735.000000	63.858652 
4734.000000	63.823080 
4733.000000	63.793087 
4732.000000	63.769078 
4731.000000	63.751602 
4730.000000	63.740944 
4729.000000	63.737177 
4728.000000	63.739705 
4727.000000	63.747024 
4726.000000	63.756752 
4725.000000	63.765501 
4724.000000	63.769769 
4723.000000	63.766407 
4722.000000	63.753700 
4721.000000	63.731575 
4720.000000	63.702154 
4719.000000	63.668942 
4718.000000	63.636302 
4717.000000	63.608312 
4716.000000	63.588070 
4715.000000	63.577246 
4714.000000	63.575720 
4713.000000	63.582086 
4712.000000	63.593935 
4711.000000	63.608908 
4710.000000	63.624668 
4709.000000	63.639903 
4708.000000	63.653826 
4707.000000	63.666439 
4706.000000	63.678503 
4705.000000	63.691234 
4704.000000	63.705945 
4703.000000	63.723444 
4702.000000	63.743901 
4701.000000	63.766503 
4700.000000	63.789629 
4699.000000	63.811206 
4698.000000	63.828921 
4697.000000	63.841414 
4696.000000	63.848471 
4695.000000	63.851690 
4694.000000	63.853907 
4693.000000	63.859105 
4692.000000	63.871479 
4691.000000	63.894104 
4690.000000	63.927578 
4689.000000	63.970303 
4688.000000	64.018702 
4687.000000	64.067625 
4686.000000	64.111351 
4685.000000	64.145183 
4684.000000	64.166164 
4683.000000	64.172935 
4682.000000	64.165544 
4681.000000	64.144992 
4680.000000	64.112424 
4679.000000	64.068937 
4678.000000	64.015603 
4677.000000	63.953828 
4676.000000	63.885736 
4675.000000	63.814902 
4674.000000	63.746333 
4673.000000	63.685679 
4672.000000	63.638854 
4671.000000	63.610482 
4670.000000	63.603925 
4669.000000	63.619303 
4668.000000	63.655447 
4667.000000	63.709282 
4666.000000	63.777947 
4665.000000	63.858270 
4664.000000	63.947868 
4663.000000	64.044880 
4662.000000	64.146852 
4661.000000	64.250206 
4660.000000	64.349579 
4659.000000	64.438009 
4658.000000	64.507651 
4657.000000	64.551162 
4656.000000	64.563441 
4655.000000	64.542770 
4654.000000	64.492034 
4653.000000	64.417862 
4652.000000	64.329719 
4651.000000	64.237689 
4650.000000	64.151406 
4649.000000	64.078068 
4648.000000	64.021635 
4647.000000	63.982939 
4646.000000	63.960886 
4645.000000	63.953256 
4644.000000	63.957476 
4643.000000	63.971543 
4642.000000	63.993501 
4641.000000	64.022111 
4640.000000	64.055371 
4639.000000	64.090847 
4638.000000	64.124894 
4637.000000	64.153623 
4636.000000	64.173364 
4635.000000	64.181375 
4634.000000	64.176511 
4633.000000	64.159512 
4632.000000	64.133286 
4631.000000	64.101696 
4630.000000	64.069151 
4629.000000	64.040231 
4628.000000	64.019155 
4627.000000	64.009094 
4626.000000	64.012145 
4625.000000	64.029479 
4624.000000	64.060831 
4623.000000	64.104914 
4622.000000	64.159107 
4621.000000	64.219284 
4620.000000	64.280223 
4619.000000	64.336514 
4618.000000	64.382505 
4617.000000	64.412879 
4616.000000	64.423871 
4615.000000	64.414429 
4614.000000	64.385962 
4613.000000	64.342594 
4612.000000	64.290213 
4611.000000	64.236021 
4610.000000	64.186501 
4609.000000	64.146757 
4608.000000	64.119195 
4607.000000	64.103746 
4606.000000	64.097833 
4605.000000	64.097619 
4604.000000	64.098906 
4603.000000	64.098381 
4602.000000	64.094471 
4601.000000	64.087653 
4600.000000	64.079833 
4599.000000	64.073729 
4598.000000	64.071345 
4597.000000	64.073801 
4596.000000	64.080762 
4595.000000	64.091229 
4594.000000	64.103889 
4593.000000	64.118218 
4592.000000	64.134740 
4591.000000	64.155077 
4590.000000	64.181184 
4589.000000	64.214682 
4588.000000	64.255404 
4587.000000	64.301872 
4586.000000	64.351439 
4585.000000	64.400744 
4584.000000	64.446425 
4583.000000	64.486002 
4582.000000	64.518713 
4581.000000	64.544677 
4580.000000	64.564967 
4579.000000	64.580249 
4578.000000	64.590382 
4577.000000	64.594721 
4576.000000	64.592123 
4575.000000	64.581894 
4574.000000	64.564466 
4573.000000	64.541888 
4572.000000	64.517855 
4571.000000	64.497447 
4570.000000	64.485788 
4569.000000	64.486622 
4568.000000	64.501166 
4567.000000	64.527893 
4566.000000	64.562535 
4565.000000	64.599514 
4564.000000	64.632487 
4563.000000	64.656543 
4562.000000	64.667677 
4561.000000	64.664506 
4560.000000	64.646172 
4559.000000	64.612174 
4558.000000	64.562129 
4557.000000	64.495611 
4556.000000	64.413499 
4555.000000	64.318585 
4554.000000	64.216613 
4553.000000	64.116191 
4552.000000	64.027333 
4551.000000	63.959431 
4550.000000	63.918781 
4549.000000	63.906669 
4548.000000	63.917970 
4547.000000	63.942313 
4546.000000	63.966393 
4545.000000	63.977766 
4544.000000	63.967990 
4543.000000	63.935303 
4542.000000	63.884902 
4541.000000	63.827943 
4540.000000	63.777184 
4539.000000	63.744783 
4538.000000	63.737797 
4537.000000	63.757944 
4536.000000	63.801145 
4535.000000	63.859868 
4534.000000	63.925838 
4533.000000	63.991975 
4532.000000	64.053916 
4531.000000	64.110302 
4530.000000	64.161491 
4529.000000	64.209222 
4528.000000	64.254951 
4527.000000	64.299845 
4526.000000	64.344358 
4525.000000	64.388751 
4524.000000	64.433526 
4523.000000	64.480233 
4522.000000	64.531064 
4521.000000	64.588427 
4520.000000	64.653563 
4519.000000	64.725947 
4518.000000	64.802169 
4517.000000	64.875841 
4516.000000	64.939069 
4515.000000	64.983916 
4514.000000	65.005183 
4513.000000	65.002799 
4512.000000	64.981603 
4511.000000	64.951682 
4510.000000	64.924240 
4509.000000	64.908480 
4508.000000	64.908933 
4507.000000	64.924263 
4506.000000	64.948058 
4505.000000	64.971709 
4504.000000	64.986491 
4503.000000	64.986991 
4502.000000	64.971780 
4501.000000	64.943861 
4500.000000	64.908742 
4499.000000	64.872527 
4498.000000	64.840054 
4497.000000	64.813351 
4496.000000	64.791941 
4495.000000	64.773321 
4494.000000	64.754629 
4493.000000	64.733314 
4492.000000	64.708375 
4491.000000	64.680242 
4490.000000	64.648199 
4489.000000	64.612174 
4488.000000	64.570713 
4487.000000	64.524888 
4486.000000	64.479351 
4485.000000	64.442038 
4484.000000	64.426445 
4483.000000	64.443349 
4482.000000	64.495301 
4481.000000	64.575862 
4480.000000	64.669513 
4479.000000	64.755749 
4478.000000	64.812541 
4477.000000	64.825606 
4476.000000	64.793562 
4475.000000	64.727330 
4474.000000	64.646983 
4473.000000	64.576005 
4472.000000	64.533662 
4471.000000	64.533352 
4470.000000	64.579820 
4469.000000	64.667773 
4468.000000	64.784073 
4467.000000	64.916634 
4466.000000	65.056562 
4465.000000	65.196323 
4464.000000	65.331268 
4463.000000	65.456056 
4462.000000	65.568947 
4461.000000	65.664339 
4460.000000	65.744590 
4459.000000	65.818881 
4458.000000	65.909576 
4457.000000	66.048216 
4456.000000	66.270303 
4455.000000	66.606521 
4454.000000	67.071747 
4453.000000	67.658281 
4452.000000	68.332195 
4451.000000	69.039273 
4450.000000	69.711565 
4449.000000	70.284581 
4448.000000	70.702195 
4447.000000	70.930981 
4446.000000	70.954537 
4445.000000	70.776748 
4444.000000	70.407915 
4443.000000	69.863080 
4442.000000	69.156193 
4441.000000	68.304014 
4440.000000	67.334342 
4439.000000	66.290783 
4438.000000	65.236926 
4437.000000	64.250135 
4436.000000	63.412880 
4435.000000	62.797045 
4434.000000	62.440252 
4433.000000	62.344622 
4432.000000	62.473154 
4431.000000	62.763619 
4430.000000	63.130092 
4429.000000	63.495111 
4428.000000	63.801312 
4427.000000	64.023995 
4426.000000	64.164352 
4425.000000	64.245891 
4424.000000	64.297723 
4423.000000	64.341926 
4422.000000	64.378428 
4421.000000	64.393854 
4420.000000	64.370751 
4419.000000	64.288568 
4418.000000	64.135360 
4417.000000	63.907885 
4416.000000	63.614869 
4415.000000	63.275551 
4414.000000	62.915968 
4413.000000	62.556958 
4412.000000	62.208533 
4411.000000	61.882805 
4410.000000	61.582970 
4409.000000	61.297821 
4408.000000	61.000943 
4407.000000	60.662412 
4406.000000	60.252523 
4405.000000	59.737133 
4404.000000	59.103178 
4403.000000	58.363533 
4402.000000	57.565665 
4401.000000	56.790471 
4400.000000	56.125354 
4399.000000	55.657958 
4398.000000	55.421686 
4397.000000	55.384588 
4396.000000	55.440950 
4395.000000	55.426621 
4394.000000	55.179619 
4393.000000	54.582071 
4392.000000	53.622007 
4391.000000	52.404403 
4390.000000	51.152372 
4389.000000	50.155758 
4388.000000	49.704313 
4387.000000	50.012469 
4386.000000	51.164627 
4385.000000	53.089737 
4384.000000	55.574059 
4383.000000	58.310484 
4382.000000	60.969185 
4381.000000	63.267779 
4380.000000	65.026807 
4379.000000	66.192102 
4378.000000	66.814970 
4377.000000	67.025637 
4376.000000	66.979527 
4375.000000	66.817808 
4374.000000	66.644525 
4373.000000	66.504883 
4372.000000	66.423535 
4371.000000	66.382098 
4370.000000	66.363000 
4369.000000	66.340494 
4368.000000	66.307234 
4367.000000	66.260886 
4366.000000	66.204833 
4365.000000	66.143536 
4364.000000	66.077613 
4363.000000	66.004371 
4362.000000	65.917420 
4361.000000	65.810751 
4360.000000	65.681171 
4359.000000	65.530824 
4358.000000	65.367531 
4357.000000	65.201926 
4356.000000	65.046048 
4355.000000	64.910960 
4354.000000	64.805126 
4353.000000	64.729762 
4352.000000	64.680671 
4351.000000	64.656615 
4350.000000	64.654302 
4349.000000	64.659214 
4348.000000	64.657664 
4347.000000	64.642953 
4346.000000	64.614319 
4345.000000	64.574670 
4344.000000	64.531326 
4343.000000	64.492225 
4342.000000	64.464259 
4341.000000	64.450740 
4340.000000	64.450454 
4339.000000	64.457845 
4338.000000	64.464902 
4337.000000	64.463686 
4336.000000	64.448547 
4335.000000	64.417767 
4334.000000	64.374065 
4333.000000	64.324164 
4332.000000	64.276385 
4331.000000	64.238810 
4330.000000	64.217925 
4329.000000	64.217185 
4328.000000	64.236211 
4327.000000	64.271354 
4326.000000	64.317464 
4325.000000	64.368724 
4324.000000	64.419269 
4323.000000	64.464354 
4322.000000	64.500880 
4321.000000	64.527583 
4320.000000	64.544343 
4319.000000	64.552211 
4318.000000	64.553070 
4317.000000	64.548683 
4316.000000	64.540696 
4315.000000	64.529490 
4314.000000	64.514994 
4313.000000	64.495682 
4312.000000	64.469337 
4311.000000	64.433932 
4310.000000	64.388751 
4309.000000	64.335227 
4308.000000	64.277362 
4307.000000	64.221477 
4306.000000	64.175176 
4305.000000	64.145946 
4304.000000	64.139509 
4303.000000	64.157891 
4302.000000	64.198732 
4301.000000	64.255976 
4300.000000	64.320755 
4299.000000	64.383244 
4298.000000	64.434695 
4297.000000	64.468908 
4296.000000	64.483165 
4295.000000	64.478111 
4294.000000	64.457106 
4293.000000	64.424490 
4292.000000	64.385485 
4291.000000	64.344573 
4290.000000	64.305996 
4289.000000	64.273667 
4288.000000	64.251041 
4287.000000	64.241909 
4286.000000	64.248561 
4285.000000	64.271664 
4284.000000	64.308953 
4283.000000	64.355301 
4282.000000	64.402890 
4281.000000	64.442539 
4280.000000	64.465594 
4279.000000	64.465522 
4278.000000	64.439415 
4277.000000	64.388537 
4276.000000	64.317798 
4275.000000	64.234805 
4274.000000	64.148163 
4273.000000	64.066100 
4272.000000	63.994932 
4271.000000	63.939166 
4270.000000	63.901352 
4269.000000	63.883137 
4268.000000	63.885068 
4267.000000	63.907480 
4266.000000	63.949918 
4265.000000	64.011287 
4264.000000	64.088177 
4263.000000	64.175629 
4262.000000	64.266705 
4261.000000	64.353609 
4260.000000	64.428496 
4259.000000	64.484906 
4258.000000	64.518690 
4257.000000	64.528489 
4256.000000	64.516067 
4255.000000	64.485454 
4254.000000	64.441943 
4253.000000	64.391183 
4252.000000	64.338111 
4251.000000	64.286136 
4250.000000	64.236807 
4249.000000	64.190435 
4248.000000	64.146685 
4247.000000	64.104914 
4246.000000	64.065027 
4245.000000	64.027714 
4244.000000	63.994741 
4243.000000	63.967990 
4242.000000	63.949704 
4241.000000	63.941502 
4240.000000	63.943862 
4239.000000	63.955783 
4238.000000	63.974547 
4237.000000	63.996028 
4236.000000	64.015316 
4235.000000	64.027881 
4234.000000	64.029860 
4233.000000	64.018750 
4232.000000	63.994169 
4231.000000	63.957834 
4230.000000	63.913512 
4229.000000	63.866019 
4228.000000	63.821077 
4227.000000	63.784074 
4226.000000	63.759708 
4225.000000	63.751053 
4224.000000	63.759255 
4223.000000	63.783431 
4222.000000	63.820815 
4221.000000	63.867425 
4220.000000	63.918471 
4219.000000	63.969373 
4218.000000	64.016270 
4217.000000	64.056301 
4216.000000	64.087796 
4215.000000	64.109611 
4214.000000	64.121294 
4213.000000	64.122080 
4212.000000	64.111542 
4211.000000	64.088582 
4210.000000	64.052534 
4209.000000	64.003229 
4208.000000	63.941955 
4207.000000	63.871884 
4206.000000	63.798069 
4205.000000	63.727760 
4204.000000	63.669514 
4203.000000	63.631725 
4202.000000	63.620781 
4201.000000	63.639402 
4200.000000	63.685703 
4199.000000	63.753104 
4198.000000	63.831448 
4197.000000	63.908386 
4196.000000	63.971948 
4195.000000	64.013290 
4194.000000	64.028215 
4193.000000	64.017653 
4192.000000	63.986754 
4191.000000	63.943672 
4190.000000	63.896584 
4189.000000	63.851952 
4188.000000	63.812446 
4187.000000	63.777446 
4186.000000	63.743305 
4185.000000	63.706088 
4184.000000	63.662362 
4183.000000	63.611435 
4182.000000	63.554930 
4181.000000	63.496160 
4180.000000	63.439369 
4179.000000	63.387537 
4178.000000	63.343000 
4177.000000	63.306474 
4176.000000	63.278746 
4175.000000	63.260602 
4174.000000	63.254094 
4173.000000	63.262152 
4172.000000	63.288450 
4171.000000	63.336014 
4170.000000	63.405776 
4169.000000	63.495397 
4168.000000	63.599109 
4167.000000	63.708066 
4166.000000	63.812041 
4165.000000	63.900828 
4164.000000	63.966870 
4163.000000	64.005780 
4162.000000	64.017653 
4161.000000	64.005947 
4160.000000	63.977336 
4159.000000	63.939166 
