PE IR       SPECTRUM    SPECTRUM    ASCII       PEDS        1.60        
  -1
C-1A61~1.ASC
17/03/27
15:17:06.00
17/03/27
15:17:06.00
tln
$C-4040-8_t0010$<tbV0>[-10.4,-13.0,8.0,0.0,27,1,0]
370.000000
64









2002,4.07    
MIRTGS : RIGHTBACK : INTERNAL 2
MIR : ON : INTERNAL 2
OPTKBR

0.200000
8
8.000000
FILLER
RATIO
SPECTRUM
UNLOCKED 256

DOUBLE
64
COMBINED
1
0
0


1.000000
RATIO


1
0
TRUE
51149
0
LEFT NOT FITTED RIGHT NOT FITTED 0
NONE
NONE
15600
12.000000
4.427000
51148
TRUE
1 0 8 72 0 0 0 0 

15798.010000






#HDR
-1
-1
#GR
CM-1
%T
0.00002384185791015625
0.0
5000.000000
-1.000000
4631
8
80.884838
23.447942
#DATA
5000.000000	63.816332 
4999.000000	63.822054 
4998.000000	63.849544 
4997.000000	63.904237 
4996.000000	63.987898 
4995.000000	64.099192 
4994.000000	64.231920 
4993.000000	64.375925 
4992.000000	64.517807 
4991.000000	64.643883 
4990.000000	64.741134 
4989.000000	64.799404 
4988.000000	64.813351 
4987.000000	64.783287 
4986.000000	64.715099 
4985.000000	64.619302 
4984.000000	64.507627 
4983.000000	64.390802 
4982.000000	64.276456 
4981.000000	64.168262 
4980.000000	64.065217 
4979.000000	63.963961 
4978.000000	63.860774 
4977.000000	63.755106 
4976.000000	63.651609 
4975.000000	63.560056 
4974.000000	63.492870 
4973.000000	63.460850 
4972.000000	63.469910 
4971.000000	63.516736 
4970.000000	63.588309 
4969.000000	63.662981 
4968.000000	63.714122 
4967.000000	63.717198 
4966.000000	63.655996 
4965.000000	63.527441 
4964.000000	63.342308 
4963.000000	63.124537 
4962.000000	62.905240 
4961.000000	62.716984 
4960.000000	62.586116 
4959.000000	62.528061 
4958.000000	62.544202 
4957.000000	62.624788 
4956.000000	62.751936 
4955.000000	62.903928 
4954.000000	63.059210 
4953.000000	63.197588 
4952.000000	63.302659 
4951.000000	63.361263 
4950.000000	63.365769 
4949.000000	63.312482 
4948.000000	63.205003 
4947.000000	63.054704 
4946.000000	62.881255 
4945.000000	62.709331 
4944.000000	62.566757 
4943.000000	62.480211 
4942.000000	62.470388 
4941.000000	62.547898 
4940.000000	62.710976 
4939.000000	62.946319 
4938.000000	63.230013 
4937.000000	63.532137 
4936.000000	63.820457 
4935.000000	64.065980 
4934.000000	64.245510 
4933.000000	64.344215 
4932.000000	64.356994 
4931.000000	64.288234 
4930.000000	64.150977 
4929.000000	63.964724 
4928.000000	63.754200 
4927.000000	63.545846 
4926.000000	63.364720 
4925.000000	63.231015 
4924.000000	63.157486 
4923.000000	63.148188 
4922.000000	63.198542 
4921.000000	63.297986 
4920.000000	63.430452 
4919.000000	63.580298 
4918.000000	63.733768 
4917.000000	63.882541 
4916.000000	64.022135 
4915.000000	64.152359 
4914.000000	64.273619 
4913.000000	64.386129 
4912.000000	64.487648 
4911.000000	64.574337 
4910.000000	64.642500 
4909.000000	64.688849 
4908.000000	64.713096 
4907.000000	64.716315 
4906.000000	64.702129 
4905.000000	64.673042 
4904.000000	64.630389 
4903.000000	64.573836 
4902.000000	64.502549 
4901.000000	64.416003 
4900.000000	64.315676 
4899.000000	64.206552 
4898.000000	64.097261 
4897.000000	63.999366 
4896.000000	63.925242 
4895.000000	63.884401 
4894.000000	63.881850 
4893.000000	63.916683 
4892.000000	63.982057 
4891.000000	64.066433 
4890.000000	64.155483 
4889.000000	64.235401 
4888.000000	64.294028 
4887.000000	64.322614 
4886.000000	64.316272 
4885.000000	64.272618 
4884.000000	64.193654 
4883.000000	64.084863 
4882.000000	63.955569 
4881.000000	63.817882 
4880.000000	63.685631 
4879.000000	63.572978 
4878.000000	63.491630 
4877.000000	63.449239 
4876.000000	63.447046 
4875.000000	63.480067 
4874.000000	63.537311 
4873.000000	63.604712 
4872.000000	63.667464 
4871.000000	63.714146 
4870.000000	63.738894 
4869.000000	63.743185 
4868.000000	63.734245 
4867.000000	63.724017 
4866.000000	63.725137 
4865.000000	63.748264 
4864.000000	63.799428 
4863.000000	63.878107 
4862.000000	63.978552 
4861.000000	64.089822 
4860.000000	64.199233 
4859.000000	64.294338 
4858.000000	64.365315 
4857.000000	64.407515 
4856.000000	64.422130 
4855.000000	64.415597 
4854.000000	64.397215 
4853.000000	64.377021 
4852.000000	64.363431 
4851.000000	64.361238 
4850.000000	64.371442 
4849.000000	64.391469 
4848.000000	64.416861 
4847.000000	64.443087 
4846.000000	64.467310 
4845.000000	64.488768 
4844.000000	64.508938 
4843.000000	64.530158 
4842.000000	64.554476 
4841.000000	64.582657 
4840.000000	64.613533 
4839.000000	64.643692 
4838.000000	64.668011 
4837.000000	64.681863 
4836.000000	64.681410 
4835.000000	64.665269 
4834.000000	64.633750 
4833.000000	64.589333 
4832.000000	64.534831 
4831.000000	64.473152 
4830.000000	64.406299 
4829.000000	64.335894 
4828.000000	64.262652 
4827.000000	64.187550 
4826.000000	64.111709 
4825.000000	64.037084 
4824.000000	63.966345 
4823.000000	63.902616 
4822.000000	63.848567 
4821.000000	63.805794 
4820.000000	63.774847 
4819.000000	63.754963 
4818.000000	63.743782 
4817.000000	63.737893 
4816.000000	63.733267 
4815.000000	63.726401 
4814.000000	63.714861 
4813.000000	63.698101 
4812.000000	63.676762 
4811.000000	63.652873 
4810.000000	63.628935 
4809.000000	63.607454 
4808.000000	63.589978 
4807.000000	63.577365 
4806.000000	63.569402 
4805.000000	63.565349 
4804.000000	63.564300 
4803.000000	63.565993 
4802.000000	63.570475 
4801.000000	63.579273 
4800.000000	63.594460 
4799.000000	63.619399 
4798.000000	63.657140 
4797.000000	63.710618 
4796.000000	63.781404 
4795.000000	63.869404 
4794.000000	63.972091 
4793.000000	64.084506 
4792.000000	64.199566 
4791.000000	64.308238 
4790.000000	64.400744 
4789.000000	64.468479 
4788.000000	64.505362 
4787.000000	64.509010 
4786.000000	64.480996 
4785.000000	64.427685 
4784.000000	64.358162 
4783.000000	64.282608 
4782.000000	64.210295 
4781.000000	64.148712 
4780.000000	64.102196 
4779.000000	64.072513 
4778.000000	64.058518 
4777.000000	64.058399 
4776.000000	64.068961 
4775.000000	64.086675 
4774.000000	64.107418 
4773.000000	64.126491 
4772.000000	64.139151 
4771.000000	64.140534 
4770.000000	64.126849 
4769.000000	64.095687 
4768.000000	64.047694 
4767.000000	63.986611 
4766.000000	63.918972 
4765.000000	63.852977 
4764.000000	63.797807 
4763.000000	63.761901 
4762.000000	63.750410 
4761.000000	63.764715 
4760.000000	63.802766 
4759.000000	63.859510 
4758.000000	63.927745 
4757.000000	63.999867 
4756.000000	64.069342 
4755.000000	64.131832 
4754.000000	64.184856 
4753.000000	64.228272 
4752.000000	64.262771 
4751.000000	64.289903 
4750.000000	64.311504 
4749.000000	64.328956 
4748.000000	64.342975 
4747.000000	64.353799 
4746.000000	64.362239 
4745.000000	64.368677 
4744.000000	64.373683 
4743.000000	64.377093 
4742.000000	64.378428 
4741.000000	64.375400 
4740.000000	64.364624 
4739.000000	64.341902 
4738.000000	64.303445 
4737.000000	64.247155 
4736.000000	64.173650 
4735.000000	64.086866 
4734.000000	63.993525 
4733.000000	63.901758 
4732.000000	63.819718 
4731.000000	63.753628 
4730.000000	63.707232 
4729.000000	63.680911 
4728.000000	63.672804 
4727.000000	63.678741 
4726.000000	63.694739 
4725.000000	63.717675 
4724.000000	63.746333 
4723.000000	63.779950 
4722.000000	63.819098 
4721.000000	63.863587 
4720.000000	63.913059 
4719.000000	63.965415 
4718.000000	64.018201 
4717.000000	64.068627 
4716.000000	64.114546 
4715.000000	64.154934 
4714.000000	64.188766 
4713.000000	64.215302 
4712.000000	64.233231 
4711.000000	64.240884 
4710.000000	64.236474 
4709.000000	64.218831 
4708.000000	64.188742 
4707.000000	64.148950 
4706.000000	64.104199 
4705.000000	64.059948 
4704.000000	64.022064 
4703.000000	63.994884 
4702.000000	63.980031 
4701.000000	63.976359 
4700.000000	63.980340 
4699.000000	63.987374 
4698.000000	63.992977 
4697.000000	63.994574 
4696.000000	63.991785 
4695.000000	63.987064 
4694.000000	63.984441 
4693.000000	63.988637 
4692.000000	64.002847 
4691.000000	64.028429 
4690.000000	64.064264 
4689.000000	64.106845 
4688.000000	64.151287 
4687.000000	64.191961 
4686.000000	64.223861 
4685.000000	64.243030 
4684.000000	64.247608 
4683.000000	64.238286 
4682.000000	64.217996 
4681.000000	64.191389 
4680.000000	64.163732 
4679.000000	64.139962 
4678.000000	64.123558 
4677.000000	64.116477 
4676.000000	64.118337 
4675.000000	64.126706 
4674.000000	64.137911 
4673.000000	64.147853 
4672.000000	64.152979 
4671.000000	64.150357 
4670.000000	64.138865 
4669.000000	64.118838 
4668.000000	64.092659 
4667.000000	64.063811 
4666.000000	64.036893 
4665.000000	64.016294 
4664.000000	64.006304 
4663.000000	64.010357 
4662.000000	64.030051 
4661.000000	64.064717 
4660.000000	64.110708 
4659.000000	64.162158 
4658.000000	64.211201 
4657.000000	64.249753 
4656.000000	64.271354 
4655.000000	64.273047 
4654.000000	64.255952 
4653.000000	64.225459 
4652.000000	64.189863 
4651.000000	64.158678 
4650.000000	64.140510 
4649.000000	64.141035 
4648.000000	64.162015 
4647.000000	64.200949 
4646.000000	64.252424 
4645.000000	64.308857 
4644.000000	64.363002 
4643.000000	64.408421 
4642.000000	64.440917 
4641.000000	64.458227 
4640.000000	64.459514 
4639.000000	64.445185 
4638.000000	64.416337 
4637.000000	64.374899 
4636.000000	64.323592 
4635.000000	64.266228 
4634.000000	64.207649 
4633.000000	64.152932 
4632.000000	64.106798 
4631.000000	64.072442 
4630.000000	64.051103 
4629.000000	64.041996 
4628.000000	64.042925 
4627.000000	64.050745 
4626.000000	64.062404 
4625.000000	64.075922 
4624.000000	64.090180 
4623.000000	64.104390 
4622.000000	64.117860 
4621.000000	64.129042 
4620.000000	64.135956 
4619.000000	64.135599 
4618.000000	64.126086 
4617.000000	64.107012 
4616.000000	64.080739 
4615.000000	64.052557 
4614.000000	64.029526 
4613.000000	64.019203 
4612.000000	64.026761 
4611.000000	64.053750 
4610.000000	64.096260 
4609.000000	64.145612 
4608.000000	64.190125 
4607.000000	64.218091 
4606.000000	64.220738 
4605.000000	64.194607 
4604.000000	64.142680 
4603.000000	64.073848 
4602.000000	64.000153 
4601.000000	63.933706 
4600.000000	63.883638 
4599.000000	63.853764 
4598.000000	63.842201 
4597.000000	63.842201 
4596.000000	63.844847 
4595.000000	63.841509 
4594.000000	63.826346 
4593.000000	63.797783 
4592.000000	63.758134 
4591.000000	63.713359 
4590.000000	63.670015 
4589.000000	63.635087 
4588.000000	63.612890 
4587.000000	63.605761 
4586.000000	63.613843 
4585.000000	63.635849 
4584.000000	63.669848 
4583.000000	63.713479 
4582.000000	63.764524 
4581.000000	63.820075 
4580.000000	63.876390 
4579.000000	63.928747 
4578.000000	63.971757 
4577.000000	64.000391 
4576.000000	64.010834 
4575.000000	64.001393 
4574.000000	63.973331 
4573.000000	63.930749 
4572.000000	63.879990 
4571.000000	63.828349 
4570.000000	63.782691 
4569.000000	63.748836 
4568.000000	63.730096 
4567.000000	63.727140 
4566.000000	63.738226 
4565.000000	63.759827 
4564.000000	63.787627 
4563.000000	63.818120 
4562.000000	63.848185 
4561.000000	63.875150 
4560.000000	63.896203 
4559.000000	63.907718 
4558.000000	63.905930 
4557.000000	63.887429 
4556.000000	63.850450 
4555.000000	63.795852 
4554.000000	63.728022 
4553.000000	63.654446 
4552.000000	63.584256 
4551.000000	63.526225 
4550.000000	63.486671 
4549.000000	63.468170 
4548.000000	63.469123 
4547.000000	63.484454 
4546.000000	63.507699 
4545.000000	63.532185 
4544.000000	63.553452 
4543.000000	63.568472 
4542.000000	63.576292 
4541.000000	63.575720 
4540.000000	63.563466 
4539.000000	63.534760 
4538.000000	63.483357 
4537.000000	63.404941 
4536.000000	63.298940 
4535.000000	63.171219 
4534.000000	63.034939 
4533.000000	62.907576 
4532.000000	62.807703 
4531.000000	62.749838 
4530.000000	62.740349 
4529.000000	62.776732 
4528.000000	62.847948 
4527.000000	62.937927 
4526.000000	63.029408 
4525.000000	63.108730 
4524.000000	63.168859 
4523.000000	63.209772 
4522.000000	63.237166 
4521.000000	63.259673 
4520.000000	63.285470 
4519.000000	63.319516 
4518.000000	63.361692 
4517.000000	63.407135 
4516.000000	63.448119 
4515.000000	63.477468 
4514.000000	63.491010 
4513.000000	63.490056 
4512.000000	63.480663 
4511.000000	63.473105 
4510.000000	63.477635 
4509.000000	63.500857 
4508.000000	63.544034 
4507.000000	63.602852 
4506.000000	63.667726 
4505.000000	63.727188 
4504.000000	63.769817 
4503.000000	63.788390 
4502.000000	63.779091 
4501.000000	63.742303 
4500.000000	63.681387 
4499.000000	63.601660 
4498.000000	63.508868 
4497.000000	63.408303 
4496.000000	63.305163 
4495.000000	63.204550 
4494.000000	63.112354 
4493.000000	63.034415 
4492.000000	62.975454 
4491.000000	62.938261 
4490.000000	62.920856 
4489.000000	62.919068 
4488.000000	62.924814 
4487.000000	62.932252 
4486.000000	62.939453 
4485.000000	62.950539 
4484.000000	62.977123 
4483.000000	63.031554 
4482.000000	63.119983 
4481.000000	63.240742 
4480.000000	63.382935 
4479.000000	63.528251 
4478.000000	63.653612 
4477.000000	63.739800 
4476.000000	63.778090 
4475.000000	63.770627 
4474.000000	63.730478 
4473.000000	63.676524 
4472.000000	63.627648 
4471.000000	63.599157 
4470.000000	63.599586 
4469.000000	63.627862 
4468.000000	63.674712 
4467.000000	63.730835 
4466.000000	63.788819 
4465.000000	63.842916 
4464.000000	63.890576 
4463.000000	63.928866 
4462.000000	63.959193 
4461.000000	63.978266 
4460.000000	63.991522 
4459.000000	64.011168 
4458.000000	64.063334 
4457.000000	64.182138 
4456.000000	64.405608 
4455.000000	64.766001 
4454.000000	65.277838 
4453.000000	65.929722 
4452.000000	66.681289 
4451.000000	67.469310 
4450.000000	68.216061 
4449.000000	68.847012 
4448.000000	69.299554 
4447.000000	69.537782 
4446.000000	69.549655 
4445.000000	69.349312 
4444.000000	68.960857 
4443.000000	68.412613 
4442.000000	67.729330 
4441.000000	66.932225 
4440.000000	66.045546 
4439.000000	65.100789 
4438.000000	64.145302 
4437.000000	63.237881 
4436.000000	62.441682 
4435.000000	61.813139 
4434.000000	61.382722 
4433.000000	61.155152 
4432.000000	61.104798 
4431.000000	61.187624 
4430.000000	61.345005 
4429.000000	61.523485 
4428.000000	61.678838 
4427.000000	61.788892 
4426.000000	61.844205 
4425.000000	61.856079 
4424.000000	61.843252 
4423.000000	61.830019 
4422.000000	61.838436 
4421.000000	61.877202 
4420.000000	61.935091 
4419.000000	61.994409 
4418.000000	62.039947 
4417.000000	62.056660 
4416.000000	62.034654 
4415.000000	61.975383 
4414.000000	61.889958 
4413.000000	61.791276 
4412.000000	61.689305 
4411.000000	61.585092 
4410.000000	61.471605 
4409.000000	61.336278 
4408.000000	61.168360 
4407.000000	60.965514 
4406.000000	60.737013 
4405.000000	60.509514 
4404.000000	60.314035 
4403.000000	60.178089 
4402.000000	60.115957 
4401.000000	60.109186 
4400.000000	60.134124 
4399.000000	60.143017 
4398.000000	60.131168 
4397.000000	60.132026 
4396.000000	60.251832 
4395.000000	60.637140 
4394.000000	61.460399 
4393.000000	62.866163 
4392.000000	64.919543 
4391.000000	67.567324 
4390.000000	70.623850 
4389.000000	73.791170 
4388.000000	76.710128 
4387.000000	79.027700 
4386.000000	80.468654 
4385.000000	80.884838 
4384.000000	80.289769 
4383.000000	78.838920 
4382.000000	76.791262 
4381.000000	74.443364 
4380.000000	72.083163 
4379.000000	69.928860 
4378.000000	68.125796 
4377.000000	66.722583 
4376.000000	65.719151 
4375.000000	65.062022 
4374.000000	64.685249 
4373.000000	64.518046 
4372.000000	64.485788 
4371.000000	64.532017 
4370.000000	64.600396 
4369.000000	64.654898 
4368.000000	64.657092 
4367.000000	64.591407 
4366.000000	64.455842 
4365.000000	64.266967 
4364.000000	64.050436 
4363.000000	63.841009 
4362.000000	63.673973 
4361.000000	63.571572 
4360.000000	63.538217 
4359.000000	63.567185 
4358.000000	63.642859 
4357.000000	63.740706 
4356.000000	63.834977 
4355.000000	63.910746 
4354.000000	63.962459 
4353.000000	63.988375 
4352.000000	63.990831 
4351.000000	63.969397 
4350.000000	63.923048 
4349.000000	63.856863 
4348.000000	63.775396 
4347.000000	63.676905 
4346.000000	63.561153 
4345.000000	63.436055 
4344.000000	63.311958 
4343.000000	63.198971 
4342.000000	63.107275 
4341.000000	63.045382 
4340.000000	63.017129 
4339.000000	63.020372 
4338.000000	63.047623 
4337.000000	63.087463 
4336.000000	63.127636 
4335.000000	63.157677 
4334.000000	63.171362 
4333.000000	63.167691 
4332.000000	63.150334 
4331.000000	63.126325 
4330.000000	63.104534 
4329.000000	63.093042 
4328.000000	63.096904 
4327.000000	63.116693 
4326.000000	63.149690 
4325.000000	63.189411 
4324.000000	63.228464 
4323.000000	63.259291 
4322.000000	63.276076 
4321.000000	63.275623 
4320.000000	63.257861 
4319.000000	63.225436 
4318.000000	63.183021 
4317.000000	63.135886 
4316.000000	63.088631 
4315.000000	63.044357 
4314.000000	63.005161 
4313.000000	62.971138 
4312.000000	62.941694 
4311.000000	62.915611 
4310.000000	62.892293 
4309.000000	62.871575 
4308.000000	62.853860 
4307.000000	62.839913 
4306.000000	62.830638 
4305.000000	62.827301 
4304.000000	62.831234 
4303.000000	62.843513 
4302.000000	62.864780 
4301.000000	62.894964 
4300.000000	62.932848 
4299.000000	62.976455 
4298.000000	63.022708 
4297.000000	63.067531 
4296.000000	63.106322 
4295.000000	63.134908 
4294.000000	63.150119 
4293.000000	63.150763 
4292.000000	63.137364 
4291.000000	63.112711 
4290.000000	63.080453 
4289.000000	63.045024 
4288.000000	63.009858 
4287.000000	62.977504 
4286.000000	62.948465 
4285.000000	62.921690 
4284.000000	62.894821 
4283.000000	62.865495 
4282.000000	62.831330 
4281.000000	62.791347 
4280.000000	62.746191 
4279.000000	62.698912 
4278.000000	62.654924 
4277.000000	62.621521 
4276.000000	62.606596 
4275.000000	62.616944 
4274.000000	62.656617 
4273.000000	62.725353 
4272.000000	62.818050 
4271.000000	62.925028 
4270.000000	63.033580 
4269.000000	63.130307 
4268.000000	63.203549 
4267.000000	63.245677 
4266.000000	63.254213 
4265.000000	63.231897 
4264.000000	63.186025 
4263.000000	63.126111 
4262.000000	63.062238 
4261.000000	63.002538 
4260.000000	62.952446 
4259.000000	62.914037 
4258.000000	62.887287 
4257.000000	62.870550 
4256.000000	62.862348 
4255.000000	62.861180 
4254.000000	62.866163 
4253.000000	62.876653 
4252.000000	62.891936 
4251.000000	62.910246 
4250.000000	62.929153 
4249.000000	62.945532 
4248.000000	62.956809 
4247.000000	62.961220 
4246.000000	62.958955 
4245.000000	62.952065 
4244.000000	62.944531 
4243.000000	62.941265 
4242.000000	62.946891 
4241.000000	62.964582 
4240.000000	62.994956 
4239.000000	63.036036 
4238.000000	63.082647 
4237.000000	63.127994 
4236.000000	63.164138 
4235.000000	63.183856 
4234.000000	63.182115 
4233.000000	63.156962 
4232.000000	63.110661 
4231.000000	63.049197 
4230.000000	62.982296 
4229.000000	62.921357 
4228.000000	62.877631 
4227.000000	62.860035 
4226.000000	62.873625 
4225.000000	62.918257 
4224.000000	62.988638 
4223.000000	63.075375 
4222.000000	63.166093 
4221.000000	63.248348 
4220.000000	63.311815 
4219.000000	63.350534 
4218.000000	63.362979 
4217.000000	63.352799 
4216.000000	63.327717 
4215.000000	63.297772 
4214.000000	63.272833 
4213.000000	63.260769 
4212.000000	63.266682 
4211.000000	63.291335 
4210.000000	63.332176 
4209.000000	63.383483 
4208.000000	63.438391 
4207.000000	63.489866 
4206.000000	63.531923 
4205.000000	63.561272 
4204.000000	63.577747 
4203.000000	63.583827 
4202.000000	63.583540 
4201.000000	63.581180 
4200.000000	63.579797 
4199.000000	63.580775 
4198.000000	63.583254 
4197.000000	63.583993 
4196.000000	63.578009 
4195.000000	63.560700 
4194.000000	63.528585 
4193.000000	63.480210 
4192.000000	63.416409 
4191.000000	63.340497 
4190.000000	63.257503 
4189.000000	63.173508 
4188.000000	63.094329 
4187.000000	63.024950 
4186.000000	62.968301 
4185.000000	62.925744 
4184.000000	62.895941 
4183.000000	62.875890 
4182.000000	62.860393 
4181.000000	62.842941 
4180.000000	62.817120 
4179.000000	62.776899 
4178.000000	62.720084 
4177.000000	62.648510 
4176.000000	62.569308 
4175.000000	62.493181 
4174.000000	62.433624 
4173.000000	62.403941 
4172.000000	62.414002 
4171.000000	62.467670 
4170.000000	62.561964 
4169.000000	62.687349 
4168.000000	62.829446 
4167.000000	62.972378 
4166.000000	63.101482 
4165.000000	63.206696 
4164.000000	63.283801 
4163.000000	63.334822 
4162.000000	63.366031 
4161.000000	63.385534 
4160.000000	63.401794 
4159.000000	63.419747 
