PE IR       SPECTRUM    SPECTRUM    ASCII       PEDS        1.60        
  -1
C-468C~1.ASC
17/03/27
22:47:24.00
17/03/27
22:47:24.00
tln
$C-4040-8_t0101$<tbV0>[10.4,10.4,8.0,0.0,27,1,0]
370.000000
64









2002,4.07    
MIRTGS : RIGHTBACK : INTERNAL 2
MIR : ON : INTERNAL 2
OPTKBR

0.200000
8
8.000000
FILLER
RATIO
SPECTRUM
UNLOCKED 256

DOUBLE
64
COMBINED
1
0
0


1.000000
RATIO


1
0
TRUE
51149
0
LEFT NOT FITTED RIGHT NOT FITTED 0
NONE
NONE
15600
12.000000
4.427000
51148
TRUE
1 0 8 72 0 0 0 0 

15798.010000






#HDR
-1
-1
#GR
CM-1
%T
0.00002384185791015625
0.0
5000.000000
-1.000000
4631
8
199.999976
41.749191
#DATA
5000.000000	65.420484  
4999.000000	65.383577  
4998.000000	65.329694  
4997.000000	65.263795  
4996.000000	65.188646  
4995.000000	65.106582  
4994.000000	65.018796  
4993.000000	64.928936  
4992.000000	64.840126  
4991.000000	64.755749  
4990.000000	64.677882  
4989.000000	64.606952  
4988.000000	64.542126  
4987.000000	64.481663  
4986.000000	64.424395  
4985.000000	64.370083  
4984.000000	64.321184  
4983.000000	64.282441  
4982.000000	64.259648  
4981.000000	64.257717  
4980.000000	64.278602  
4979.000000	64.321112  
4978.000000	64.379024  
4977.000000	64.444684  
4976.000000	64.511108  
4975.000000	64.575505  
4974.000000	64.638710  
4973.000000	64.706492  
4972.000000	64.787530  
4971.000000	64.890336  
4970.000000	65.018749  
4969.000000	65.170621  
4968.000000	65.337634  
4967.000000	65.505385  
4966.000000	65.658354  
4965.000000	65.780186  
4964.000000	65.858554  
4963.000000	65.885424  
4962.000000	65.860319  
4961.000000	65.786886  
4960.000000	65.672540  
4959.000000	65.526938  
4958.000000	65.361404  
4957.000000	65.187835  
4956.000000	65.018224  
4955.000000	64.865231  
4954.000000	64.740920  
4953.000000	64.654827  
4952.000000	64.612269  
4951.000000	64.612650  
4950.000000	64.648747  
4949.000000	64.706826  
4948.000000	64.769148  
4947.000000	64.816522  
4946.000000	64.832949  
4945.000000	64.808249  
4944.000000	64.741063  
4943.000000	64.637398  
4942.000000	64.510798  
4941.000000	64.378905  
4940.000000	64.260506  
4939.000000	64.170670  
4938.000000	64.119553  
4937.000000	64.111518  
4936.000000	64.144444  
4935.000000	64.211106  
4934.000000	64.300775  
4933.000000	64.401674  
4932.000000	64.502263  
4931.000000	64.592719  
4930.000000	64.666438  
4929.000000	64.720416  
4928.000000	64.755940  
4927.000000	64.777803  
4926.000000	64.793133  
4925.000000	64.809560  
4924.000000	64.834594  
4923.000000	64.873170  
4922.000000	64.926886  
4921.000000	64.992833  
4920.000000	65.065407  
4919.000000	65.136241  
4918.000000	65.196251  
4917.000000	65.236616  
4916.000000	65.251708  
4915.000000	65.239000  
4914.000000	65.199661  
4913.000000	65.137958  
4912.000000	65.060710  
4911.000000	64.976072  
4910.000000	64.892268  
4909.000000	64.817118  
4908.000000	64.757370  
4907.000000	64.718151  
4906.000000	64.702868  
4905.000000	64.712405  
4904.000000	64.745163  
4903.000000	64.796924  
4902.000000	64.861202  
4901.000000	64.929199  
4900.000000	64.991116  
4899.000000	65.037202  
4898.000000	65.060067  
4897.000000	65.055298  
4896.000000	65.023565  
4895.000000	64.970731  
4894.000000	64.907407  
4893.000000	64.846873  
4892.000000	64.802861  
4891.000000	64.786696  
4890.000000	64.804863  
4889.000000	64.857745  
4888.000000	64.939308  
4887.000000	65.039491  
4886.000000	65.145039  
4885.000000	65.242552  
4884.000000	65.319943  
4883.000000	65.368199  
4882.000000	65.382313  
4881.000000	65.361499  
4880.000000	65.309214  
4879.000000	65.231966  
4878.000000	65.139579  
4877.000000	65.043854  
4876.000000	64.957475  
4875.000000	64.892125  
4874.000000	64.856982  
4873.000000	64.856886  
4872.000000	64.891791  
4871.000000	64.956498  
4870.000000	65.040659  
4869.000000	65.131068  
4868.000000	65.214562  
4867.000000	65.279841  
4866.000000	65.319418  
4865.000000	65.330171  
4864.000000	65.312767  
4863.000000	65.271091  
4862.000000	65.210413  
4861.000000	65.137076  
4860.000000	65.056967  
4859.000000	64.976310  
4858.000000	64.902043  
4857.000000	64.841270  
4856.000000	64.800930  
4855.000000	64.786577  
4854.000000	64.801478  
4853.000000	64.845108  
4852.000000	64.912819  
4851.000000	64.995241  
4850.000000	65.079808  
4849.000000	65.151953  
4848.000000	65.197920  
4847.000000	65.207457  
4846.000000	65.175700  
4845.000000	65.104150  
4844.000000	65.000128  
4843.000000	64.875698  
4842.000000	64.745092  
4841.000000	64.621996  
4840.000000	64.517402  
4839.000000	64.438104  
4838.000000	64.387035  
4837.000000	64.363527  
4836.000000	64.365506  
4835.000000	64.389634  
4834.000000	64.433407  
4833.000000	64.494538  
4832.000000	64.571714  
4831.000000	64.662313  
4830.000000	64.763045  
4829.000000	64.867973  
4828.000000	64.970350  
4827.000000	65.062737  
4826.000000	65.138745  
4825.000000	65.194034  
4824.000000	65.227365  
4823.000000	65.240859  
4822.000000	65.238881  
4821.000000	65.227007  
4820.000000	65.210223  
4819.000000	65.192008  
4818.000000	65.174484  
4817.000000	65.158462  
4816.000000	65.144014  
4815.000000	65.131235  
4814.000000	65.120673  
4813.000000	65.113472  
4812.000000	65.111112  
4811.000000	65.114927  
4810.000000	65.125131  
4809.000000	65.141177  
4808.000000	65.161418  
4807.000000	65.184283  
4806.000000	65.207910  
4805.000000	65.231442  
4804.000000	65.254759  
4803.000000	65.278887  
4802.000000	65.305948  
4801.000000	65.337657  
4800.000000	65.374684  
4799.000000	65.415620  
4798.000000	65.457367  
4797.000000	65.494561  
4796.000000	65.521049  
4795.000000	65.530824  
4794.000000	65.519881  
4793.000000	65.486693  
4792.000000	65.433001  
4791.000000	65.363502  
4790.000000	65.284895  
4789.000000	65.205097  
4788.000000	65.131664  
4787.000000	65.070509  
4786.000000	65.025186  
4785.000000	64.997029  
4784.000000	64.984941  
4783.000000	64.986228  
4782.000000	64.996814  
4781.000000	65.012168  
4780.000000	65.027594  
4779.000000	65.038347  
4778.000000	65.040850  
4777.000000	65.031766  
4776.000000	65.010333  
4775.000000	64.978098  
4774.000000	64.939141  
4773.000000	64.899349  
4772.000000	64.865040  
4771.000000	64.841890  
4770.000000	64.833354  
4769.000000	64.839720  
4768.000000	64.858722  
4767.000000	64.886307  
4766.000000	64.917659  
4765.000000	64.948463  
4764.000000	64.975976  
4763.000000	64.999461  
4762.000000	65.019631  
4761.000000	65.038514  
4760.000000	65.058255  
4759.000000	65.080642  
4758.000000	65.106844  
4757.000000	65.136647  
4756.000000	65.168738  
4755.000000	65.200209  
4754.000000	65.228366  
4753.000000	65.249657  
4752.000000	65.260791  
4751.000000	65.258932  
4750.000000	65.242481  
4749.000000	65.211677  
4748.000000	65.169167  
4747.000000	65.119528  
4746.000000	65.069031  
4745.000000	65.023636  
4744.000000	64.987921  
4743.000000	64.963865  
4742.000000	64.950609  
4741.000000	64.944601  
4740.000000	64.940738  
4739.000000	64.933919  
4738.000000	64.920473  
4737.000000	64.898991  
4736.000000	64.870524  
4735.000000	64.837932  
4734.000000	64.805221  
4733.000000	64.775991  
4732.000000	64.753198  
4731.000000	64.738440  
4730.000000	64.732003  
4729.000000	64.733552  
4728.000000	64.742016  
4727.000000	64.756488  
4726.000000	64.775443  
4725.000000	64.796686  
4724.000000	64.817595  
4723.000000	64.834094  
4722.000000	64.843106  
4721.000000	64.842987  
4720.000000	64.834880  
4719.000000	64.822459  
4718.000000	64.811515  
4717.000000	64.808630  
4716.000000	64.818978  
4715.000000	64.845228  
4714.000000	64.885759  
4713.000000	64.935040  
4712.000000	64.985036  
4711.000000	65.027427  
4710.000000	65.055894  
4709.000000	65.068125  
4708.000000	65.066456  
4707.000000	65.057468  
4706.000000	65.050268  
4705.000000	65.053796  
4704.000000	65.074729  
4703.000000	65.114951  
4702.000000	65.171527  
4701.000000	65.236377  
4700.000000	65.299606  
4699.000000	65.350008  
4698.000000	65.378189  
4697.000000	65.377593  
4696.000000	65.345907  
4695.000000	65.285587  
4694.000000	65.202951  
4693.000000	65.107607  
4692.000000	65.010356  
4691.000000	64.922237  
4690.000000	64.853000  
4689.000000	64.809632  
4688.000000	64.795517  
4687.000000	64.809846  
4686.000000	64.847922  
4685.000000	64.901447  
4684.000000	64.960098  
4683.000000	65.012836  
4682.000000	65.050578  
4681.000000	65.066885  
4680.000000	65.059995  
4679.000000	65.032887  
4678.000000	64.993047  
4677.000000	64.950442  
4676.000000	64.915490  
4675.000000	64.897131  
4674.000000	64.900422  
4673.000000	64.926123  
4672.000000	64.970254  
4671.000000	65.025639  
4670.000000	65.082955  
4669.000000	65.133237  
4668.000000	65.169358  
4667.000000	65.187621  
4666.000000	65.187907  
4665.000000	65.172910  
4664.000000	65.147328  
4663.000000	65.116333  
4662.000000	65.084910  
4661.000000	65.057134  
4660.000000	65.035152  
4659.000000	65.019226  
4658.000000	65.008878  
4657.000000	65.003323  
4656.000000	65.001559  
4655.000000	65.002727  
4654.000000	65.005683  
4653.000000	65.009498  
4652.000000	65.013289  
4651.000000	65.016317  
4650.000000	65.017604  
4649.000000	65.016269  
4648.000000	65.011882  
4647.000000	65.004181  
4646.000000	64.993548  
4645.000000	64.980220  
4644.000000	64.964318  
4643.000000	64.945602  
4642.000000	64.923334  
4641.000000	64.897155  
4640.000000	64.866900  
4639.000000	64.833974  
4638.000000	64.800453  
4637.000000	64.770936  
4636.000000	64.751410  
4635.000000	64.748525  
4634.000000	64.767861  
4633.000000	64.812207  
4632.000000	64.880204  
4631.000000	64.965963  
4630.000000	65.059471  
4629.000000	65.147542  
4628.000000	65.216588  
4627.000000	65.255188  
4626.000000	65.257000  
4625.000000	65.221714  
4624.000000	65.155577  
4623.000000	65.070319  
4622.000000	64.980459  
4621.000000	64.900565  
4620.000000	64.841723  
4619.000000	64.810395  
4618.000000	64.806485  
4617.000000	64.824652  
4616.000000	64.855122  
4615.000000	64.886832  
4614.000000	64.909482  
4613.000000	64.915323  
4612.000000	64.901232  
4611.000000	64.867901  
4610.000000	64.820480  
4609.000000	64.766454  
4608.000000	64.715003  
4607.000000	64.674663  
4606.000000	64.652347  
4605.000000	64.652228  
4604.000000	64.675378  
4603.000000	64.719724  
4602.000000	64.780926  
4601.000000	64.853215  
4600.000000	64.929986  
4599.000000	65.004825  
4598.000000	65.072607  
4597.000000	65.129923  
4596.000000	65.175056  
4595.000000	65.207743  
4594.000000	65.229296  
4593.000000	65.241360  
4592.000000	65.246558  
4591.000000	65.246677  
4590.000000	65.242981  
4589.000000	65.235805  
4588.000000	65.225648  
4587.000000	65.212774  
4586.000000	65.197753  
4585.000000	65.181970  
4584.000000	65.167593  
4583.000000	65.157270  
4582.000000	65.153908  
4581.000000	65.159416  
4580.000000	65.174317  
4579.000000	65.196800  
4578.000000	65.222930  
4577.000000	65.246844  
4576.000000	65.262174  
4575.000000	65.263509  
4574.000000	65.247893  
4573.000000	65.214967  
4572.000000	65.167737  
4571.000000	65.113043  
4570.000000	65.059971  
4569.000000	65.016937  
4568.000000	64.990568  
4567.000000	64.985060  
4566.000000	65.000939  
4565.000000	65.034961  
4564.000000	65.081000  
4563.000000	65.131783  
4562.000000	65.180158  
4561.000000	65.220618  
4560.000000	65.250134  
4559.000000	65.267729  
4558.000000	65.275073  
4557.000000	65.275263  
4556.000000	65.272474  
4555.000000	65.270256  
4554.000000	65.271902  
4553.000000	65.279674  
4552.000000	65.293622  
4551.000000	65.310955  
4550.000000	65.326523  
4549.000000	65.332794  
4548.000000	65.319919  
4547.000000	65.277075  
4546.000000	65.194201  
4545.000000	65.064573  
4544.000000	64.886665  
4543.000000	64.666152  
4542.000000	64.415597  
4541.000000	64.154195  
4540.000000	63.904404  
4539.000000	63.689899  
4538.000000	63.530135  
4537.000000	63.439011  
4536.000000	63.421511  
4535.000000	63.474607  
4534.000000	63.586020  
4533.000000	63.739204  
4532.000000	63.914465  
4531.000000	64.094519  
4530.000000	64.264059  
4529.000000	64.415240  
4528.000000	64.545893  
4527.000000	64.659786  
4526.000000	64.763045  
4525.000000	64.862084  
4524.000000	64.960336  
4523.000000	65.057110  
4522.000000	65.147018  
4521.000000	65.221214  
4520.000000	65.269160  
4519.000000	65.282964  
4518.000000	65.259003  
4517.000000	65.199255  
4516.000000	65.111112  
4515.000000	65.007209  
4514.000000	64.901947  
4513.000000	64.808201  
4512.000000	64.734649  
4511.000000	64.685559  
4510.000000	64.659142  
4509.000000	64.648699  
4508.000000	64.644575  
4507.000000	64.637613  
4506.000000	64.620685  
4505.000000	64.590167  
4504.000000	64.546346  
4503.000000	64.492321  
4502.000000	64.433145  
4501.000000	64.374232  
4500.000000	64.319562  
4499.000000	64.270663  
4498.000000	64.227747  
4497.000000	64.190649  
4496.000000	64.159154  
4495.000000	64.134025  
4494.000000	64.117813  
4493.000000	64.114761  
4492.000000	64.128994  
4491.000000	64.163994  
4490.000000	64.221286  
4489.000000	64.299798  
4488.000000	64.395284  
4487.000000	64.500617  
4486.000000	64.607477  
4485.000000	64.706730  
4484.000000	64.790272  
4483.000000	64.851427  
4482.000000	64.885902  
4481.000000	64.891910  
4480.000000	64.870572  
4479.000000	64.825344  
4478.000000	64.761853  
4477.000000	64.687323  
4476.000000	64.610290  
4475.000000	64.538955  
4474.000000	64.480710  
4473.000000	64.440345  
4472.000000	64.420127  
4471.000000	64.419007  
4470.000000	64.433336  
4469.000000	64.457535  
4468.000000	64.485311  
4467.000000	64.510083  
4466.000000	64.526462  
4465.000000	64.531016  
4464.000000	64.522552  
4463.000000	64.502573  
4462.000000	64.473462  
4461.000000	64.439105  
4460.000000	64.401507  
4459.000000	64.360427  
4458.000000	64.312815  
4457.000000	64.252734  
4456.000000	64.175057  
4455.000000	64.078521  
4454.000000	63.966727  
4453.000000	63.848876  
4452.000000	63.737535  
4451.000000	63.645339  
4450.000000	63.582158  
4449.000000	63.551831  
4448.000000	63.552212  
4447.000000	63.575196  
4446.000000	63.610434  
4445.000000	63.648509  
4444.000000	63.681554  
4443.000000	63.704657  
4442.000000	63.717389  
4441.000000	63.723778  
4440.000000	63.730335  
4439.000000	63.744521  
4438.000000	63.774204  
4437.000000	63.824295  
4436.000000	63.896322  
4435.000000	63.985681  
4434.000000	64.082646  
4433.000000	64.172434  
4432.000000	64.238977  
4431.000000	64.267611  
4430.000000	64.247202  
4429.000000	64.175105  
4428.000000	64.058756  
4427.000000	63.915610  
4426.000000	63.768196  
4425.000000	63.642406  
4424.000000	63.561367  
4423.000000	63.542819  
4422.000000	63.597488  
4421.000000	63.723850  
4420.000000	63.901329  
4419.000000	64.116144  
4418.000000	64.371204  
4417.000000	64.657664  
4416.000000	64.951300  
4415.000000	65.238523  
4414.000000	65.513110  
4413.000000	65.774202  
4412.000000	66.022300  
4411.000000	66.236472  
4410.000000	66.383647  
4409.000000	66.444563  
4408.000000	66.408991  
4407.000000	66.293406  
4406.000000	66.118741  
4405.000000	65.905380  
4404.000000	65.662789  
4403.000000	65.359258  
4402.000000	64.965033  
4401.000000	64.493656  
4400.000000	63.979411  
4399.000000	63.497352  
4398.000000	63.116097  
4397.000000	62.818312  
4396.000000	62.619519  
4395.000000	62.476301  
4394.000000	62.566852  
4393.000000	63.273286  
4392.000000	65.153193  
4391.000000	68.811154  
4390.000000	74.517631  
4389.000000	82.051849  
4388.000000	90.553712  
4387.000000	98.675060  
4386.000000	104.988694 
4385.000000	108.319687 
4384.000000	108.187294 
4383.000000	104.836893 
4382.000000	99.107599  
4381.000000	92.177152  
4380.000000	85.145854  
4379.000000	78.855061  
4378.000000	73.786067  
4377.000000	70.018100  
4376.000000	67.487168  
4375.000000	65.939474  
4374.000000	65.126037  
4373.000000	64.809226  
4372.000000	64.753818  
4371.000000	64.818763  
4370.000000	64.886999  
4369.000000	64.926600  
4368.000000	64.914655  
4367.000000	64.870142  
4366.000000	64.804697  
4365.000000	64.736771  
4364.000000	64.670109  
4363.000000	64.615368  
4362.000000	64.588332  
4361.000000	64.594936  
4360.000000	64.630413  
4359.000000	64.681673  
4358.000000	64.731454  
4357.000000	64.757180  
4356.000000	64.739203  
4355.000000	64.684796  
4354.000000	64.615964  
4353.000000	64.546203  
4352.000000	64.485383  
4351.000000	64.433574  
4350.000000	64.385104  
4349.000000	64.350748  
4348.000000	64.338016  
4347.000000	64.331173  
4346.000000	64.313650  
4345.000000	64.284062  
4344.000000	64.244055  
4343.000000	64.192914  
4342.000000	64.135146  
4341.000000	64.078903  
4340.000000	64.033508  
4339.000000	64.006853  
4338.000000	64.003992  
4337.000000	64.025616  
4336.000000	64.068603  
4335.000000	64.126777  
4334.000000	64.192748  
4333.000000	64.259862  
4332.000000	64.323949  
4331.000000	64.384007  
4330.000000	64.442229  
4329.000000	64.502525  
4328.000000	64.567899  
4327.000000	64.638996  
4326.000000	64.713072  
4325.000000	64.783906  
4324.000000	64.844226  
4323.000000	64.886236  
4322.000000	64.905476  
4321.000000	64.899682  
4320.000000	64.870023  
4319.000000	64.819407  
4318.000000	64.752149  
4317.000000	64.672684  
4316.000000	64.585113  
4315.000000	64.493036  
4314.000000	64.400291  
4313.000000	64.310884  
4312.000000	64.229559  
4311.000000	64.161229  
4310.000000	64.110422  
4309.000000	64.080452  
4308.000000	64.072656  
4307.000000	64.085984  
4306.000000	64.117360  
4305.000000	64.162206  
4304.000000	64.215445  
4303.000000	64.272141  
4302.000000	64.328289  
4301.000000	64.381217  
4300.000000	64.429259  
4299.000000	64.470958  
4298.000000	64.504575  
4297.000000	64.527845  
4296.000000	64.537978  
4295.000000	64.533090  
4294.000000	64.512348  
4293.000000	64.477252  
4292.000000	64.430856  
4291.000000	64.378738  
4290.000000	64.326262  
4289.000000	64.277672  
4288.000000	64.235091  
4287.000000	64.198160  
4286.000000	64.165258  
4285.000000	64.134550  
4284.000000	64.105653  
4283.000000	64.080333  
4282.000000	64.062643  
4281.000000	64.057922  
4280.000000	64.070796  
4279.000000	64.103531  
4278.000000	64.154577  
4277.000000	64.218759  
4276.000000	64.287900  
4275.000000	64.353322  
4274.000000	64.408040  
4273.000000	64.449119  
4272.000000	64.477872  
4271.000000	64.499950  
4270.000000	64.523386  
4269.000000	64.556574  
4268.000000	64.605450  
4267.000000	64.672255  
4266.000000	64.755463  
4265.000000	64.849305  
4264.000000	64.946913  
4263.000000	65.039038  
4262.000000	65.117216  
4261.000000	65.173029  
4260.000000	65.200471  
4259.000000	65.194702  
4258.000000	65.153193  
4257.000000	65.076255  
4256.000000	64.967966  
4255.000000	64.835882  
4254.000000	64.690709  
4253.000000	64.545774  
4252.000000	64.415073  
4251.000000	64.310789  
4250.000000	64.241433  
4249.000000	64.209794  
4248.000000	64.212894  
4247.000000	64.242768  
4246.000000	64.288926  
4245.000000	64.339399  
4244.000000	64.384603  
4243.000000	64.418244  
4242.000000	64.439392  
4241.000000	64.449620  
4240.000000	64.454030  
4239.000000	64.458608  
4238.000000	64.469456  
4237.000000	64.490389  
4236.000000	64.522790  
4235.000000	64.565777  
4234.000000	64.616608  
4233.000000	64.671421  
4232.000000	64.726734  
4231.000000	64.780163  
4230.000000	64.830565  
4229.000000	64.877700  
4228.000000	64.922165  
4227.000000	64.964556  
4226.000000	65.005207  
4225.000000	65.043425  
4224.000000	65.077495  
4223.000000	65.104413  
4222.000000	65.121436  
4221.000000	65.126037  
4220.000000	65.116643  
4219.000000	65.092515  
4218.000000	65.054821  
4217.000000	65.005755  
4216.000000	64.948463  
4215.000000	64.886307  
4214.000000	64.822864  
4213.000000	64.761185  
4212.000000	64.703869  
4211.000000	64.652824  
4210.000000	64.610004  
4209.000000	64.576268  
4208.000000	64.550662  
4207.000000	64.531207  
4206.000000	64.515042  
4205.000000	64.498901  
4204.000000	64.479541  
4203.000000	64.454698  
4202.000000	64.423322  
4201.000000	64.386749  
4200.000000	64.348459  
4199.000000	64.312911  
4198.000000	64.284276  
4197.000000	64.265990  
4196.000000	64.259529  
4195.000000	64.263367  
4194.000000	64.273214  
