PE IR       SPECTRUM    SPECTRUM    ASCII       PEDS        1.60        
  -1
C-1BE4~1.ASC
17/03/27
17:01:45.00
17/03/27
17:01:45.00
tln
$C-4040-8_t0031$<tbV0>[-7.8,-7.8,8.0,0.0,27,1,0]
370.000000
64









2002,4.07    
MIRTGS : RIGHTBACK : INTERNAL 2
MIR : ON : INTERNAL 2
OPTKBR

0.200000
8
8.000000
FILLER
RATIO
SPECTRUM
UNLOCKED 256

DOUBLE
64
COMBINED
1
0
0


1.000000
RATIO


1
0
TRUE
51149
0
LEFT NOT FITTED RIGHT NOT FITTED 0
NONE
NONE
15600
12.000000
4.427000
51148
TRUE
1 0 8 72 0 0 0 0 

15798.010000






#HDR
-1
-1
#GR
CM-1
%T
0.00002384185791015625
0.0
5000.000000
-1.000000
4631
8
77.216744
15.118932
#DATA
5000.000000	63.716912 
4999.000000	63.753986 
4998.000000	63.819479 
4997.000000	63.902950 
4996.000000	63.992810 
4995.000000	64.078378 
4994.000000	64.150905 
4993.000000	64.204621 
4992.000000	64.235949 
4991.000000	64.243030 
4990.000000	64.224648 
4989.000000	64.180183 
4988.000000	64.109253 
4987.000000	64.013099 
4986.000000	63.894748 
4985.000000	63.760042 
4984.000000	63.617610 
4983.000000	63.478469 
4982.000000	63.354635 
4981.000000	63.257789 
4980.000000	63.196825 
4979.000000	63.176512 
4978.000000	63.196086 
4977.000000	63.249516 
4976.000000	63.326048 
4975.000000	63.412523 
4974.000000	63.494968 
4973.000000	63.561964 
4972.000000	63.605022 
4971.000000	63.621377 
4970.000000	63.612985 
4969.000000	63.586616 
4968.000000	63.551139 
4967.000000	63.516449 
4966.000000	63.491225 
4965.000000	63.481426 
4964.000000	63.490152 
4963.000000	63.516974 
4962.000000	63.559031 
4961.000000	63.612127 
4960.000000	63.672208 
4959.000000	63.735628 
4958.000000	63.799738 
4957.000000	63.862204 
4956.000000	63.920688 
4955.000000	63.972401 
4954.000000	64.014005 
4953.000000	64.041852 
4952.000000	64.052724 
4951.000000	64.045405 
4950.000000	64.021110 
4949.000000	63.983607 
4948.000000	63.938927 
4947.000000	63.895034 
4946.000000	63.860011 
4945.000000	63.840913 
4944.000000	63.842153 
4943.000000	63.864850 
4942.000000	63.906240 
4941.000000	63.960719 
4940.000000	64.020276 
4939.000000	64.076280 
4938.000000	64.120745 
4937.000000	64.147758 
4936.000000	64.154481 
4935.000000	64.141225 
4934.000000	64.111018 
4933.000000	64.068675 
4932.000000	64.019584 
4931.000000	63.969039 
4930.000000	63.920378 
4929.000000	63.875007 
4928.000000	63.832330 
4927.000000	63.790750 
4926.000000	63.749122 
4925.000000	63.707685 
4924.000000	63.667988 
4923.000000	63.633179 
4922.000000	63.607144 
4921.000000	63.593935 
4920.000000	63.595652 
4919.000000	63.613009 
4918.000000	63.644504 
4917.000000	63.687181 
4916.000000	63.737297 
4915.000000	63.790798 
4914.000000	63.843727 
4913.000000	63.892674 
4912.000000	63.934588 
4911.000000	63.967585 
4910.000000	63.990449 
4909.000000	64.003872 
4908.000000	64.009618 
4907.000000	64.012026 
4906.000000	64.017128 
4905.000000	64.031457 
4904.000000	64.060711 
4903.000000	64.107036 
4902.000000	64.167857 
4901.000000	64.235615 
4900.000000	64.298868 
4899.000000	64.344501 
4898.000000	64.361000 
4897.000000	64.342045 
4896.000000	64.288496 
4895.000000	64.208221 
4894.000000	64.114356 
4893.000000	64.022588 
4892.000000	63.947129 
4891.000000	63.898134 
4890.000000	63.879299 
4889.000000	63.887643 
4888.000000	63.914585 
4887.000000	63.949251 
4886.000000	63.980865 
4885.000000	64.001417 
4884.000000	64.007163 
4883.000000	63.998579 
4882.000000	63.979697 
4881.000000	63.955259 
4880.000000	63.930439 
4879.000000	63.908720 
4878.000000	63.892221 
4877.000000	63.881611 
4876.000000	63.877320 
4875.000000	63.880252 
4874.000000	63.892507 
4873.000000	63.916707 
4872.000000	63.955879 
4871.000000	64.011621 
4870.000000	64.082884 
4869.000000	64.164543 
4868.000000	64.247441 
4867.000000	64.319157 
4866.000000	64.366316 
4865.000000	64.377641 
4864.000000	64.346671 
4863.000000	64.274072 
4862.000000	64.168214 
4861.000000	64.043807 
4860.000000	63.918781 
4859.000000	63.810944 
4858.000000	63.734650 
4857.000000	63.698267 
4856.000000	63.702940 
4855.000000	63.743209 
4854.000000	63.808870 
4853.000000	63.887429 
4852.000000	63.966941 
4851.000000	64.037656 
4850.000000	64.092969 
4849.000000	64.129757 
4848.000000	64.147591 
4847.000000	64.147996 
4846.000000	64.133548 
4845.000000	64.107823 
4844.000000	64.074730 
4843.000000	64.039206 
4842.000000	64.006090 
4841.000000	63.980150 
4840.000000	63.964676 
4839.000000	63.961052 
4838.000000	63.968205 
4837.000000	63.983297 
4836.000000	64.001822 
4835.000000	64.018535 
4834.000000	64.028906 
4833.000000	64.029860 
4832.000000	64.020824 
4831.000000	64.003205 
4830.000000	63.980555 
4829.000000	63.957285 
4828.000000	63.937926 
4827.000000	63.926172 
4826.000000	63.923382 
4825.000000	63.928294 
4824.000000	63.937330 
4823.000000	63.945794 
4822.000000	63.949060 
4821.000000	63.944101 
4820.000000	63.930153 
4819.000000	63.909149 
4818.000000	63.885641 
4817.000000	63.865566 
4816.000000	63.854742 
4815.000000	63.856935 
4814.000000	63.872671 
4813.000000	63.898897 
4812.000000	63.929748 
4811.000000	63.957691 
4810.000000	63.975811 
4809.000000	63.979125 
4808.000000	63.966178 
4807.000000	63.938784 
4806.000000	63.901138 
4805.000000	63.858866 
4804.000000	63.817262 
4803.000000	63.780879 
4802.000000	63.752698 
4801.000000	63.734316 
4800.000000	63.726472 
4799.000000	63.729023 
4798.000000	63.741374 
4797.000000	63.762283 
4796.000000	63.790154 
4795.000000	63.822412 
4794.000000	63.855671 
4793.000000	63.886141 
4792.000000	63.910365 
4791.000000	63.926053 
4790.000000	63.932561 
4789.000000	63.931155 
4788.000000	63.924241 
4787.000000	63.914537 
4786.000000	63.904404 
4785.000000	63.894939 
4784.000000	63.886475 
4783.000000	63.878703 
4782.000000	63.871574 
4781.000000	63.865947 
4780.000000	63.863682 
4779.000000	63.867235 
4778.000000	63.879132 
4777.000000	63.900446 
4776.000000	63.930988 
4775.000000	63.968753 
4774.000000	64.010906 
4773.000000	64.054107 
4772.000000	64.095640 
4771.000000	64.133930 
4770.000000	64.168429 
4769.000000	64.199352 
4768.000000	64.226341 
4767.000000	64.248204 
4766.000000	64.262032 
4765.000000	64.264035 
4764.000000	64.251089 
4763.000000	64.221835 
4762.000000	64.177846 
4761.000000	64.123725 
4760.000000	64.066886 
4759.000000	64.015555 
4758.000000	63.976836 
4757.000000	63.955020 
4756.000000	63.950157 
4755.000000	63.958835 
4754.000000	63.974738 
4753.000000	63.991189 
4752.000000	64.002442 
4751.000000	64.005565 
4750.000000	64.000749 
4749.000000	63.991022 
4748.000000	63.980579 
4747.000000	63.973522 
4746.000000	63.972091 
4745.000000	63.976550 
4744.000000	63.985419 
4743.000000	63.996028 
4742.000000	64.005303 
4741.000000	64.010596 
4740.000000	64.010334 
4739.000000	64.003276 
4738.000000	63.988614 
4737.000000	63.965487 
4736.000000	63.933420 
4735.000000	63.892245 
4734.000000	63.843011 
4733.000000	63.788533 
4732.000000	63.733530 
4731.000000	63.684463 
4730.000000	63.648366 
4729.000000	63.631272 
4728.000000	63.637328 
4727.000000	63.667130 
4726.000000	63.718175 
4725.000000	63.784551 
4724.000000	63.858270 
4723.000000	63.931226 
4722.000000	63.996005 
4721.000000	64.047145 
4720.000000	64.081239 
4719.000000	64.096903 
4718.000000	64.094114 
4717.000000	64.073920 
4716.000000	64.038228 
4715.000000	63.989615 
4714.000000	63.931822 
4713.000000	63.869643 
4712.000000	63.808894 
4711.000000	63.755726 
4710.000000	63.715529 
4709.000000	63.691711 
4708.000000	63.684701 
4707.000000	63.692021 
4706.000000	63.708019 
4705.000000	63.726115 
4704.000000	63.739800 
4703.000000	63.745427 
4702.000000	63.742423 
4701.000000	63.734245 
4700.000000	63.726949 
4699.000000	63.727545 
4698.000000	63.741397 
4697.000000	63.770890 
4696.000000	63.814449 
4695.000000	63.866615 
4694.000000	63.919496 
4693.000000	63.964557 
4692.000000	63.995361 
4691.000000	64.007782 
4690.000000	64.001154 
4689.000000	63.977408 
4688.000000	63.940572 
4687.000000	63.895225 
4686.000000	63.845777 
4685.000000	63.796138 
4684.000000	63.749694 
4683.000000	63.709902 
4682.000000	63.680219 
4681.000000	63.663959 
4680.000000	63.663530 
4679.000000	63.679671 
4678.000000	63.710880 
4677.000000	63.752150 
4676.000000	63.797044 
4675.000000	63.838171 
4674.000000	63.870072 
4673.000000	63.889312 
4672.000000	63.896942 
4671.000000	63.897442 
4670.000000	63.898682 
4669.000000	63.908743 
4668.000000	63.935184 
4667.000000	63.982391 
4666.000000	64.051175 
4665.000000	64.138650 
4664.000000	64.238834 
4663.000000	64.344263 
4662.000000	64.446949 
4661.000000	64.539766 
4660.000000	64.616131 
4659.000000	64.670825 
4658.000000	64.699292 
4657.000000	64.698004 
4656.000000	64.665031 
4655.000000	64.600253 
4654.000000	64.506936 
4653.000000	64.390921 
4652.000000	64.260435 
4651.000000	64.124774 
4650.000000	63.993406 
4649.000000	63.874721 
4648.000000	63.774967 
4647.000000	63.698077 
4646.000000	63.645124 
4645.000000	63.615536 
4644.000000	63.607072 
4643.000000	63.617253 
4642.000000	63.642716 
4641.000000	63.680648 
4640.000000	63.728332 
4639.000000	63.783168 
4638.000000	63.841843 
4637.000000	63.900780 
4636.000000	63.956022 
4635.000000	64.003229 
4634.000000	64.038228 
4633.000000	64.057278 
4632.000000	64.058041 
4631.000000	64.039707 
4630.000000	64.003658 
4629.000000	63.954067 
4628.000000	63.897395 
4627.000000	63.841629 
4626.000000	63.794612 
4625.000000	63.762617 
4624.000000	63.748955 
4623.000000	63.753533 
4622.000000	63.773298 
4621.000000	63.803124 
4620.000000	63.837575 
4619.000000	63.872623 
4618.000000	63.906121 
4617.000000	63.937616 
4616.000000	63.967728 
4615.000000	63.997507 
4614.000000	64.026951 
4613.000000	64.054274 
4612.000000	64.076375 
4611.000000	64.089298 
4610.000000	64.090085 
4609.000000	64.077901 
4608.000000	64.054703 
4607.000000	64.025068 
4606.000000	63.995075 
4605.000000	63.970923 
4604.000000	63.956928 
4603.000000	63.954472 
4602.000000	63.962197 
4601.000000	63.976263 
4600.000000	63.991832 
4599.000000	64.004111 
4598.000000	64.009261 
4597.000000	64.005279 
4596.000000	63.991856 
4595.000000	63.970470 
4594.000000	63.943433 
4593.000000	63.913941 
4592.000000	63.885307 
4591.000000	63.860440 
4590.000000	63.841772 
4589.000000	63.830471 
4588.000000	63.826608 
4587.000000	63.828587 
4586.000000	63.833951 
4585.000000	63.839364 
4584.000000	63.841056 
4583.000000	63.836359 
4582.000000	63.824176 
4581.000000	63.805532 
4580.000000	63.783335 
4579.000000	63.761377 
4578.000000	63.743376 
4577.000000	63.731741 
4576.000000	63.727140 
4575.000000	63.728237 
4574.000000	63.732147 
4573.000000	63.735842 
4572.000000	63.736867 
4571.000000	63.734221 
4570.000000	63.728475 
4569.000000	63.721537 
4568.000000	63.715958 
4567.000000	63.714551 
4566.000000	63.719153 
4565.000000	63.730025 
4564.000000	63.745403 
4563.000000	63.762354 
4562.000000	63.777065 
4561.000000	63.785791 
4560.000000	63.785672 
4559.000000	63.775277 
4558.000000	63.755106 
4557.000000	63.727426 
4556.000000	63.696360 
4555.000000	63.667130 
4554.000000	63.645458 
4553.000000	63.636565 
4552.000000	63.643932 
4551.000000	63.668274 
4550.000000	63.707923 
4549.000000	63.758802 
4548.000000	63.815379 
4547.000000	63.871383 
4546.000000	63.921141 
4545.000000	63.959503 
4544.000000	63.982343 
4543.000000	63.986372 
4542.000000	63.969254 
4541.000000	63.930201 
4540.000000	63.870239 
4539.000000	63.792634 
4538.000000	63.703107 
4537.000000	63.609027 
4536.000000	63.518977 
4535.000000	63.440656 
4534.000000	63.379573 
4533.000000	63.338184 
4532.000000	63.315176 
4531.000000	63.307023 
4530.000000	63.308072 
4529.000000	63.314247 
4528.000000	63.323616 
4527.000000	63.337969 
4526.000000	63.361573 
4525.000000	63.399457 
4524.000000	63.455128 
4523.000000	63.528347 
4522.000000	63.614249 
4521.000000	63.704061 
4520.000000	63.786697 
4519.000000	63.851785 
4518.000000	63.891959 
4517.000000	63.904881 
4516.000000	63.893127 
4515.000000	63.863563 
4514.000000	63.824796 
4513.000000	63.785052 
4512.000000	63.749623 
4511.000000	63.720536 
4510.000000	63.695883 
4509.000000	63.671803 
4508.000000	63.643503 
4507.000000	63.608312 
4506.000000	63.565993 
4505.000000	63.519024 
4504.000000	63.472604 
4503.000000	63.432383 
4502.000000	63.404631 
4501.000000	63.394212 
4500.000000	63.403940 
4499.000000	63.433527 
4498.000000	63.479971 
4497.000000	63.537836 
4496.000000	63.599729 
4495.000000	63.657689 
4494.000000	63.704609 
4493.000000	63.735795 
4492.000000	63.749432 
4491.000000	63.746929 
4490.000000	63.732266 
4489.000000	63.711094 
4488.000000	63.689589 
4487.000000	63.673019 
4486.000000	63.665413 
4485.000000	63.668203 
4484.000000	63.681316 
4483.000000	63.702344 
4482.000000	63.728451 
4481.000000	63.755178 
4480.000000	63.778424 
4479.000000	63.793063 
4478.000000	63.793802 
4477.000000	63.775420 
4476.000000	63.733649 
4475.000000	63.666605 
4474.000000	63.575553 
4473.000000	63.465714 
4472.000000	63.346195 
4471.000000	63.228106 
4470.000000	63.122701 
4469.000000	63.039350 
4468.000000	62.984132 
4467.000000	62.959051 
4466.000000	62.962436 
4465.000000	62.989711 
4464.000000	63.035130 
4463.000000	63.092994 
4462.000000	63.158416 
4461.000000	63.227105 
4460.000000	63.295078 
4459.000000	63.358354 
4458.000000	63.412261 
4457.000000	63.451337 
4456.000000	63.470101 
4455.000000	63.464283 
4454.000000	63.432073 
4453.000000	63.375520 
4452.000000	63.300466 
4451.000000	63.216161 
4450.000000	63.133573 
4449.000000	63.063621 
4448.000000	63.015007 
4447.000000	62.992835 
4446.000000	62.998008 
4445.000000	63.027334 
4444.000000	63.075065 
4443.000000	63.134455 
4442.000000	63.199424 
4441.000000	63.265419 
4440.000000	63.330078 
4439.000000	63.392448 
4438.000000	63.452219 
4437.000000	63.508439 
4436.000000	63.558673 
4435.000000	63.598585 
4434.000000	63.623189 
4433.000000	63.627457 
4432.000000	63.608169 
4431.000000	63.564777 
4430.000000	63.500952 
4429.000000	63.423562 
4428.000000	63.342380 
4427.000000	63.267636 
4426.000000	63.209009 
4425.000000	63.172554 
4424.000000	63.160133 
4423.000000	63.168430 
4422.000000	63.190412 
4421.000000	63.216757 
4420.000000	63.238286 
4419.000000	63.247942 
4418.000000	63.242483 
4417.000000	63.221001 
4416.000000	63.184547 
4415.000000	63.135075 
4414.000000	63.074684 
4413.000000	63.007259 
4412.000000	62.937808 
4411.000000	62.870669 
4410.000000	62.809896 
4409.000000	62.758755 
4408.000000	62.720274 
4407.000000	62.697553 
4406.000000	62.693619 
4405.000000	62.709164 
4404.000000	62.744331 
4403.000000	62.797069 
4402.000000	62.865042 
4401.000000	62.948536 
4400.000000	63.045835 
4399.000000	63.151121 
4398.000000	63.255000 
4397.000000	63.345980 
4396.000000	63.411879 
4395.000000	63.435316 
4394.000000	63.415503 
4393.000000	63.373160 
4392.000000	63.340258 
4391.000000	63.353753 
4390.000000	63.430523 
4389.000000	63.558292 
4388.000000	63.698887 
4387.000000	63.799214 
4386.000000	63.795208 
4385.000000	63.637518 
4384.000000	63.322591 
4383.000000	62.897562 
4382.000000	62.450861 
4381.000000	62.088966 
4380.000000	61.914587 
4379.000000	61.988544 
4378.000000	62.306857 
4377.000000	62.797474 
4376.000000	63.341188 
4375.000000	63.793015 
4374.000000	64.043259 
4373.000000	64.004468 
4372.000000	63.655066 
4371.000000	62.988185 
4370.000000	62.003874 
4369.000000	60.697507 
4368.000000	59.043049 
4367.000000	57.062530 
4366.000000	54.839396 
4365.000000	52.568984 
4364.000000	50.541305 
4363.000000	49.116563 
4362.000000	48.650693 
4361.000000	49.403357 
4360.000000	51.464033 
4359.000000	54.713964 
4358.000000	58.836030 
4357.000000	63.365483 
4356.000000	67.783451 
4355.000000	71.621322 
4354.000000	74.542427 
4353.000000	76.397514 
4352.000000	77.216744 
4351.000000	77.169156 
4350.000000	76.491332 
4349.000000	75.431418 
4348.000000	74.178457 
4347.000000	72.867131 
4346.000000	71.547055 
4345.000000	70.263242 
4344.000000	69.022917 
4343.000000	67.858862 
4342.000000	66.800761 
4341.000000	65.888953 
4340.000000	65.152430 
4339.000000	64.595794 
4338.000000	64.200973 
4337.000000	63.923907 
4336.000000	63.714170 
4335.000000	63.524794 
4334.000000	63.331484 
4333.000000	63.136696 
4332.000000	62.961864 
4331.000000	62.839627 
4330.000000	62.792396 
4329.000000	62.827873 
4328.000000	62.938451 
4327.000000	63.103365 
4326.000000	63.289046 
4325.000000	63.460350 
4324.000000	63.602590 
4323.000000	63.711953 
4322.000000	63.781857 
4321.000000	63.811469 
4320.000000	63.805174 
4319.000000	63.769245 
4318.000000	63.712906 
4317.000000	63.643431 
4316.000000	63.563585 
4315.000000	63.475894 
4314.000000	63.388395 
4313.000000	63.307380 
4312.000000	63.236212 
4311.000000	63.178467 
4310.000000	63.138794 
4309.000000	63.117265 
4308.000000	63.109350 
4307.000000	63.110208 
4306.000000	63.115811 
4305.000000	63.122391 
4304.000000	63.127422 
4303.000000	63.129949 
4302.000000	63.130688 
4301.000000	63.130378 
4300.000000	63.130235 
4299.000000	63.130831 
4298.000000	63.132786 
4297.000000	63.136792 
4296.000000	63.144135 
4295.000000	63.156414 
4294.000000	63.175272 
4293.000000	63.202786 
4292.000000	63.239598 
4291.000000	63.284182 
4290.000000	63.332676 
4289.000000	63.379454 
4288.000000	63.418388 
4287.000000	63.444352 
4286.000000	63.454937 
4285.000000	63.451147 
4284.000000	63.437676 
4283.000000	63.421988 
4282.000000	63.411855 
4281.000000	63.413310 
4280.000000	63.429093 
4279.000000	63.457608 
4278.000000	63.493108 
4277.000000	63.526821 
4276.000000	63.549566 
4275.000000	63.553595 
4274.000000	63.534045 
4273.000000	63.490080 
4272.000000	63.424205 
4271.000000	63.342380 
4270.000000	63.252449 
4269.000000	63.163447 
4268.000000	63.083815 
4267.000000	63.020849 
4266.000000	62.979769 
4265.000000	62.963390 
4264.000000	62.971711 
4263.000000	63.001728 
4262.000000	63.047838 
4261.000000	63.102293 
4260.000000	63.155913 
4259.000000	63.199901 
4258.000000	63.227009 
4257.000000	63.233304 
4256.000000	63.218402 
4255.000000	63.186526 
4254.000000	63.145160 
4253.000000	63.103914 
4252.000000	63.072109 
4251.000000	63.056755 
4250.000000	63.060688 
4249.000000	63.082289 
4248.000000	63.115596 
4247.000000	63.151741 
4246.000000	63.181328 
4245.000000	63.196253 
4244.000000	63.192081 
4243.000000	63.168478 
4242.000000	63.129901 
4241.000000	63.083505 
4240.000000	63.038277 
4239.000000	63.002371 
4238.000000	62.981891 
4237.000000	62.979888 
4236.000000	62.995648 
4235.000000	63.025474 
4234.000000	63.063478 
4233.000000	63.103294 
4232.000000	63.139224 
4231.000000	63.167405 
4230.000000	63.185882 
4229.000000	63.194513 
4228.000000	63.194823 
4227.000000	63.189458 
4226.000000	63.181424 
4225.000000	63.173222 
4224.000000	63.166737 
4223.000000	63.162660 
4222.000000	63.161063 
4221.000000	63.161110 
4220.000000	63.161230 
4219.000000	63.159394 
4218.000000	63.153409 
4217.000000	63.141179 
4216.000000	63.121366 
4215.000000	63.093543 
4214.000000	63.058137 
4213.000000	63.016748 
4212.000000	62.972307 
4211.000000	62.928223 
4210.000000	62.888383 
4209.000000	62.855291 
4208.000000	62.829661 
4207.000000	62.809944 
4206.000000	62.793111 
4205.000000	62.774944 
4204.000000	62.751173 
4203.000000	62.719035 
4202.000000	62.678050 
4201.000000	62.631106 
4200.000000	62.583756 
4199.000000	62.543582 
4198.000000	62.518072 
4197.000000	62.512946 
4196.000000	62.530303 
4195.000000	62.568521 
4194.000000	62.621617 
4193.000000	62.679743 
4192.000000	62.731075 
4191.000000	62.764000 
4190.000000	62.769818 
4189.000000	62.743854 
4188.000000	62.687659 
4187.000000	62.607789 
4186.000000	62.516093 
4185.000000	62.426829 
4184.000000	62.355065 
4183.000000	62.313628 
4182.000000	62.310981 
4181.000000	62.350034 
4180.000000	62.426924 
4179.000000	62.532544 
4178.000000	62.652587 
4177.000000	62.770271 
4176.000000	62.869358 
4175.000000	62.936997 
4174.000000	62.967395 
4173.000000	62.962698 
4172.000000	62.933301 
4171.000000	62.895226 
4170.000000	62.867069 
4169.000000	62.865138 
4168.000000	62.900352 
4167.000000	62.974810 
4166.000000	63.081812 
4165.000000	63.206648 
4164.000000	63.331079 
4163.000000	63.436579 
4162.000000	63.508677 
4161.000000	63.539624 
4160.000000	63.528943 
4159.000000	63.483691 
