PE IR       SPECTRUM    SPECTRUM    ASCII       PEDS        1.60        
  -1
C-996F~1.ASC
17/03/27
14:49:25.00
17/03/27
14:49:25.00
tln
$C-4040-8_t0004$<tbV0>[5.2,-13.0,8.0,0.0,27,1,0]
370.000000
64









2002,4.07    
MIRTGS : RIGHTBACK : INTERNAL 2
MIR : ON : INTERNAL 2
OPTKBR

0.200000
8
8.000000
FILLER
RATIO
SPECTRUM
UNLOCKED 256

DOUBLE
64
COMBINED
1
0
0


1.000000
RATIO


1
0
TRUE
51149
0
LEFT NOT FITTED RIGHT NOT FITTED 0
NONE
NONE
15600
12.000000
4.427000
51148
TRUE
1 0 8 72 0 0 0 0 

15798.010000






#HDR
-1
-1
#GR
CM-1
%T
0.00002384185791015625
0.0
5000.000000
-1.000000
4631
8
69.946670
-0.073742
#DATA
5000.000000	63.540673 
4999.000000	63.481044 
4998.000000	63.436794 
4997.000000	63.423514 
4996.000000	63.450241 
4995.000000	63.519716 
4994.000000	63.624000 
4993.000000	63.747262 
4992.000000	63.866734 
4991.000000	63.958621 
4990.000000	64.001727 
4989.000000	63.982367 
4988.000000	63.896846 
4987.000000	63.751959 
4986.000000	63.564229 
4985.000000	63.356709 
4984.000000	63.153743 
4983.000000	62.976241 
4982.000000	62.838387 
4981.000000	62.745976 
4980.000000	62.696075 
4979.000000	62.679767 
4978.000000	62.684440 
4977.000000	62.698411 
4976.000000	62.714624 
4975.000000	62.731957 
4974.000000	62.752366 
4973.000000	62.779712 
4972.000000	62.817025 
4971.000000	62.863206 
4970.000000	62.911438 
4969.000000	62.949705 
4968.000000	62.962460 
4967.000000	62.936019 
4966.000000	62.862610 
4965.000000	62.744569 
4964.000000	62.594819 
4963.000000	62.436342 
4962.000000	62.297391 
4961.000000	62.205410 
4960.000000	62.180209 
4959.000000	62.229967 
4958.000000	62.348914 
4957.000000	62.520194 
4956.000000	62.719535 
4955.000000	62.920951 
4954.000000	63.100886 
4953.000000	63.238620 
4952.000000	63.318419 
4951.000000	63.329744 
4950.000000	63.268399 
4949.000000	63.135004 
4948.000000	62.937211 
4947.000000	62.690925 
4946.000000	62.419223 
4945.000000	62.150740 
4944.000000	61.915826 
4943.000000	61.742687 
4942.000000	61.652398 
4941.000000	61.654734 
4940.000000	61.747288 
4939.000000	61.914610 
4938.000000	62.132835 
4937.000000	62.373280 
4936.000000	62.608027 
4935.000000	62.813568 
4934.000000	62.973690 
4933.000000	63.079214 
4932.000000	63.128924 
4931.000000	63.127398 
4930.000000	63.085436 
4929.000000	63.017463 
4928.000000	62.941408 
4927.000000	62.875795 
4926.000000	62.837457 
4925.000000	62.838530 
4924.000000	62.884116 
4923.000000	62.971568 
4922.000000	63.091850 
4921.000000	63.231897 
4920.000000	63.376712 
4919.000000	63.513183 
4918.000000	63.632345 
4917.000000	63.730716 
4916.000000	63.809442 
4915.000000	63.872718 
4914.000000	63.924574 
4913.000000	63.967919 
4912.000000	64.003968 
4911.000000	64.032483 
4910.000000	64.053416 
4909.000000	64.067339 
4908.000000	64.078092 
4907.000000	64.089441 
4906.000000	64.105296 
4905.000000	64.126014 
4904.000000	64.147877 
4903.000000	64.164566 
4902.000000	64.168953 
4901.000000	64.154911 
4900.000000	64.119195 
4899.000000	64.063501 
4898.000000	63.993692 
4897.000000	63.918566 
4896.000000	63.847160 
4895.000000	63.786482 
4894.000000	63.739275 
4893.000000	63.704085 
4892.000000	63.675498 
4891.000000	63.646507 
4890.000000	63.610625 
4889.000000	63.563704 
4888.000000	63.505887 
4887.000000	63.441228 
4886.000000	63.377833 
4885.000000	63.324141 
4884.000000	63.288688 
4883.000000	63.277721 
4882.000000	63.293719 
4881.000000	63.335061 
4880.000000	63.395094 
4879.000000	63.463735 
4878.000000	63.527989 
4877.000000	63.574671 
4876.000000	63.592386 
4875.000000	63.573789 
4874.000000	63.517355 
4873.000000	63.428139 
4872.000000	63.317036 
4871.000000	63.199067 
4870.000000	63.090896 
4869.000000	63.007283 
4868.000000	62.958073 
4867.000000	62.946748 
4866.000000	62.970018 
4865.000000	63.019919 
4864.000000	63.085508 
4863.000000	63.156628 
4862.000000	63.225483 
4861.000000	63.288354 
4860.000000	63.344573 
4859.000000	63.396072 
4858.000000	63.444089 
4857.000000	63.489246 
4856.000000	63.530349 
4855.000000	63.564801 
4854.000000	63.589811 
4853.000000	63.603091 
4852.000000	63.604688 
4851.000000	63.596606 
4850.000000	63.582944 
4849.000000	63.568401 
4848.000000	63.557338 
4847.000000	63.552355 
4846.000000	63.554215 
4845.000000	63.562345 
4844.000000	63.575482 
4843.000000	63.593101 
4842.000000	63.615083 
4841.000000	63.641953 
4840.000000	63.673567 
4839.000000	63.709020 
4838.000000	63.745284 
4837.000000	63.777446 
4836.000000	63.798689 
4835.000000	63.802790 
4834.000000	63.784050 
4833.000000	63.739752 
4832.000000	63.669824 
4831.000000	63.577580 
4830.000000	63.469099 
4829.000000	63.352823 
4828.000000	63.237476 
4827.000000	63.130760 
4826.000000	63.038229 
4825.000000	62.962913 
4824.000000	62.905406 
4823.000000	62.864494 
4822.000000	62.838077 
4821.000000	62.824153 
4820.000000	62.821197 
4819.000000	62.828373 
4818.000000	62.844824 
4817.000000	62.869453 
4816.000000	62.900114 
4815.000000	62.934184 
4814.000000	62.968492 
4813.000000	63.000345 
4812.000000	63.027858 
4811.000000	63.050532 
4810.000000	63.069558 
4809.000000	63.086485 
4808.000000	63.103222 
4807.000000	63.120055 
4806.000000	63.135361 
4805.000000	63.145589 
4804.000000	63.146018 
4803.000000	63.132953 
4802.000000	63.104867 
4801.000000	63.064551 
4800.000000	63.018679 
4799.000000	62.977099 
4798.000000	62.950396 
4797.000000	62.948036 
4796.000000	62.975883 
4795.000000	63.035368 
4794.000000	63.122797 
4793.000000	63.230538 
4792.000000	63.348317 
4791.000000	63.464760 
4790.000000	63.569045 
4789.000000	63.652276 
4788.000000	63.708615 
4787.000000	63.735651 
4786.000000	63.734555 
4785.000000	63.709807 
4784.000000	63.668155 
4783.000000	63.617801 
4782.000000	63.566541 
4781.000000	63.521599 
4780.000000	63.487124 
4779.000000	63.465070 
4778.000000	63.454127 
4777.000000	63.450980 
4776.000000	63.451290 
4775.000000	63.451290 
4774.000000	63.448286 
4773.000000	63.441443 
4772.000000	63.431191 
4771.000000	63.418459 
4770.000000	63.403749 
4769.000000	63.386607 
4768.000000	63.365721 
4767.000000	63.339567 
4766.000000	63.307094 
4765.000000	63.268637 
4764.000000	63.226509 
4763.000000	63.185024 
4762.000000	63.149142 
4761.000000	63.123583 
4760.000000	63.111972 
4759.000000	63.116192 
4758.000000	63.134932 
4757.000000	63.164925 
4756.000000	63.201737 
4755.000000	63.240599 
4754.000000	63.277339 
4753.000000	63.308906 
4752.000000	63.333129 
4751.000000	63.349246 
4750.000000	63.357019 
4749.000000	63.357257 
4748.000000	63.350844 
4747.000000	63.339519 
4746.000000	63.326072 
4745.000000	63.313126 
4744.000000	63.303089 
4743.000000	63.297200 
4742.000000	63.295531 
4741.000000	63.296031 
4740.000000	63.295102 
4739.000000	63.288378 
4738.000000	63.272118 
4737.000000	63.244009 
4736.000000	63.204073 
4735.000000	63.155293 
4734.000000	63.102817 
4733.000000	63.052821 
4732.000000	63.010978 
4731.000000	62.980890 
4730.000000	62.963604 
4729.000000	62.957239 
4728.000000	62.957954 
4727.000000	62.960720 
4726.000000	62.961602 
4725.000000	62.958312 
4724.000000	62.951683 
4723.000000	62.944245 
4722.000000	62.940669 
4721.000000	62.945795 
4720.000000	62.963962 
4719.000000	62.997269 
4718.000000	63.045358 
4717.000000	63.105273 
4716.000000	63.172340 
4715.000000	63.241291 
4714.000000	63.307237 
4713.000000	63.366532 
4712.000000	63.417291 
4711.000000	63.459324 
4710.000000	63.493752 
4709.000000	63.522005 
4708.000000	63.545632 
4707.000000	63.565087 
4706.000000	63.580060 
4705.000000	63.588881 
4704.000000	63.589692 
4703.000000	63.580060 
4702.000000	63.558149 
4701.000000	63.522839 
4700.000000	63.474678 
4699.000000	63.416123 
4698.000000	63.351273 
4697.000000	63.286137 
4696.000000	63.227343 
4695.000000	63.182067 
4694.000000	63.156485 
4693.000000	63.154840 
4692.000000	63.178443 
4691.000000	63.225126 
4690.000000	63.289237 
4689.000000	63.362693 
4688.000000	63.435912 
4687.000000	63.499712 
4686.000000	63.546848 
4685.000000	63.572978 
4684.000000	63.576841 
4683.000000	63.560199 
4682.000000	63.526868 
4681.000000	63.481473 
4680.000000	63.428211 
4679.000000	63.371038 
4678.000000	63.313055 
4677.000000	63.256931 
4676.000000	63.204789 
4675.000000	63.158941 
4674.000000	63.121294 
4673.000000	63.093304 
4672.000000	63.075685 
4671.000000	63.067841 
4670.000000	63.068485 
4669.000000	63.075065 
4668.000000	63.085269 
4667.000000	63.096737 
4666.000000	63.108444 
4665.000000	63.120436 
4664.000000	63.134098 
4663.000000	63.151121 
4662.000000	63.173031 
4661.000000	63.200283 
4660.000000	63.231730 
4659.000000	63.264298 
4658.000000	63.293790 
4657.000000	63.315701 
4656.000000	63.326430 
4655.000000	63.324022 
4654.000000	63.308596 
4653.000000	63.282036 
4652.000000	63.247370 
4651.000000	63.208079 
4650.000000	63.167166 
4649.000000	63.127112 
4648.000000	63.089299 
4647.000000	63.055014 
4646.000000	63.025641 
4645.000000	63.003277 
4644.000000	62.990427 
4643.000000	62.989711 
4642.000000	63.002896 
4641.000000	63.030195 
4640.000000	63.068962 
4639.000000	63.114881 
4638.000000	63.161969 
4637.000000	63.205051 
4636.000000	63.240647 
4635.000000	63.268327 
4634.000000	63.290643 
4633.000000	63.311839 
4632.000000	63.336253 
4631.000000	63.366460 
4630.000000	63.402152 
4629.000000	63.439917 
4628.000000	63.474130 
4627.000000	63.499140 
4626.000000	63.510370 
4625.000000	63.506245 
4624.000000	63.488101 
4623.000000	63.460230 
4622.000000	63.427972 
4621.000000	63.396286 
4620.000000	63.368463 
4619.000000	63.345289 
4618.000000	63.325715 
4617.000000	63.307642 
4616.000000	63.289475 
4615.000000	63.271188 
4614.000000	63.254761 
4613.000000	63.244104 
4612.000000	63.243365 
4611.000000	63.255357 
4610.000000	63.280677 
4609.000000	63.316655 
4608.000000	63.358139 
4607.000000	63.398432 
4606.000000	63.431406 
4605.000000	63.453054 
4604.000000	63.462495 
4603.000000	63.461995 
4602.000000	63.456416 
4601.000000	63.451623 
4600.000000	63.452672 
4599.000000	63.462185 
4598.000000	63.480043 
4597.000000	63.503193 
4596.000000	63.527107 
4595.000000	63.546466 
4594.000000	63.557815 
4593.000000	63.559198 
4592.000000	63.551020 
4591.000000	63.534522 
4590.000000	63.511109 
4589.000000	63.481807 
4588.000000	63.446450 
4587.000000	63.405203 
4586.000000	63.359212 
4585.000000	63.311576 
4584.000000	63.267421 
4583.000000	63.233351 
4582.000000	63.216018 
4581.000000	63.219976 
4580.000000	63.245940 
4579.000000	63.290739 
4578.000000	63.347554 
4577.000000	63.407635 
4576.000000	63.461947 
4575.000000	63.503217 
4574.000000	63.527250 
4573.000000	63.533139 
4572.000000	63.522958 
4571.000000	63.500475 
4570.000000	63.469815 
4569.000000	63.434624 
4568.000000	63.397026 
4567.000000	63.357973 
4566.000000	63.317227 
4565.000000	63.275194 
4564.000000	63.232231 
4563.000000	63.190293 
4562.000000	63.151049 
4561.000000	63.115835 
4560.000000	63.084673 
4559.000000	63.055658 
4558.000000	63.025593 
4557.000000	62.990522 
4556.000000	62.947416 
4555.000000	62.895250 
4554.000000	62.836503 
4553.000000	62.777018 
4552.000000	62.724876 
4551.000000	62.688469 
4550.000000	62.674760 
4549.000000	62.687325 
4548.000000	62.725448 
4547.000000	62.784409 
4546.000000	62.856030 
4545.000000	62.931203 
4544.000000	63.002538 
4543.000000	63.065242 
4542.000000	63.118124 
4541.000000	63.161993 
4540.000000	63.198184 
4539.000000	63.226723 
4538.000000	63.245987 
4537.000000	63.252329 
4536.000000	63.241457 
4535.000000	63.210034 
4534.000000	63.158798 
4533.000000	63.091874 
4532.000000	63.016581 
4531.000000	62.943172 
4530.000000	62.882161 
4529.000000	62.843847 
4528.000000	62.836122 
4527.000000	62.863588 
4526.000000	62.926363 
4525.000000	63.019347 
4524.000000	63.132667 
4523.000000	63.252305 
4522.000000	63.362312 
4521.000000	63.447618 
4520.000000	63.497161 
4519.000000	63.505840 
4518.000000	63.475847 
4517.000000	63.415288 
4516.000000	63.337063 
4515.000000	63.255834 
4514.000000	63.185906 
4513.000000	63.139224 
4512.000000	63.123273 
4511.000000	63.141107 
4510.000000	63.190531 
4509.000000	63.265252 
4508.000000	63.355922 
4507.000000	63.452029 
4506.000000	63.543772 
4505.000000	63.623785 
4504.000000	63.686847 
4503.000000	63.730072 
4502.000000	63.751530 
4501.000000	63.749861 
4500.000000	63.723778 
4499.000000	63.672733 
4498.000000	63.596749 
4497.000000	63.497495 
4496.000000	63.379979 
4495.000000	63.253045 
4494.000000	63.128995 
4493.000000	63.021707 
4492.000000	62.944555 
4491.000000	62.907147 
4490.000000	62.911105 
4489.000000	62.951397 
4488.000000	63.015341 
4487.000000	63.089227 
4486.000000	63.161873 
4485.000000	63.227391 
4484.000000	63.290095 
4483.000000	63.356685 
4482.000000	63.429427 
4481.000000	63.505196 
4480.000000	63.573670 
4479.000000	63.620305 
4478.000000	63.629198 
4477.000000	63.590931 
4476.000000	63.508558 
4475.000000	63.395857 
4474.000000	63.275527 
4473.000000	63.172006 
4472.000000	63.104701 
4471.000000	63.086771 
4470.000000	63.122892 
4469.000000	63.207602 
4468.000000	63.327479 
4467.000000	63.469362 
4466.000000	63.622999 
4465.000000	63.778114 
4464.000000	63.927578 
4463.000000	64.065074 
4462.000000	64.189577 
4461.000000	64.297771 
4460.000000	64.395475 
4459.000000	64.495754 
4458.000000	64.623785 
4457.000000	64.811062 
4456.000000	65.090513 
4455.000000	65.489149 
4454.000000	66.016602 
4453.000000	66.658854 
4452.000000	67.376232 
4451.000000	68.111801 
4450.000000	68.795800 
4449.000000	69.363427 
4448.000000	69.758224 
4447.000000	69.946670 
4446.000000	69.911789 
4445.000000	69.656682 
4444.000000	69.194769 
4443.000000	68.547439 
4442.000000	67.743277 
4441.000000	66.817808 
4440.000000	65.805959 
4439.000000	64.745759 
4438.000000	63.685464 
4437.000000	62.681245 
4436.000000	61.796069 
4435.000000	61.087703 
4434.000000	60.595035 
4433.000000	60.330271 
4432.000000	60.266470 
4431.000000	60.351324 
4430.000000	60.506415 
4429.000000	60.658669 
4428.000000	60.749530 
4427.000000	60.753393 
4426.000000	60.679173 
4425.000000	60.558271 
4424.000000	60.430598 
4423.000000	60.319399 
4422.000000	60.215926 
4421.000000	60.082912 
4420.000000	59.862279 
4419.000000	59.511542 
4418.000000	59.022021 
4417.000000	58.461046 
4416.000000	57.964420 
4415.000000	57.715654 
4414.000000	57.893061 
4413.000000	58.603143 
4412.000000	59.838128 
4411.000000	61.451506 
4410.000000	63.191604 
4409.000000	64.754652 
4408.000000	65.871334 
4407.000000	66.383886 
4406.000000	66.286444 
4405.000000	65.723347 
4404.000000	64.944934 
4403.000000	64.237761 
4402.000000	63.840103 
4401.000000	63.879823 
4400.000000	64.343595 
4399.000000	65.099787 
4398.000000	65.935587 
4397.000000	66.640615 
4396.000000	67.052769 
4395.000000	67.115044 
4394.000000	66.864228 
4393.000000	66.410326 
4392.000000	65.890502 
4391.000000	65.417218 
4390.000000	65.061068 
4389.000000	64.833664 
4388.000000	64.709639 
4387.000000	64.643406 
4386.000000	64.593148 
4385.000000	64.535760 
4384.000000	64.467310 
4383.000000	64.402151 
4382.000000	64.357471 
4381.000000	64.348006 
4380.000000	64.369654 
4379.000000	64.405798 
4378.000000	64.434552 
4377.000000	64.434814 
4376.000000	64.393115 
4375.000000	64.308357 
4374.000000	64.196515 
4373.000000	64.081144 
4372.000000	63.984298 
4371.000000	63.921260 
4370.000000	63.892602 
4369.000000	63.889098 
4368.000000	63.896870 
4367.000000	63.900303 
4366.000000	63.888859 
4365.000000	63.856530 
4364.000000	63.802433 
4363.000000	63.732695 
4362.000000	63.657855 
4361.000000	63.590073 
4360.000000	63.539552 
4359.000000	63.509774 
4358.000000	63.497519 
4357.000000	63.495612 
4356.000000	63.495326 
4355.000000	63.489437 
4354.000000	63.474416 
4353.000000	63.451671 
4352.000000	63.426423 
4351.000000	63.404703 
4350.000000	63.391733 
4349.000000	63.389158 
4348.000000	63.395357 
4347.000000	63.405585 
4346.000000	63.414216 
4345.000000	63.416814 
4344.000000	63.411831 
4343.000000	63.401341 
4342.000000	63.390088 
4341.000000	63.384318 
4340.000000	63.388681 
4339.000000	63.404369 
4338.000000	63.428258 
4337.000000	63.453578 
4336.000000	63.471031 
4335.000000	63.471364 
4334.000000	63.447952 
4333.000000	63.398909 
4332.000000	63.328027 
4331.000000	63.244199 
4330.000000	63.159656 
4329.000000	63.087415 
4328.000000	63.038253 
4327.000000	63.018465 
4326.000000	63.028788 
4325.000000	63.064050 
4324.000000	63.114452 
4323.000000	63.167667 
4322.000000	63.211274 
4321.000000	63.235974 
4320.000000	63.237094 
4319.000000	63.215780 
4318.000000	63.177585 
4317.000000	63.131570 
4316.000000	63.087296 
4315.000000	63.052773 
4314.000000	63.032722 
4313.000000	63.027811 
4312.000000	63.035416 
4311.000000	63.050699 
4310.000000	63.068604 
4309.000000	63.084721 
4308.000000	63.096594 
4307.000000	63.103532 
4306.000000	63.106417 
4305.000000	63.106584 
4304.000000	63.105106 
4303.000000	63.102436 
4302.000000	63.098120 
4301.000000	63.091611 
4300.000000	63.082218 
4299.000000	63.070273 
4298.000000	63.056492 
4297.000000	63.041973 
4296.000000	63.027238 
4295.000000	63.012099 
4294.000000	62.995362 
4293.000000	62.974882 
4292.000000	62.948608 
4291.000000	62.915158 
4290.000000	62.875032 
4289.000000	62.831282 
4288.000000	62.788963 
4287.000000	62.753915 
4286.000000	62.731504 
4285.000000	62.725043 
4284.000000	62.734961 
4283.000000	62.758421 
4282.000000	62.790632 
4281.000000	62.825989 
4280.000000	62.859797 
4279.000000	62.889432 
4278.000000	62.914466 
4277.000000	62.936282 
4276.000000	62.956762 
4275.000000	62.977123 
4274.000000	62.996983 
4273.000000	63.014197 
4272.000000	63.025379 
4271.000000	63.026905 
4270.000000	63.016510 
4269.000000	62.993907 
4268.000000	62.961959 
4267.000000	62.925553 
4266.000000	62.890768 
4265.000000	62.863302 
4264.000000	62.847161 
4263.000000	62.843585 
4262.000000	62.850594 
4261.000000	62.863802 
4260.000000	62.877798 
4259.000000	62.887382 
4258.000000	62.888765 
4257.000000	62.880635 
4256.000000	62.864208 
4255.000000	62.842798 
4254.000000	62.820553 
4253.000000	62.801623 
4252.000000	62.788796 
4251.000000	62.782955 
4250.000000	62.782645 
4249.000000	62.784624 
4248.000000	62.784695 
4247.000000	62.778997 
4246.000000	62.764906 
4245.000000	62.741613 
4244.000000	62.710642 
4243.000000	62.675404 
4242.000000	62.640905 
4241.000000	62.612199 
4240.000000	62.594056 
4239.000000	62.589645 
4238.000000	62.600326 
4237.000000	62.625241 
4236.000000	62.661600 
4235.000000	62.705087 
4234.000000	62.750840 
4233.000000	62.793993 
4232.000000	62.830805 
4231.000000	62.858939 
4230.000000	62.877964 
4229.000000	62.888979 
4228.000000	62.894225 
4227.000000	62.896394 
4226.000000	62.898087 
4225.000000	62.901258 
4224.000000	62.906575 
4223.000000	62.913465 
4222.000000	62.920498 
4221.000000	62.925815 
4220.000000	62.927746 
4219.000000	62.925004 
4218.000000	62.917232 
4217.000000	62.905097 
4216.000000	62.890148 
4215.000000	62.874364 
4214.000000	62.859582 
4213.000000	62.847161 
4212.000000	62.838554 
4211.000000	62.834072 
4210.000000	62.833213 
4209.000000	62.834501 
4208.000000	62.835955 
4207.000000	62.835359 
4206.000000	62.830376 
4205.000000	62.820148 
4204.000000	62.805366 
4203.000000	62.788701 
4202.000000	62.774062 
4201.000000	62.766361 
4200.000000	62.770032 
4199.000000	62.788248 
4198.000000	62.821578 
4197.000000	62.867546 
4196.000000	62.920784 
4195.000000	62.974452 
4194.000000	63.021183 
4193.000000	63.054990 
4192.000000	63.071632 
4191.000000	63.069939 
4190.000000	63.050317 
4189.000000	63.014841 
4188.000000	62.965106 
4187.000000	62.902474 
4186.000000	62.827205 
4185.000000	62.740015 
4184.000000	62.641716 
4183.000000	62.535309 
4182.000000	62.425088 
4181.000000	62.316823 
4180.000000	62.216925 
4179.000000	62.130832 
4178.000000	62.062954 
4177.000000	62.015295 
4176.000000	61.988472 
4175.000000	61.981511 
4174.000000	61.993741 
4173.000000	62.024855 
4172.000000	62.075424 
4171.000000	62.145948 
4170.000000	62.235713 
4169.000000	62.341547 
4168.000000	62.456989 
4167.000000	62.572383 
4166.000000	62.676191 
4165.000000	62.756633 
4164.000000	62.804675 
4163.000000	62.815403 
4162.000000	62.789320 
4161.000000	62.731957 
4160.000000	62.653374 
4159.000000	62.565493 
