PE IR       SPECTRUM    SPECTRUM    ASCII       PEDS        1.60        
  -1
C-1A6E~1.ASC
17/03/27
15:45:23.00
17/03/27
15:45:23.00
tln
$C-4040-8_t0016$<tbV0>[2.6,-10.4,8.0,0.0,27,1,0]
370.000000
64









2002,4.07    
MIRTGS : RIGHTBACK : INTERNAL 2
MIR : ON : INTERNAL 2
OPTKBR

0.200000
8
8.000000
FILLER
RATIO
SPECTRUM
UNLOCKED 256

DOUBLE
64
COMBINED
1
0
0


1.000000
RATIO


1
0
TRUE
51149
0
LEFT NOT FITTED RIGHT NOT FITTED 0
NONE
NONE
15600
12.000000
4.427000
51148
TRUE
1 0 8 72 0 0 0 0 

15798.010000






#HDR
-1
-1
#GR
CM-1
%T
0.00002384185791015625
0.0
5000.000000
-1.000000
4631
8
70.348167
6.412982
#DATA
5000.000000	63.728713 
4999.000000	63.567972 
4998.000000	63.421201 
4997.000000	63.303995 
4996.000000	63.229298 
4995.000000	63.205599 
4994.000000	63.235044 
4993.000000	63.312101 
4992.000000	63.425254 
4991.000000	63.558721 
4990.000000	63.694834 
4989.000000	63.816022 
4988.000000	63.908123 
4987.000000	63.961505 
4986.000000	63.972592 
4985.000000	63.943576 
4984.000000	63.880872 
4983.000000	63.793087 
4982.000000	63.689565 
4981.000000	63.578891 
4980.000000	63.468074 
4979.000000	63.362908 
4978.000000	63.267803 
4977.000000	63.187360 
4976.000000	63.128447 
4975.000000	63.099288 
4974.000000	63.107228 
4973.000000	63.156294 
4972.000000	63.245415 
4971.000000	63.365936 
4970.000000	63.501763 
4969.000000	63.631105 
4968.000000	63.728713 
4967.000000	63.772845 
4966.000000	63.750123 
4965.000000	63.659787 
4964.000000	63.512897 
4963.000000	63.332772 
4962.000000	63.149905 
4961.000000	62.995886 
4960.000000	62.896776 
4959.000000	62.867903 
4958.000000	62.910842 
4957.000000	63.015127 
4956.000000	63.160920 
4955.000000	63.322806 
4954.000000	63.474202 
4953.000000	63.589143 
4952.000000	63.646006 
4951.000000	63.628482 
4950.000000	63.528704 
4949.000000	63.346648 
4948.000000	63.092851 
4947.000000	62.787556 
4946.000000	62.460517 
4945.000000	62.145519 
4944.000000	61.878228 
4943.000000	61.690020 
4942.000000	61.604928 
4941.000000	61.634993 
4940.000000	61.779284 
4939.000000	62.023639 
4938.000000	62.342023 
4937.000000	62.699699 
4936.000000	63.057971 
4935.000000	63.378524 
4934.000000	63.628840 
4933.000000	63.785028 
4932.000000	63.836932 
4931.000000	63.788199 
4930.000000	63.656568 
4929.000000	63.469910 
4928.000000	63.263392 
4927.000000	63.072729 
4926.000000	62.928128 
4925.000000	62.848901 
4924.000000	62.841057 
4923.000000	62.897229 
4922.000000	63.000178 
4921.000000	63.128161 
4920.000000	63.258743 
4919.000000	63.375854 
4918.000000	63.471317 
4917.000000	63.547086 
4916.000000	63.610434 
4915.000000	63.673162 
4914.000000	63.744688 
4913.000000	63.831567 
4912.000000	63.934659 
4911.000000	64.050269 
4910.000000	64.172673 
4909.000000	64.295053 
4908.000000	64.413213 
4907.000000	64.523315 
4906.000000	64.623093 
4905.000000	64.708828 
4904.000000	64.775109 
4903.000000	64.816117 
4902.000000	64.826893 
4901.000000	64.805221 
4900.000000	64.752650 
4899.000000	64.675402 
4898.000000	64.582800 
4897.000000	64.486122 
4896.000000	64.395046 
4895.000000	64.315652 
4894.000000	64.248251 
4893.000000	64.189052 
4892.000000	64.130353 
4891.000000	64.063763 
4890.000000	63.982105 
4889.000000	63.881731 
4888.000000	63.763689 
4887.000000	63.633441 
4886.000000	63.500332 
4885.000000	63.373208 
4884.000000	63.261842 
4883.000000	63.173890 
4882.000000	63.115739 
4881.000000	63.090562 
4880.000000	63.099932 
4879.000000	63.143229 
4878.000000	63.217473 
4877.000000	63.316583 
4876.000000	63.431811 
4875.000000	63.552069 
4874.000000	63.664817 
4873.000000	63.757705 
4872.000000	63.820362 
4871.000000	63.846421 
4870.000000	63.835239 
4869.000000	63.791847 
4868.000000	63.726305 
4867.000000	63.651657 
4866.000000	63.582086 
4865.000000	63.529729 
4864.000000	63.502836 
4863.000000	63.504004 
4862.000000	63.531446 
4861.000000	63.578915 
4860.000000	63.637804 
4859.000000	63.698720 
4858.000000	63.753557 
4857.000000	63.796639 
4856.000000	63.824605 
4855.000000	63.837456 
4854.000000	63.837122 
4853.000000	63.827705 
4852.000000	63.813924 
4851.000000	63.801121 
4850.000000	63.794469 
4849.000000	63.798522 
4848.000000	63.816618 
4847.000000	63.850188 
4846.000000	63.898515 
4845.000000	63.959097 
4844.000000	64.027833 
4843.000000	64.099144 
4842.000000	64.166545 
4841.000000	64.223957 
4840.000000	64.265847 
4839.000000	64.288282 
4838.000000	64.289355 
4837.000000	64.269328 
4836.000000	64.230346 
4835.000000	64.176702 
4834.000000	64.113521 
4833.000000	64.046454 
4832.000000	63.980507 
4831.000000	63.919997 
4830.000000	63.867735 
4829.000000	63.825392 
4828.000000	63.792991 
4827.000000	63.769435 
4826.000000	63.752865 
4825.000000	63.741517 
4824.000000	63.733410 
4823.000000	63.726353 
4822.000000	63.717961 
4821.000000	63.705921 
4820.000000	63.688230 
4819.000000	63.663864 
4818.000000	63.633632 
4817.000000	63.600397 
4816.000000	63.569068 
4815.000000	63.545799 
4814.000000	63.536572 
4813.000000	63.545656 
4812.000000	63.574099 
4811.000000	63.619089 
4810.000000	63.674759 
4809.000000	63.733077 
4808.000000	63.785552 
4807.000000	63.824748 
4806.000000	63.846325 
4805.000000	63.849043 
4804.000000	63.835072 
4803.000000	63.808298 
4802.000000	63.773012 
4801.000000	63.732957 
4800.000000	63.690853 
4799.000000	63.648557 
4798.000000	63.607478 
4797.000000	63.569617 
4796.000000	63.538050 
4795.000000	63.516783 
4794.000000	63.509750 
4793.000000	63.519740 
4792.000000	63.547325 
4791.000000	63.590455 
4790.000000	63.644266 
4789.000000	63.702058 
4788.000000	63.756203 
4787.000000	63.799643 
4786.000000	63.827204 
4785.000000	63.836073 
4784.000000	63.826513 
4783.000000	63.800740 
4782.000000	63.762903 
4781.000000	63.718152 
4780.000000	63.671731 
4779.000000	63.628768 
4778.000000	63.593316 
4777.000000	63.568806 
4776.000000	63.557004 
4775.000000	63.558363 
4774.000000	63.571619 
4773.000000	63.593554 
4772.000000	63.620018 
4771.000000	63.646459 
4770.000000	63.668775 
4769.000000	63.683867 
4768.000000	63.689970 
4767.000000	63.686728 
4766.000000	63.675093 
4765.000000	63.656830 
4764.000000	63.634204 
4763.000000	63.609337 
4762.000000	63.584256 
4761.000000	63.560676 
4760.000000	63.540005 
4759.000000	63.523769 
4758.000000	63.513350 
4757.000000	63.510560 
4756.000000	63.517570 
4755.000000	63.536453 
4754.000000	63.568305 
4753.000000	63.612484 
4752.000000	63.666582 
4751.000000	63.725948 
4750.000000	63.784027 
4749.000000	63.833260 
4748.000000	63.866519 
4747.000000	63.878560 
4746.000000	63.867115 
4745.000000	63.833498 
4744.000000	63.782572 
4743.000000	63.721489 
4742.000000	63.658499 
4741.000000	63.600945 
4740.000000	63.554048 
4739.000000	63.520026 
4738.000000	63.498473 
4737.000000	63.487100 
4736.000000	63.482856 
4735.000000	63.483166 
4734.000000	63.486599 
4733.000000	63.492798 
4732.000000	63.501930 
4731.000000	63.513803 
4730.000000	63.526844 
4729.000000	63.538098 
4728.000000	63.543224 
4727.000000	63.537716 
4726.000000	63.517689 
4725.000000	63.481307 
4724.000000	63.428950 
4723.000000	63.364195 
4722.000000	63.292264 
4721.000000	63.218808 
4720.000000	63.149118 
4719.000000	63.087034 
4718.000000	63.034701 
4717.000000	62.992739 
4716.000000	62.961173 
4715.000000	62.940120 
4714.000000	62.930369 
4713.000000	62.933206 
4712.000000	62.949943 
4711.000000	62.981128 
4710.000000	63.024950 
4709.000000	63.077163 
4708.000000	63.131046 
4707.000000	63.178753 
4706.000000	63.212728 
4705.000000	63.227581 
4704.000000	63.221216 
4703.000000	63.195705 
4702.000000	63.156867 
4701.000000	63.113570 
4700.000000	63.075232 
4699.000000	63.050937 
4698.000000	63.047122 
4697.000000	63.067531 
4696.000000	63.112640 
4695.000000	63.179922 
4694.000000	63.264656 
4693.000000	63.360762 
4692.000000	63.461709 
4691.000000	63.561010 
4690.000000	63.652682 
4689.000000	63.732099 
4688.000000	63.795900 
4687.000000	63.842606 
4686.000000	63.872528 
4685.000000	63.887786 
4684.000000	63.891601 
4683.000000	63.887381 
4682.000000	63.877534 
4681.000000	63.863277 
4680.000000	63.843941 
4679.000000	63.817930 
4678.000000	63.783407 
4677.000000	63.739347 
4676.000000	63.686990 
4675.000000	63.630199 
4674.000000	63.575434 
4673.000000	63.530158 
4672.000000	63.501763 
4671.000000	63.495659 
4670.000000	63.514137 
4669.000000	63.555479 
4668.000000	63.613867 
4667.000000	63.680672 
4666.000000	63.745999 
4665.000000	63.800525 
4664.000000	63.837385 
4663.000000	63.853096 
4662.000000	63.847613 
4661.000000	63.823461 
4660.000000	63.785314 
4659.000000	63.738775 
4658.000000	63.689041 
4657.000000	63.640213 
4656.000000	63.595867 
4655.000000	63.558602 
4654.000000	63.530182 
4653.000000	63.511228 
4652.000000	63.501453 
4651.000000	63.499355 
4650.000000	63.501715 
4649.000000	63.504910 
4648.000000	63.504600 
4647.000000	63.498067 
4646.000000	63.484072 
4645.000000	63.464593 
4644.000000	63.443970 
4643.000000	63.428521 
4642.000000	63.425159 
4641.000000	63.438796 
4640.000000	63.470649 
4639.000000	63.517618 
4638.000000	63.572716 
4637.000000	63.626480 
4636.000000	63.669204 
4635.000000	63.693380 
4634.000000	63.695406 
4633.000000	63.675761 
4632.000000	63.638401 
4631.000000	63.589334 
4630.000000	63.534832 
4629.000000	63.479709 
4628.000000	63.426661 
4627.000000	63.376712 
4626.000000	63.330006 
4625.000000	63.286542 
4624.000000	63.247132 
4623.000000	63.213920 
4622.000000	63.190364 
4621.000000	63.179802 
4620.000000	63.185119 
4619.000000	63.206577 
4618.000000	63.242697 
4617.000000	63.289451 
4616.000000	63.341903 
4615.000000	63.394570 
4614.000000	63.443326 
4613.000000	63.485908 
4612.000000	63.522434 
4611.000000	63.554501 
4610.000000	63.584566 
4609.000000	63.615059 
4608.000000	63.647556 
4607.000000	63.682246 
4606.000000	63.718438 
4605.000000	63.754892 
4604.000000	63.790321 
4603.000000	63.824033 
4602.000000	63.856291 
4601.000000	63.887906 
4600.000000	63.919997 
4599.000000	63.953089 
4598.000000	63.986349 
4597.000000	64.017462 
4596.000000	64.043474 
4595.000000	64.061021 
4594.000000	64.067983 
4593.000000	64.063191 
4592.000000	64.047789 
4591.000000	64.023613 
4590.000000	63.993000 
4589.000000	63.957715 
4588.000000	63.918757 
4587.000000	63.876605 
4586.000000	63.831901 
4585.000000	63.786172 
4584.000000	63.742041 
4583.000000	63.703203 
4582.000000	63.674259 
4581.000000	63.658213 
4580.000000	63.655543 
4579.000000	63.664007 
4578.000000	63.678979 
4577.000000	63.693904 
4576.000000	63.702154 
4575.000000	63.699507 
4574.000000	63.685441 
4573.000000	63.662958 
4572.000000	63.637566 
4571.000000	63.616037 
4570.000000	63.604283 
4569.000000	63.604831 
4568.000000	63.616919 
4567.000000	63.636326 
4566.000000	63.657426 
4565.000000	63.675403 
4564.000000	63.687562 
4563.000000	63.694381 
4562.000000	63.698911 
4561.000000	63.705849 
4560.000000	63.718438 
4559.000000	63.736796 
4558.000000	63.756728 
4557.000000	63.770794 
4556.000000	63.769125 
4555.000000	63.742280 
4554.000000	63.684082 
4553.000000	63.594365 
4552.000000	63.478183 
4551.000000	63.345170 
4550.000000	63.207221 
4549.000000	63.076186 
4548.000000	62.960553 
4547.000000	62.864851 
4546.000000	62.789225 
4545.000000	62.731409 
4544.000000	62.688302 
4543.000000	62.658643 
4542.000000	62.643146 
4541.000000	62.645244 
4540.000000	62.668490 
4539.000000	62.716031 
4538.000000	62.787151 
4537.000000	62.878298 
4536.000000	62.981772 
4535.000000	63.088345 
4534.000000	63.188409 
4533.000000	63.274645 
4532.000000	63.343262 
4531.000000	63.394641 
4530.000000	63.432240 
4529.000000	63.462114 
4528.000000	63.490843 
4527.000000	63.524293 
4526.000000	63.566184 
4525.000000	63.617324 
4524.000000	63.675713 
4523.000000	63.737154 
4522.000000	63.796591 
4521.000000	63.849210 
4520.000000	63.891410 
4519.000000	63.922119 
4518.000000	63.942384 
4517.000000	63.953852 
4516.000000	63.958907 
4515.000000	63.960552 
4514.000000	63.961911 
4513.000000	63.966608 
4512.000000	63.977289 
4511.000000	63.997459 
4510.000000	64.027547 
4509.000000	64.064884 
4508.000000	64.102959 
4507.000000	64.132404 
4506.000000	64.143586 
4505.000000	64.129829 
4504.000000	64.088702 
4503.000000	64.023447 
4502.000000	63.941764 
4501.000000	63.854312 
4500.000000	63.771176 
4499.000000	63.699650 
4498.000000	63.642477 
4497.000000	63.598346 
4496.000000	63.562822 
4495.000000	63.530945 
4494.000000	63.500261 
4493.000000	63.472270 
4492.000000	63.451671 
4491.000000	63.445782 
4490.000000	63.459444 
4489.000000	63.495898 
4488.000000	63.552713 
4487.000000	63.625907 
4486.000000	63.711380 
4485.000000	63.806152 
4484.000000	63.912773 
4483.000000	64.032578 
4482.000000	64.161205 
4481.000000	64.288926 
4480.000000	64.401125 
4479.000000	64.481878 
4478.000000	64.516425 
4477.000000	64.498829 
4476.000000	64.436602 
4475.000000	64.346909 
4474.000000	64.253640 
4473.000000	64.179086 
4472.000000	64.138245 
4471.000000	64.135527 
4470.000000	64.164948 
4469.000000	64.210820 
4468.000000	64.253115 
4467.000000	64.278554 
4466.000000	64.283967 
4465.000000	64.273929 
4464.000000	64.260244 
4463.000000	64.255452 
4462.000000	64.273071 
4461.000000	64.316010 
4460.000000	64.387750 
4459.000000	64.491415 
4458.000000	64.638710 
4457.000000	64.847731 
4456.000000	65.142607 
4455.000000	65.546154 
4454.000000	66.070938 
4453.000000	66.709899 
4452.000000	67.433047 
4451.000000	68.189907 
4450.000000	68.914914 
4449.000000	69.542503 
4448.000000	70.013189 
4447.000000	70.288419 
4446.000000	70.348167 
4445.000000	70.196008 
4444.000000	69.844651 
4443.000000	69.313168 
4442.000000	68.620991 
4441.000000	67.789053 
4440.000000	66.843986 
4439.000000	65.822410 
4438.000000	64.777779 
4437.000000	63.776254 
4436.000000	62.888836 
4435.000000	62.180399 
4434.000000	61.690831 
4433.000000	61.433863 
4432.000000	61.389636 
4431.000000	61.516714 
4430.000000	61.753630 
4429.000000	62.040829 
4428.000000	62.325477 
4427.000000	62.575674 
4426.000000	62.773466 
4425.000000	62.921094 
4424.000000	63.029360 
4423.000000	63.112711 
4422.000000	63.178706 
4421.000000	63.227319 
4420.000000	63.251662 
4419.000000	63.240432 
4418.000000	63.183522 
4417.000000	63.082289 
4416.000000	62.953543 
4415.000000	62.820625 
4414.000000	62.708616 
4413.000000	62.638974 
4412.000000	62.622666 
4411.000000	62.657856 
4410.000000	62.729883 
4409.000000	62.809562 
4408.000000	62.864565 
4407.000000	62.874865 
4406.000000	62.835836 
4405.000000	62.754940 
4404.000000	62.652134 
4403.000000	62.556600 
4402.000000	62.495517 
4401.000000	62.478876 
4400.000000	62.506222 
4399.000000	62.565374 
4398.000000	62.642693 
4397.000000	62.732100 
4396.000000	62.832307 
4395.000000	62.954592 
4394.000000	63.096308 
4393.000000	63.239502 
4392.000000	63.333010 
4391.000000	63.301539 
4390.000000	63.052868 
4389.000000	62.505769 
4388.000000	61.618328 
4387.000000	60.414624 
4386.000000	58.998990 
4385.000000	57.547903 
4384.000000	56.279182 
4383.000000	55.408620 
4382.000000	55.097293 
4381.000000	55.418324 
4380.000000	56.328916 
4379.000000	57.690668 
4378.000000	59.299612 
4377.000000	60.938167 
4376.000000	62.416505 
4375.000000	63.612580 
4374.000000	64.477157 
4373.000000	65.036916 
4372.000000	65.357160 
4371.000000	65.527677 
4370.000000	65.628218 
4369.000000	65.715241 
4368.000000	65.820598 
4367.000000	65.944862 
4366.000000	66.077184 
4365.000000	66.196465 
4364.000000	66.291069 
4363.000000	66.351556 
4362.000000	66.376471 
4361.000000	66.365385 
4360.000000	66.318273 
4359.000000	66.233944 
4358.000000	66.110277 
4357.000000	65.950798 
4356.000000	65.762782 
4355.000000	65.556955 
4354.000000	65.344429 
4353.000000	65.136718 
4352.000000	64.942359 
4351.000000	64.764046 
4350.000000	64.601087 
4349.000000	64.451456 
4348.000000	64.313578 
4347.000000	64.189887 
4346.000000	64.084267 
4345.000000	63.994836 
4344.000000	63.920855 
4343.000000	63.864421 
4342.000000	63.826060 
4341.000000	63.801121 
4340.000000	63.784384 
4339.000000	63.770318 
4338.000000	63.754248 
4337.000000	63.732695 
4336.000000	63.704538 
4335.000000	63.670825 
4334.000000	63.634133 
4333.000000	63.597607 
4332.000000	63.564205 
4331.000000	63.535952 
4330.000000	63.514232 
4329.000000	63.499379 
4328.000000	63.490653 
4327.000000	63.486337 
4326.000000	63.485026 
4325.000000	63.484835 
4324.000000	63.483262 
4323.000000	63.477921 
4322.000000	63.467121 
4321.000000	63.450312 
4320.000000	63.426971 
4319.000000	63.398289 
4318.000000	63.367104 
4317.000000	63.337278 
4316.000000	63.312363 
4315.000000	63.295459 
4314.000000	63.288450 
4313.000000	63.291287 
4312.000000	63.301777 
4311.000000	63.316726 
4310.000000	63.332867 
4309.000000	63.348603 
4308.000000	63.364458 
4307.000000	63.383364 
4306.000000	63.409519 
4305.000000	63.446593 
4304.000000	63.496112 
4303.000000	63.556337 
4302.000000	63.621926 
4301.000000	63.685250 
4300.000000	63.737797 
4299.000000	63.772821 
4298.000000	63.786530 
4297.000000	63.778662 
4296.000000	63.752222 
4295.000000	63.712596 
4294.000000	63.666176 
4293.000000	63.618993 
4292.000000	63.575863 
4291.000000	63.540363 
4290.000000	63.514161 
4289.000000	63.497829 
4288.000000	63.490581 
4287.000000	63.491344 
4286.000000	63.497996 
4285.000000	63.507747 
4284.000000	63.516950 
4283.000000	63.521718 
4282.000000	63.518548 
4281.000000	63.505077 
4280.000000	63.480854 
4279.000000	63.447833 
4278.000000	63.410377 
4277.000000	63.374590 
4276.000000	63.346719 
4275.000000	63.331389 
4274.000000	63.330960 
4273.000000	63.344550 
4272.000000	63.367938 
4271.000000	63.395047 
4270.000000	63.419461 
4269.000000	63.436460 
4268.000000	63.443636 
4267.000000	63.441824 
4266.000000	63.434576 
4265.000000	63.427257 
4264.000000	63.425111 
4263.000000	63.431954 
4262.000000	63.449025 
4261.000000	63.474702 
4260.000000	63.505530 
4259.000000	63.536572 
4258.000000	63.562822 
4257.000000	63.580250 
4256.000000	63.586807 
4255.000000	63.582110 
4254.000000	63.567280 
4253.000000	63.544392 
4252.000000	63.515710 
4251.000000	63.483452 
4250.000000	63.449239 
4249.000000	63.414454 
4248.000000	63.379979 
4247.000000	63.346362 
4246.000000	63.314008 
4245.000000	63.283014 
4244.000000	63.253712 
4243.000000	63.226509 
4242.000000	63.202643 
4241.000000	63.183069 
4240.000000	63.169360 
4239.000000	63.163161 
4238.000000	63.166022 
4237.000000	63.178277 
4236.000000	63.199472 
4235.000000	63.228178 
4234.000000	63.262200 
4233.000000	63.298535 
4232.000000	63.334155 
4231.000000	63.366460 
4230.000000	63.393688 
4229.000000	63.415050 
4228.000000	63.430905 
4227.000000	63.442659 
4226.000000	63.452053 
4225.000000	63.460683 
4224.000000	63.470005 
4223.000000	63.480687 
4222.000000	63.492751 
4221.000000	63.504862 
4220.000000	63.515448 
4219.000000	63.521933 
4218.000000	63.521909 
4217.000000	63.513207 
4216.000000	63.494157 
4215.000000	63.463926 
4214.000000	63.423275 
4213.000000	63.374137 
4212.000000	63.319253 
4211.000000	63.262009 
4210.000000	63.206386 
4209.000000	63.156247 
4208.000000	63.114523 
4207.000000	63.083362 
4206.000000	63.063669 
4205.000000	63.055062 
4204.000000	63.055777 
4203.000000	63.063120 
4202.000000	63.073706 
4201.000000	63.083481 
4200.000000	63.088107 
4199.000000	63.083529 
4198.000000	63.066244 
4197.000000	63.033890 
4196.000000	62.985706 
4195.000000	62.922525 
4194.000000	62.847375 
4193.000000	62.765192 
4192.000000	62.682819 
4191.000000	62.607765 
4190.000000	62.547898 
4189.000000	62.509918 
4188.000000	62.498974 
4187.000000	62.516951 
4186.000000	62.562632 
4185.000000	62.631273 
4184.000000	62.715625 
4183.000000	62.806344 
4182.000000	62.894344 
4181.000000	62.971591 
4180.000000	63.033366 
4179.000000	63.078141 
4178.000000	63.108706 
4177.000000	63.130521 
4176.000000	63.150930 
4175.000000	63.177061 
4174.000000	63.213729 
4173.000000	63.262176 
4172.000000	63.319492 
4171.000000	63.379383 
4170.000000	63.432979 
4169.000000	63.471078 
4168.000000	63.486361 
4167.000000	63.475203 
4166.000000	63.438487 
4165.000000	63.381290 
4164.000000	63.312506 
4163.000000	63.242459 
4162.000000	63.180613 
4161.000000	63.133788 
4160.000000	63.105702 
4159.000000	63.095545 
