PE IR       SPECTRUM    SPECTRUM    ASCII       PEDS        1.60        
  -1
C-9BE4~1.ASC
17/03/27
17:48:30.00
17/03/27
17:48:30.00
tln
$C-4040-8_t0041$<tbV0>[-5.2,-5.2,8.0,0.0,27,1,0]
370.000000
64









2002,4.07    
MIRTGS : RIGHTBACK : INTERNAL 2
MIR : ON : INTERNAL 2
OPTKBR

0.200000
8
8.000000
FILLER
RATIO
SPECTRUM
UNLOCKED 256

DOUBLE
64
COMBINED
1
0
0


1.000000
RATIO


1
0
TRUE
51149
0
LEFT NOT FITTED RIGHT NOT FITTED 0
NONE
NONE
15600
12.000000
4.427000
51148
TRUE
1 0 8 72 0 0 0 0 

15798.010000






#HDR
-1
-1
#GR
CM-1
%T
0.00002384185791015625
0.0
5000.000000
-1.000000
4631
8
79.008364
16.282439
#DATA
5000.000000	63.632750 
4999.000000	63.563704 
4998.000000	63.518857 
4997.000000	63.501691 
4996.000000	63.511157 
4995.000000	63.542032 
4994.000000	63.585638 
4993.000000	63.631319 
4992.000000	63.668441 
4991.000000	63.687467 
4990.000000	63.682937 
4989.000000	63.653707 
4988.000000	63.603973 
4987.000000	63.541913 
4986.000000	63.478040 
4985.000000	63.422918 
4984.000000	63.384556 
4983.000000	63.366818 
4982.000000	63.368701 
4981.000000	63.384985 
4980.000000	63.408517 
4979.000000	63.432383 
4978.000000	63.451170 
4977.000000	63.462901 
4976.000000	63.468837 
4975.000000	63.473677 
4974.000000	63.481998 
4973.000000	63.499021 
4972.000000	63.528180 
4971.000000	63.571834 
4970.000000	63.630652 
4969.000000	63.704180 
4968.000000	63.790941 
4967.000000	63.888502 
4966.000000	63.993859 
4965.000000	64.102816 
4964.000000	64.210367 
4963.000000	64.310479 
4962.000000	64.396643 
4961.000000	64.463067 
4960.000000	64.506006 
4959.000000	64.524102 
4958.000000	64.518928 
4957.000000	64.493656 
4956.000000	64.452195 
4955.000000	64.398002 
4954.000000	64.332962 
4953.000000	64.256691 
4952.000000	64.166760 
4951.000000	64.060950 
4950.000000	63.938403 
4949.000000	63.800764 
4948.000000	63.653588 
4947.000000	63.505673 
4946.000000	63.368797 
4945.000000	63.255739 
4944.000000	63.177824 
4943.000000	63.141679 
4942.000000	63.147711 
4941.000000	63.189506 
4940.000000	63.254499 
4939.000000	63.325691 
4938.000000	63.385748 
4937.000000	63.420081 
4936.000000	63.420128 
4935.000000	63.383960 
4934.000000	63.317131 
4933.000000	63.230347 
4932.000000	63.137340 
4931.000000	63.051462 
4930.000000	62.983226 
4929.000000	62.938976 
4928.000000	62.921094 
4927.000000	62.928938 
4926.000000	62.960600 
4925.000000	63.013744 
4924.000000	63.086462 
4923.000000	63.176345 
4922.000000	63.278937 
4921.000000	63.387107 
4920.000000	63.490581 
4919.000000	63.577747 
4918.000000	63.637065 
4917.000000	63.660335 
4916.000000	63.645362 
4915.000000	63.596487 
4914.000000	63.524317 
4913.000000	63.443017 
4912.000000	63.367652 
4911.000000	63.310790 
4910.000000	63.279867 
4909.000000	63.277149 
4908.000000	63.300132 
4907.000000	63.344001 
4906.000000	63.403820 
4905.000000	63.476085 
4904.000000	63.559198 
4903.000000	63.651919 
4902.000000	63.751959 
4901.000000	63.854002 
4900.000000	63.949584 
4899.000000	64.028048 
4898.000000	64.078712 
4897.000000	64.095115 
4896.000000	64.075994 
4895.000000	64.027094 
4894.000000	63.958597 
4893.000000	63.884234 
4892.000000	63.815736 
4891.000000	63.760900 
4890.000000	63.720369 
4889.000000	63.688206 
4888.000000	63.654422 
4887.000000	63.608527 
4886.000000	63.544130 
4885.000000	63.460898 
4884.000000	63.366818 
4883.000000	63.276362 
4882.000000	63.207244 
4881.000000	63.174986 
4880.000000	63.189005 
4879.000000	63.248944 
4878.000000	63.344860 
4877.000000	63.459086 
4876.000000	63.570666 
4875.000000	63.660335 
4874.000000	63.714671 
4873.000000	63.729286 
4872.000000	63.709855 
4871.000000	63.670206 
4870.000000	63.627958 
4869.000000	63.599848 
4868.000000	63.598537 
4867.000000	63.629007 
4866.000000	63.688921 
4865.000000	63.768458 
4864.000000	63.855004 
4863.000000	63.933992 
4862.000000	63.994169 
4861.000000	64.027309 
4860.000000	64.029192 
4859.000000	64.000177 
4858.000000	63.943743 
4857.000000	63.866806 
4856.000000	63.777780 
4855.000000	63.686800 
4854.000000	63.604879 
4853.000000	63.541936 
4852.000000	63.505983 
4851.000000	63.500785 
4850.000000	63.525652 
4849.000000	63.573741 
4848.000000	63.633561 
4847.000000	63.690495 
4846.000000	63.730168 
4845.000000	63.741564 
4844.000000	63.719844 
4843.000000	63.666701 
4842.000000	63.590049 
4841.000000	63.501787 
4840.000000	63.415098 
4839.000000	63.340735 
4838.000000	63.285899 
4837.000000	63.253211 
4836.000000	63.241791 
4835.000000	63.248419 
4834.000000	63.269329 
4833.000000	63.301372 
4832.000000	63.342595 
4831.000000	63.390922 
4830.000000	63.444972 
4829.000000	63.502430 
4828.000000	63.560676 
4827.000000	63.615822 
4826.000000	63.664197 
4825.000000	63.702583 
4824.000000	63.729453 
4823.000000	63.745546 
4822.000000	63.752961 
4821.000000	63.754558 
4820.000000	63.753342 
4819.000000	63.751578 
4818.000000	63.750171 
4817.000000	63.748335 
4816.000000	63.744521 
4815.000000	63.736629 
4814.000000	63.722920 
4813.000000	63.702130 
4812.000000	63.673806 
4811.000000	63.638496 
4810.000000	63.597583 
4809.000000	63.553261 
4808.000000	63.508296 
4807.000000	63.465619 
4806.000000	63.427710 
4805.000000	63.396573 
4804.000000	63.373446 
4803.000000	63.358950 
4802.000000	63.352942 
4801.000000	63.354659 
4800.000000	63.362550 
4799.000000	63.374829 
4798.000000	63.389539 
4797.000000	63.405156 
4796.000000	63.420629 
4795.000000	63.436007 
4794.000000	63.452196 
4793.000000	63.470911 
4792.000000	63.493800 
4791.000000	63.521933 
4790.000000	63.554883 
4789.000000	63.590502 
4788.000000	63.624763 
4787.000000	63.652372 
4786.000000	63.667798 
4785.000000	63.666629 
4784.000000	63.646984 
4783.000000	63.610291 
4782.000000	63.561153 
4781.000000	63.507127 
4780.000000	63.456916 
4779.000000	63.417816 
4778.000000	63.395261 
4777.000000	63.391160 
4776.000000	63.404560 
4775.000000	63.432049 
4774.000000	63.469552 
4773.000000	63.513278 
4772.000000	63.560867 
4771.000000	63.611268 
4770.000000	63.664436 
4769.000000	63.720297 
4768.000000	63.778257 
4767.000000	63.836693 
4766.000000	63.892674 
4765.000000	63.942217 
4764.000000	63.981294 
4763.000000	64.006471 
4762.000000	64.015746 
4761.000000	64.008975 
4760.000000	63.988208 
4759.000000	63.957619 
4758.000000	63.922429 
4757.000000	63.888883 
4756.000000	63.863325 
4755.000000	63.851380 
4754.000000	63.857221 
4753.000000	63.882231 
4752.000000	63.925194 
4751.000000	63.981652 
4750.000000	64.044690 
4749.000000	64.105987 
4748.000000	64.157199 
4747.000000	64.191651 
4746.000000	64.205646 
4745.000000	64.198708 
4744.000000	64.173436 
4743.000000	64.134764 
4742.000000	64.088559 
4741.000000	64.040803 
4740.000000	63.996291 
4739.000000	63.957834 
4738.000000	63.926196 
4737.000000	63.900375 
4736.000000	63.878512 
4735.000000	63.858151 
4734.000000	63.837289 
4733.000000	63.814878 
4732.000000	63.791155 
4731.000000	63.767194 
4730.000000	63.744759 
4729.000000	63.725662 
4728.000000	63.711404 
4727.000000	63.702702 
4726.000000	63.699412 
4725.000000	63.700127 
4724.000000	63.703036 
4723.000000	63.705921 
4722.000000	63.707447 
4721.000000	63.707327 
4720.000000	63.706541 
4719.000000	63.706851 
4718.000000	63.709974 
4717.000000	63.716888 
4716.000000	63.726902 
4715.000000	63.737511 
4714.000000	63.744974 
4713.000000	63.745164 
4712.000000	63.734745 
4711.000000	63.712239 
4710.000000	63.678169 
4709.000000	63.635516 
4708.000000	63.588809 
4707.000000	63.543844 
4706.000000	63.506388 
4705.000000	63.481593 
4704.000000	63.472962 
4703.000000	63.481831 
4702.000000	63.507246 
4701.000000	63.545918 
4700.000000	63.593125 
4699.000000	63.642859 
4698.000000	63.688445 
4697.000000	63.723921 
4696.000000	63.744711 
4695.000000	63.748717 
4694.000000	63.736414 
4693.000000	63.710999 
4692.000000	63.677906 
4691.000000	63.643550 
4690.000000	63.614010 
4689.000000	63.594055 
4688.000000	63.586235 
4687.000000	63.590598 
4686.000000	63.604807 
4685.000000	63.624906 
4684.000000	63.645982 
4683.000000	63.662815 
4682.000000	63.670969 
4681.000000	63.666582 
4680.000000	63.647508 
4679.000000	63.613247 
4678.000000	63.565874 
4677.000000	63.509535 
4676.000000	63.450646 
4675.000000	63.396954 
4674.000000	63.356399 
4673.000000	63.336133 
4672.000000	63.340401 
4671.000000	63.369655 
4670.000000	63.420319 
4669.000000	63.484764 
4668.000000	63.553738 
4667.000000	63.617587 
4666.000000	63.669157 
4665.000000	63.704729 
4664.000000	63.725352 
4663.000000	63.735938 
4662.000000	63.743710 
4661.000000	63.755750 
4660.000000	63.776636 
4659.000000	63.806700 
4658.000000	63.842058 
4657.000000	63.875555 
4656.000000	63.899040 
4655.000000	63.905715 
4654.000000	63.892364 
4653.000000	63.860273 
4652.000000	63.814783 
4651.000000	63.764119 
4650.000000	63.716912 
4649.000000	63.680648 
4648.000000	63.660240 
4647.000000	63.657236 
4646.000000	63.670539 
4645.000000	63.697075 
4644.000000	63.733077 
4643.000000	63.774919 
4642.000000	63.819718 
4641.000000	63.865208 
4640.000000	63.909387 
4639.000000	63.950133 
4638.000000	63.984847 
4637.000000	64.011073 
4636.000000	64.027190 
4635.000000	64.032411 
4634.000000	64.027142 
4633.000000	64.012479 
4632.000000	63.990116 
4631.000000	63.961696 
4630.000000	63.928794 
4629.000000	63.893294 
4628.000000	63.857340 
4627.000000	63.823890 
4626.000000	63.795924 
4625.000000	63.776063 
4624.000000	63.765597 
4623.000000	63.763809 
4622.000000	63.768267 
4621.000000	63.774752 
4620.000000	63.778901 
4619.000000	63.777041 
4618.000000	63.767576 
4617.000000	63.751196 
4616.000000	63.730597 
4615.000000	63.709807 
4614.000000	63.692593 
4613.000000	63.681221 
4612.000000	63.675832 
4611.000000	63.674044 
4610.000000	63.672780 
4609.000000	63.669610 
4608.000000	63.663911 
4607.000000	63.657355 
4606.000000	63.652896 
4605.000000	63.653850 
4604.000000	63.662219 
4603.000000	63.677787 
4602.000000	63.698577 
4601.000000	63.721060 
4600.000000	63.741731 
4599.000000	63.757872 
4598.000000	63.768696 
4597.000000	63.775396 
4596.000000	63.780283 
4595.000000	63.786125 
4594.000000	63.794994 
4593.000000	63.807582 
4592.000000	63.822937 
4591.000000	63.838291 
4590.000000	63.850522 
4589.000000	63.856077 
4588.000000	63.852453 
4587.000000	63.838124 
4586.000000	63.812971 
4585.000000	63.778495 
4584.000000	63.737106 
4583.000000	63.693261 
4582.000000	63.652443 
4581.000000	63.621139 
4580.000000	63.605570 
4579.000000	63.609480 
4578.000000	63.632988 
4577.000000	63.671565 
4576.000000	63.716506 
4575.000000	63.756203 
4574.000000	63.778638 
4573.000000	63.773965 
4572.000000	63.737201 
4571.000000	63.668990 
4570.000000	63.576054 
4569.000000	63.469219 
4568.000000	63.361287 
4567.000000	63.264346 
4566.000000	63.187122 
4565.000000	63.133478 
4564.000000	63.102531 
4563.000000	63.089823 
4562.000000	63.088965 
4561.000000	63.093280 
4560.000000	63.097739 
4559.000000	63.099050 
4558.000000	63.096928 
4557.000000	63.092207 
4556.000000	63.087868 
4555.000000	63.087129 
4554.000000	63.093590 
4553.000000	63.109874 
4552.000000	63.136792 
4551.000000	63.172698 
4550.000000	63.213777 
4549.000000	63.254809 
4548.000000	63.289904 
4547.000000	63.314008 
4546.000000	63.324260 
4545.000000	63.320302 
4544.000000	63.304662 
4543.000000	63.281250 
4542.000000	63.254761 
4541.000000	63.228702 
4540.000000	63.204288 
4539.000000	63.180351 
4538.000000	63.153839 
4537.000000	63.121438 
4536.000000	63.080739 
4535.000000	63.032078 
4534.000000	62.979221 
4533.000000	62.928700 
4532.000000	62.887763 
4531.000000	62.863230 
4530.000000	62.858986 
4529.000000	62.876176 
4528.000000	62.912559 
4527.000000	62.963700 
4526.000000	63.023805 
4525.000000	63.087058 
4524.000000	63.148522 
4523.000000	63.204407 
4522.000000	63.252115 
4521.000000	63.290572 
4520.000000	63.319706 
4519.000000	63.340115 
4518.000000	63.352441 
4517.000000	63.357949 
4516.000000	63.357424 
4515.000000	63.352036 
4514.000000	63.342428 
4513.000000	63.329434 
4512.000000	63.313436 
4511.000000	63.295292 
4510.000000	63.275861 
4509.000000	63.256049 
4508.000000	63.236999 
4507.000000	63.220167 
4506.000000	63.206839 
4505.000000	63.198018 
4504.000000	63.193988 
4503.000000	63.194084 
4502.000000	63.196825 
4501.000000	63.200378 
4500.000000	63.202595 
4499.000000	63.201546 
4498.000000	63.195466 
4497.000000	63.183069 
4496.000000	63.163280 
4495.000000	63.135504 
4494.000000	63.099646 
4493.000000	63.056373 
4492.000000	63.006830 
4491.000000	62.953257 
4490.000000	62.898635 
4489.000000	62.846922 
4488.000000	62.802457 
4487.000000	62.769842 
4486.000000	62.753081 
4485.000000	62.754750 
4484.000000	62.775373 
4483.000000	62.812542 
4482.000000	62.861227 
4481.000000	62.913799 
4480.000000	62.961077 
4479.000000	62.993907 
4478.000000	63.004660 
4477.000000	62.989044 
4476.000000	62.947082 
4475.000000	62.883067 
4474.000000	62.804794 
4473.000000	62.722110 
4472.000000	62.645173 
4471.000000	62.582206 
4470.000000	62.538361 
4469.000000	62.515044 
4468.000000	62.510561 
4467.000000	62.521147 
4466.000000	62.542772 
4465.000000	62.571883 
4464.000000	62.606477 
4463.000000	62.646174 
4462.000000	62.691187 
4461.000000	62.741303 
4460.000000	62.794423 
4459.000000	62.846112 
4458.000000	62.889838 
4457.000000	62.918186 
4456.000000	62.924599 
4455.000000	62.905335 
4454.000000	62.860894 
4453.000000	62.796688 
4452.000000	62.721872 
4451.000000	62.647533 
4450.000000	62.584328 
4449.000000	62.540245 
4448.000000	62.519812 
4447.000000	62.523603 
4446.000000	62.548589 
4445.000000	62.589216 
4444.000000	62.638449 
4443.000000	62.689185 
4442.000000	62.734627 
4441.000000	62.769269 
4440.000000	62.789177 
4439.000000	62.792038 
4438.000000	62.777566 
4437.000000	62.746834 
4436.000000	62.701916 
4435.000000	62.645149 
4434.000000	62.579679 
4433.000000	62.509131 
4432.000000	62.438058 
4431.000000	62.371635 
4430.000000	62.315344 
4429.000000	62.274289 
4428.000000	62.252354 
4427.000000	62.251400 
4426.000000	62.271165 
4425.000000	62.308311 
4424.000000	62.356424 
4423.000000	62.407040 
4422.000000	62.450814 
4421.000000	62.479686 
4420.000000	62.488007 
4419.000000	62.474322 
4418.000000	62.441635 
4417.000000	62.394738 
4416.000000	62.338876 
4415.000000	62.278795 
4414.000000	62.218213 
4413.000000	62.163805 
4412.000000	62.123489 
4411.000000	62.105751 
4410.000000	62.116789 
4409.000000	62.156319 
4408.000000	62.218236 
4407.000000	62.289810 
4406.000000	62.356925 
4405.000000	62.406325 
4404.000000	62.431740 
4403.000000	62.437224 
4402.000000	62.434530 
4401.000000	62.440299 
4400.000000	62.468743 
4399.000000	62.524676 
4398.000000	62.603497 
4397.000000	62.691020 
4396.000000	62.770748 
4395.000000	62.828183 
4394.000000	62.860321 
4393.000000	62.877750 
4392.000000	62.902355 
4391.000000	62.963223 
4390.000000	63.070511 
4389.000000	63.208341 
4388.000000	63.338255 
4387.000000	63.410115 
4386.000000	63.370680 
4385.000000	63.185667 
4384.000000	62.861680 
4383.000000	62.449526 
4382.000000	62.035584 
4381.000000	61.720943 
4380.000000	61.591720 
4379.000000	61.695861 
4378.000000	62.035942 
4377.000000	62.558174 
4376.000000	63.166427 
4375.000000	63.739132 
4374.000000	64.162468 
4373.000000	64.349460 
4372.000000	64.256262 
4371.000000	63.894033 
4370.000000	63.314747 
4369.000000	62.614893 
4368.000000	61.900281 
4367.000000	61.298537 
4366.000000	60.932469 
4365.000000	60.919451 
4364.000000	61.349630 
4363.000000	62.283635 
4362.000000	63.736629 
4361.000000	65.667605 
4360.000000	67.971897 
4359.000000	70.492148 
4358.000000	73.024678 
4357.000000	75.347375 
4356.000000	77.237510 
4355.000000	78.503704 
4354.000000	79.008364 
4353.000000	78.695893 
4352.000000	77.600359 
4351.000000	75.852751 
4350.000000	73.657608 
4349.000000	71.282935 
4348.000000	68.999433 
4347.000000	67.058849 
4346.000000	65.634274 
4345.000000	64.815783 
4344.000000	64.581918 
4343.000000	64.824867 
4342.000000	65.368771 
4341.000000	66.008281 
4340.000000	66.557765 
4339.000000	66.880965 
4338.000000	66.915392 
4337.000000	66.665768 
4336.000000	66.195893 
4335.000000	65.597510 
4334.000000	64.966106 
4333.000000	64.374732 
4332.000000	63.871502 
4331.000000	63.473105 
4330.000000	63.175630 
4329.000000	62.959575 
4328.000000	62.807106 
4327.000000	62.704515 
4326.000000	62.632966 
4325.000000	62.579417 
4324.000000	62.534236 
4323.000000	62.495660 
4322.000000	62.459897 
4321.000000	62.429213 
4320.000000	62.405729 
4319.000000	62.394928 
4318.000000	62.407112 
4317.000000	62.448453 
4316.000000	62.513232 
4315.000000	62.590527 
4314.000000	62.668275 
4313.000000	62.731981 
4312.000000	62.767028 
4311.000000	62.766599 
4310.000000	62.733554 
4309.000000	62.679433 
4308.000000	62.621545 
4307.000000	62.576150 
4306.000000	62.554073 
4305.000000	62.558317 
4304.000000	62.583398 
4303.000000	62.620401 
4302.000000	62.658429 
4301.000000	62.685990 
4300.000000	62.694334 
4299.000000	62.680840 
4298.000000	62.648153 
4297.000000	62.602043 
4296.000000	62.549805 
4295.000000	62.498736 
4294.000000	62.453651 
4293.000000	62.415790 
4292.000000	62.383341 
4291.000000	62.352871 
4290.000000	62.320828 
4289.000000	62.285423 
4288.000000	62.247490 
4287.000000	62.210083 
4286.000000	62.178540 
4285.000000	62.158536 
4284.000000	62.154984 
4283.000000	62.170076 
4282.000000	62.203621 
4281.000000	62.252521 
4280.000000	62.311625 
4279.000000	62.374544 
4278.000000	62.434458 
4277.000000	62.485098 
4276.000000	62.521457 
4275.000000	62.540340 
4274.000000	62.540197 
4273.000000	62.521791 
4272.000000	62.487912 
4271.000000	62.443399 
4270.000000	62.394618 
4269.000000	62.348341 
4268.000000	62.311410 
4267.000000	62.288928 
4266.000000	62.284111 
4265.000000	62.296676 
4264.000000	62.323570 
4263.000000	62.358736 
4262.000000	62.394046 
4261.000000	62.421417 
4260.000000	62.434244 
4259.000000	62.429666 
4258.000000	62.408947 
4257.000000	62.377715 
4256.000000	62.344479 
4255.000000	62.318730 
4254.000000	62.308478 
4253.000000	62.318158 
4252.000000	62.347459 
4251.000000	62.391281 
4250.000000	62.441110 
4249.000000	62.487268 
4248.000000	62.521553 
4247.000000	62.539291 
4246.000000	62.540483 
4245.000000	62.529373 
4244.000000	62.512850 
4243.000000	62.498044 
4242.000000	62.490296 
4241.000000	62.491726 
4240.000000	62.500929 
4239.000000	62.514019 
4238.000000	62.526035 
4237.000000	62.533545 
4236.000000	62.534904 
4235.000000	62.530851 
4234.000000	62.523627 
4233.000000	62.516307 
4232.000000	62.511038 
4231.000000	62.508201 
4230.000000	62.506055 
4229.000000	62.501263 
4228.000000	62.490606 
4227.000000	62.472677 
4226.000000	62.448382 
4225.000000	62.421393 
4224.000000	62.396979 
4223.000000	62.381172 
4222.000000	62.378859 
4221.000000	62.392735 
4220.000000	62.423062 
4219.000000	62.467384 
4218.000000	62.521314 
4217.000000	62.579107 
4216.000000	62.634921 
4215.000000	62.683844 
4214.000000	62.721824 
4213.000000	62.747573 
4212.000000	62.762331 
4211.000000	62.770128 
4210.000000	62.777256 
4209.000000	62.790012 
4208.000000	62.813782 
4207.000000	62.850093 
4206.000000	62.896871 
4205.000000	62.946748 
4204.000000	62.989163 
4203.000000	63.012123 
4202.000000	63.005566 
4201.000000	62.964391 
4200.000000	62.890362 
4199.000000	62.792921 
4198.000000	62.687325 
4197.000000	62.590932 
4196.000000	62.518858 
4195.000000	62.480926 
4194.000000	62.478947 
4193.000000	62.506818 
4192.000000	62.551999 
4191.000000	62.599182 
4190.000000	62.634205 
4189.000000	62.647223 
4188.000000	62.635183 
4187.000000	62.600708 
4186.000000	62.552285 
4185.000000	62.500834 
4184.000000	62.457752 
4183.000000	62.431240 
4182.000000	62.425351 
4181.000000	62.439870 
4180.000000	62.470245 
4179.000000	62.509989 
4178.000000	62.551450 
4177.000000	62.587547 
4176.000000	62.613630 
4175.000000	62.627863 
4174.000000	62.632489 
4173.000000	62.632799 
4172.000000	62.636637 
4171.000000	62.652063 
4170.000000	62.685251 
4169.000000	62.738180 
4168.000000	62.808227 
4167.000000	62.887644 
4166.000000	62.965178 
4165.000000	63.028144 
4164.000000	63.065838 
4163.000000	63.071346 
4162.000000	63.042879 
4161.000000	62.984156 
4160.000000	62.902975 
4159.000000	62.810301 
