PE IR       SPECTRUM    SPECTRUM    ASCII       PEDS        1.60        
  -1
C-458B~1.ASC
17/03/28
00:35:47.00
17/03/28
00:35:47.00
tln
$C-4040-8_t0120$<tbV0>[-10.4,13.0,8.0,0.0,27,1,0]
370.000000
64









2002,4.07    
MIRTGS : RIGHTBACK : INTERNAL 2
MIR : ON : INTERNAL 2
OPTKBR

0.200000
8
8.000000
FILLER
RATIO
SPECTRUM
UNLOCKED 256

DOUBLE
64
COMBINED
1
0
0


1.000000
RATIO


1
0
TRUE
51149
0
LEFT NOT FITTED RIGHT NOT FITTED 0
NONE
NONE
15600
12.000000
4.427000
51148
TRUE
1 0 8 72 0 0 0 0 

15798.010000






#HDR
-1
-1
#GR
CM-1
%T
0.00002384185791015625
0.0
5000.000000
-1.000000
4631
8
70.805120
13.135027
#DATA
5000.000000	64.485454 
4999.000000	64.505076 
4998.000000	64.532709 
4997.000000	64.568471 
4996.000000	64.612078 
4995.000000	64.661145 
4994.000000	64.712619 
4993.000000	64.761853 
4992.000000	64.805769 
4991.000000	64.843606 
4990.000000	64.877533 
4989.000000	64.912080 
4988.000000	64.952945 
4987.000000	65.005278 
4986.000000	65.071415 
4985.000000	65.149307 
4984.000000	65.233063 
4983.000000	65.314054 
4982.000000	65.382719 
4981.000000	65.430617 
4980.000000	65.451979 
4979.000000	65.444397 
4978.000000	65.409636 
4977.000000	65.352320 
4976.000000	65.278124 
4975.000000	65.192794 
4974.000000	65.102076 
4973.000000	65.010571 
4972.000000	64.922261 
4971.000000	64.840126 
4970.000000	64.767527 
4969.000000	64.706850 
4968.000000	64.659619 
4967.000000	64.625239 
4966.000000	64.600944 
4965.000000	64.581584 
4964.000000	64.560413 
4963.000000	64.530062 
4962.000000	64.483928 
4961.000000	64.417815 
4960.000000	64.331030 
4959.000000	64.226627 
4958.000000	64.111018 
4957.000000	63.993763 
4956.000000	63.886070 
4955.000000	63.798904 
4954.000000	63.741207 
4953.000000	63.719105 
4952.000000	63.734936 
4951.000000	63.786482 
4950.000000	63.868021 
4949.000000	63.970685 
4948.000000	64.084744 
4947.000000	64.200067 
4946.000000	64.308834 
4945.000000	64.405012 
4944.000000	64.486002 
4943.000000	64.552140 
4942.000000	64.605641 
4941.000000	64.648914 
4940.000000	64.683604 
4939.000000	64.710831 
4938.000000	64.730358 
4937.000000	64.741754 
4936.000000	64.744400 
4935.000000	64.739274 
4934.000000	64.727687 
4933.000000	64.711952 
4932.000000	64.694142 
4931.000000	64.676284 
4930.000000	64.658832 
4929.000000	64.640927 
4928.000000	64.620995 
4927.000000	64.597702 
4926.000000	64.570760 
4925.000000	64.541578 
4924.000000	64.513635 
4923.000000	64.492440 
4922.000000	64.483141 
4921.000000	64.490318 
4920.000000	64.516544 
4919.000000	64.562082 
4918.000000	64.625239 
4917.000000	64.701604 
4916.000000	64.785385 
4915.000000	64.868545 
4914.000000	64.943075 
4913.000000	65.000319 
4912.000000	65.031695 
4911.000000	65.031361 
4910.000000	64.997410 
4909.000000	64.933395 
4908.000000	64.847850 
4907.000000	64.754462 
4906.000000	64.670038 
4905.000000	64.610505 
4904.000000	64.587616 
4903.000000	64.605712 
4902.000000	64.660954 
4901.000000	64.741826 
4900.000000	64.832520 
4899.000000	64.917540 
4898.000000	64.986062 
4897.000000	65.035128 
4896.000000	65.069603 
4895.000000	65.099859 
4894.000000	65.137481 
4893.000000	65.191173 
4892.000000	65.262532 
4891.000000	65.345335 
4890.000000	65.425848 
4889.000000	65.488338 
4888.000000	65.517258 
4887.000000	65.503358 
4886.000000	65.443778 
4885.000000	65.344619 
4884.000000	65.216732 
4883.000000	65.073704 
4882.000000	64.927268 
4881.000000	64.785051 
4880.000000	64.650011 
4879.000000	64.521741 
4878.000000	64.398980 
4877.000000	64.282059 
4876.000000	64.174199 
4875.000000	64.081931 
4874.000000	64.013028 
4873.000000	63.975024 
4872.000000	63.972473 
4871.000000	64.006066 
4870.000000	64.071106 
4869.000000	64.159250 
4868.000000	64.260196 
4867.000000	64.364123 
4866.000000	64.462852 
4865.000000	64.551210 
4864.000000	64.627385 
4863.000000	64.691567 
4862.000000	64.744615 
4861.000000	64.786720 
4860.000000	64.816737 
4859.000000	64.832258 
4858.000000	64.831280 
4857.000000	64.812564 
4856.000000	64.777231 
4855.000000	64.728975 
4854.000000	64.674663 
4853.000000	64.622378 
4852.000000	64.580130 
4851.000000	64.554166 
4850.000000	64.547824 
4849.000000	64.559721 
4848.000000	64.584374 
4847.000000	64.613842 
4846.000000	64.639973 
4845.000000	64.656424 
4844.000000	64.660072 
4843.000000	64.652228 
4842.000000	64.637207 
4841.000000	64.620375 
4840.000000	64.606094 
4839.000000	64.596223 
4838.000000	64.589810 
4837.000000	64.583587 
4836.000000	64.573979 
4835.000000	64.558482 
4834.000000	64.537382 
4833.000000	64.514660 
4832.000000	64.496541 
4831.000000	64.489555 
4830.000000	64.498162 
4829.000000	64.523005 
4828.000000	64.559912 
4827.000000	64.600133 
4826.000000	64.633083 
4825.000000	64.649343 
4824.000000	64.643192 
4823.000000	64.614391 
4822.000000	64.567732 
4821.000000	64.512038 
4820.000000	64.457607 
4819.000000	64.414048 
4818.000000	64.388465 
4817.000000	64.384341 
4816.000000	64.401936 
4815.000000	64.438700 
4814.000000	64.490580 
4813.000000	64.552736 
4812.000000	64.620518 
4811.000000	64.689660 
4810.000000	64.756011 
4809.000000	64.815616 
4808.000000	64.865207 
4807.000000	64.901375 
4806.000000	64.921307 
4805.000000	64.922142 
4804.000000	64.902782 
4803.000000	64.862585 
4802.000000	64.802598 
4801.000000	64.725089 
4800.000000	64.633870 
4799.000000	64.534759 
4798.000000	64.435362 
4797.000000	64.344358 
4796.000000	64.270544 
4795.000000	64.221525 
4794.000000	64.202284 
4793.000000	64.213633 
4792.000000	64.251708 
4791.000000	64.308738 
4790.000000	64.375090 
4789.000000	64.440655 
4788.000000	64.498138 
4787.000000	64.543867 
4786.000000	64.579343 
4785.000000	64.609980 
4784.000000	64.643335 
4783.000000	64.686560 
4782.000000	64.743614 
4781.000000	64.813804 
4780.000000	64.890933 
4779.000000	64.965915 
4778.000000	65.027618 
4777.000000	65.066909 
4776.000000	65.077304 
4775.000000	65.057444 
4774.000000	65.010190 
4773.000000	64.942455 
4772.000000	64.862370 
4771.000000	64.777684 
4770.000000	64.694261 
4769.000000	64.615988 
4768.000000	64.544034 
4767.000000	64.477992 
4766.000000	64.417290 
4765.000000	64.362573 
4764.000000	64.315819 
4763.000000	64.280748 
4762.000000	64.261388 
4761.000000	64.261102 
4760.000000	64.280939 
4759.000000	64.319086 
4758.000000	64.369916 
4757.000000	64.425349 
4756.000000	64.476370 
4755.000000	64.514923 
4754.000000	64.534950 
4753.000000	64.534568 
4752.000000	64.515662 
4751.000000	64.484429 
4750.000000	64.449310 
4749.000000	64.420104 
4748.000000	64.405202 
4747.000000	64.410758 
4746.000000	64.439511 
4745.000000	64.490175 
4744.000000	64.558172 
4743.000000	64.635992 
4742.000000	64.714932 
4741.000000	64.785480 
4740.000000	64.839005 
4739.000000	64.869260 
4738.000000	64.873409 
4737.000000	64.852595 
4736.000000	64.811563 
4735.000000	64.758372 
4734.000000	64.702391 
4733.000000	64.652514 
4732.000000	64.615154 
4731.000000	64.593100 
4730.000000	64.585614 
4729.000000	64.589095 
4728.000000	64.599299 
4727.000000	64.612150 
4726.000000	64.626598 
4725.000000	64.644694 
4724.000000	64.671444 
4723.000000	64.712119 
4722.000000	64.771103 
4721.000000	64.849328 
4720.000000	64.943432 
4719.000000	65.045261 
4718.000000	65.144371 
4717.000000	65.230178 
4716.000000	65.294623 
4715.000000	65.333962 
4714.000000	65.349149 
4713.000000	65.344882 
4712.000000	65.327906 
4711.000000	65.304756 
4710.000000	65.280604 
4709.000000	65.258240 
4708.000000	65.238142 
4707.000000	65.218782 
4706.000000	65.198755 
4705.000000	65.176773 
4704.000000	65.152835 
4703.000000	65.127682 
4702.000000	65.102195 
4701.000000	65.076971 
4700.000000	65.051841 
4699.000000	65.025901 
4698.000000	64.997696 
4697.000000	64.965724 
4696.000000	64.929389 
4695.000000	64.888691 
4694.000000	64.844298 
4693.000000	64.797496 
4692.000000	64.749574 
4691.000000	64.702463 
4690.000000	64.658498 
4689.000000	64.620590 
4688.000000	64.591526 
4687.000000	64.573979 
4686.000000	64.569830 
4685.000000	64.578723 
4684.000000	64.597678 
4683.000000	64.621233 
4682.000000	64.642643 
4681.000000	64.654755 
4680.000000	64.652276 
4679.000000	64.633131 
4678.000000	64.599323 
4677.000000	64.557504 
4676.000000	64.516806 
4675.000000	64.486122 
4674.000000	64.472460 
4673.000000	64.478850 
4672.000000	64.504671 
4671.000000	64.545512 
4670.000000	64.595437 
4669.000000	64.648628 
4668.000000	64.700722 
4667.000000	64.749360 
4666.000000	64.793801 
4665.000000	64.834094 
4664.000000	64.869451 
4663.000000	64.897489 
4662.000000	64.914298 
4661.000000	64.915370 
4660.000000	64.896965 
4659.000000	64.857554 
4658.000000	64.799332 
4657.000000	64.728426 
4656.000000	64.653420 
4655.000000	64.584589 
4654.000000	64.531016 
4653.000000	64.500141 
4652.000000	64.496803 
4651.000000	64.522767 
4650.000000	64.576816 
4649.000000	64.654827 
4648.000000	64.750361 
4647.000000	64.855003 
4646.000000	64.958596 
4645.000000	65.050983 
4644.000000	65.122771 
4643.000000	65.167474 
4642.000000	65.182328 
4641.000000	65.168929 
4640.000000	65.132880 
4639.000000	65.082502 
4638.000000	65.027546 
4637.000000	64.976453 
4636.000000	64.935302 
4635.000000	64.906454 
4634.000000	64.889121 
4633.000000	64.880442 
4632.000000	64.876985 
4631.000000	64.876079 
4630.000000	64.876508 
4629.000000	64.877939 
4628.000000	64.880442 
4627.000000	64.883017 
4626.000000	64.883446 
4625.000000	64.878177 
4624.000000	64.863181 
4623.000000	64.835429 
4622.000000	64.793968 
4621.000000	64.740729 
4620.000000	64.680576 
4619.000000	64.620113 
4618.000000	64.566826 
4617.000000	64.527320 
4616.000000	64.506554 
4615.000000	64.506030 
4614.000000	64.524745 
4613.000000	64.559769 
4612.000000	64.606881 
4611.000000	64.661526 
4610.000000	64.719200 
4609.000000	64.775753 
4608.000000	64.827299 
4607.000000	64.870262 
4606.000000	64.901518 
4605.000000	64.918446 
4604.000000	64.920210 
4603.000000	64.907646 
4602.000000	64.883375 
4601.000000	64.850997 
4600.000000	64.815020 
4599.000000	64.779329 
4598.000000	64.746499 
4597.000000	64.717078 
4596.000000	64.690256 
4595.000000	64.663934 
4594.000000	64.635276 
4593.000000	64.602375 
4592.000000	64.565205 
4591.000000	64.526319 
4590.000000	64.489936 
4589.000000	64.461779 
4588.000000	64.447140 
4587.000000	64.450168 
4586.000000	64.472150 
4585.000000	64.511394 
4584.000000	64.563298 
4583.000000	64.621520 
4582.000000	64.679288 
4581.000000	64.730858 
4580.000000	64.772415 
4579.000000	64.802408 
4578.000000	64.821290 
4577.000000	64.830803 
4576.000000	64.833068 
4575.000000	64.829421 
4574.000000	64.820337 
4573.000000	64.805817 
4572.000000	64.786601 
4571.000000	64.765405 
4570.000000	64.747309 
4569.000000	64.739537 
4568.000000	64.749622 
4567.000000	64.783811 
4566.000000	64.844298 
4565.000000	64.927911 
4564.000000	65.025806 
4563.000000	65.125489 
4562.000000	65.212607 
4561.000000	65.274286 
4560.000000	65.301752 
4559.000000	65.291929 
4558.000000	65.248465 
4557.000000	65.180683 
4556.000000	65.102314 
4555.000000	65.028524 
4554.000000	64.973735 
4553.000000	64.948916 
4552.000000	64.960551 
4551.000000	65.009808 
4550.000000	65.092277 
4549.000000	65.198922 
4548.000000	65.317726 
4547.000000	65.435194 
4546.000000	65.538096 
4545.000000	65.614986 
4544.000000	65.657687 
4543.000000	65.661692 
4542.000000	65.627169 
4541.000000	65.557527 
4540.000000	65.458488 
4539.000000	65.336942 
4538.000000	65.200924 
4537.000000	65.058779 
4536.000000	64.919185 
4535.000000	64.791059 
4534.000000	64.683175 
4533.000000	64.603471 
4532.000000	64.558553 
4531.000000	64.551663 
4530.000000	64.581179 
4529.000000	64.640808 
4528.000000	64.719963 
4527.000000	64.805173 
4526.000000	64.881825 
4525.000000	64.937257 
4524.000000	64.962744 
4523.000000	64.955115 
4522.000000	64.916944 
4521.000000	64.856100 
4520.000000	64.784097 
4519.000000	64.713549 
4518.000000	64.656329 
4517.000000	64.622330 
4516.000000	64.617991 
4515.000000	64.646244 
4514.000000	64.705657 
4513.000000	64.792275 
4512.000000	64.898395 
4511.000000	65.014219 
4510.000000	65.127730 
4509.000000	65.225720 
4508.000000	65.296030 
4507.000000	65.329122 
4506.000000	65.320611 
4505.000000	65.271353 
4504.000000	65.189123 
4503.000000	65.087747 
4502.000000	64.983701 
4501.000000	64.893198 
4500.000000	64.828276 
4499.000000	64.795088 
4498.000000	64.791727 
4497.000000	64.809560 
4496.000000	64.835357 
4495.000000	64.855504 
4494.000000	64.859366 
4493.000000	64.842271 
4492.000000	64.805746 
4491.000000	64.756870 
4490.000000	64.705133 
4489.000000	64.659833 
4488.000000	64.626479 
4487.000000	64.606404 
4486.000000	64.596438 
4485.000000	64.591264 
4484.000000	64.585685 
4483.000000	64.577174 
4482.000000	64.566969 
4481.000000	64.559864 
4480.000000	64.561891 
4479.000000	64.578843 
4478.000000	64.613533 
4477.000000	64.664983 
4476.000000	64.727306 
4475.000000	64.792656 
4474.000000	64.852881 
4473.000000	64.902234 
4472.000000	64.938735 
4471.000000	64.964365 
4470.000000	64.983773 
4469.000000	65.002846 
4468.000000	65.026426 
4467.000000	65.056085 
4466.000000	65.089440 
4465.000000	65.121102 
4464.000000	65.144038 
4463.000000	65.152716 
4462.000000	65.143942 
4461.000000	65.118503 
4460.000000	65.080213 
4459.000000	65.034508 
4458.000000	64.987349 
4457.000000	64.943456 
4456.000000	64.906406 
4455.000000	64.878368 
4454.000000	64.860057 
4453.000000	64.852499 
4452.000000	64.854550 
4451.000000	64.862680 
4450.000000	64.871287 
4449.000000	64.873290 
4448.000000	64.862442 
4447.000000	64.834570 
4446.000000	64.790391 
4445.000000	64.735555 
4444.000000	64.680337 
4443.000000	64.637017 
4442.000000	64.616179 
4441.000000	64.623236 
4440.000000	64.655876 
4439.000000	64.704370 
4438.000000	64.752745 
4437.000000	64.783811 
4436.000000	64.784741 
4435.000000	64.750838 
4434.000000	64.687538 
4433.000000	64.608335 
4432.000000	64.531970 
4431.000000	64.477419 
4430.000000	64.448547 
4429.000000	64.445567 
4428.000000	64.472246 
4427.000000	64.531707 
4426.000000	64.628195 
4425.000000	64.762997 
4424.000000	64.930105 
4423.000000	65.119314 
4422.000000	65.316820 
4421.000000	65.506958 
4420.000000	65.672898 
4419.000000	65.804052 
4418.000000	65.899252 
4417.000000	65.957641 
4416.000000	65.978169 
4415.000000	65.956759 
4414.000000	65.889000 
4413.000000	65.776419 
4412.000000	65.628528 
4411.000000	65.475416 
4410.000000	65.351104 
4409.000000	65.296101 
4408.000000	65.319991 
4407.000000	65.408635 
4406.000000	65.490221 
4405.000000	65.440106 
4404.000000	65.107488 
4403.000000	64.338755 
4402.000000	63.052654 
4401.000000	61.263489 
4400.000000	59.125661 
4399.000000	56.907892 
4398.000000	54.957365 
4397.000000	53.617668 
4396.000000	53.153729 
4395.000000	53.677248 
4394.000000	55.126142 
4393.000000	57.273602 
4392.000000	59.777808 
4391.000000	62.257337 
4390.000000	64.368247 
4389.000000	65.872454 
4388.000000	66.669440 
4387.000000	66.801738 
4386.000000	66.432046 
4385.000000	65.790271 
4384.000000	65.121483 
4383.000000	64.621686 
4382.000000	64.409351 
4381.000000	64.499592 
4380.000000	64.837574 
4379.000000	65.310287 
4378.000000	65.802645 
4377.000000	66.216826 
4376.000000	66.504645 
4375.000000	66.663885 
4374.000000	66.717791 
4373.000000	66.709375 
4372.000000	66.668939 
4371.000000	66.618323 
4370.000000	66.564154 
4369.000000	66.503858 
4368.000000	66.442871 
4367.000000	66.379570 
4366.000000	66.311621 
4365.000000	66.231870 
4364.000000	66.130852 
4363.000000	66.000962 
4362.000000	65.840077 
4361.000000	65.654397 
4360.000000	65.458059 
4359.000000	65.275907 
4358.000000	65.136623 
4357.000000	65.054750 
4356.000000	65.030264 
4355.000000	65.053033 
4354.000000	65.104985 
4353.000000	65.166950 
4352.000000	65.222692 
4351.000000	65.259838 
4350.000000	65.273952 
4349.000000	65.266656 
4348.000000	65.245318 
4347.000000	65.219235 
4346.000000	65.196847 
4345.000000	65.181589 
4344.000000	65.172791 
4343.000000	65.167355 
4342.000000	65.160298 
4341.000000	65.148043 
4340.000000	65.128564 
4339.000000	65.102624 
4338.000000	65.073084 
4337.000000	65.044236 
4336.000000	65.020608 
4335.000000	65.005373 
4334.000000	65.000343 
4333.000000	65.005397 
4332.000000	65.018272 
4331.000000	65.034961 
4330.000000	65.050673 
4329.000000	65.061211 
4328.000000	65.063261 
4327.000000	65.055751 
4326.000000	65.040540 
4325.000000	65.021920 
4324.000000	65.005350 
4323.000000	64.996409 
4322.000000	64.999437 
4321.000000	65.016317 
4320.000000	65.046453 
4319.000000	65.086364 
4318.000000	65.130734 
4317.000000	65.173578 
4316.000000	65.209555 
4315.000000	65.235018 
4314.000000	65.248584 
4313.000000	65.250802 
4312.000000	65.243768 
4311.000000	65.229725 
4310.000000	65.210533 
4309.000000	65.186834 
4308.000000	65.158367 
4307.000000	65.124249 
4306.000000	65.083909 
4305.000000	65.038132 
4304.000000	64.989447 
4303.000000	64.942002 
4302.000000	64.900851 
4301.000000	64.870619 
4300.000000	64.854955 
4299.000000	64.854764 
4298.000000	64.869046 
4297.000000	64.895129 
4296.000000	64.930009 
4295.000000	64.970731 
4294.000000	65.015077 
4293.000000	65.061497 
4292.000000	65.108418 
4291.000000	65.153956 
4290.000000	65.195155 
4289.000000	65.228080 
4288.000000	65.248203 
4287.000000	65.251588 
4286.000000	65.235590 
4285.000000	65.199804 
4284.000000	65.146446 
4283.000000	65.080308 
4282.000000	65.007472 
4281.000000	64.934325 
4280.000000	64.866280 
4279.000000	64.807033 
4278.000000	64.757823 
4277.000000	64.717841 
4276.000000	64.684867 
4275.000000	64.656424 
4274.000000	64.630270 
4273.000000	64.605498 
4272.000000	64.582204 
4271.000000	64.561724 
4270.000000	64.545512 
4269.000000	64.535474 
4268.000000	64.532423 
4267.000000	64.536714 
4266.000000	64.547371 
4265.000000	64.562988 
4264.000000	64.581394 
4263.000000	64.600849 
4262.000000	64.619708 
4261.000000	64.637422 
4260.000000	64.654159 
4259.000000	64.671158 
4258.000000	64.690065 
4257.000000	64.712738 
4256.000000	64.740467 
4255.000000	64.773321 
4254.000000	64.809727 
4253.000000	64.846301 
4252.000000	64.878487 
4251.000000	64.901018 
4250.000000	64.908981 
4249.000000	64.899396 
4248.000000	64.872026 
4247.000000	64.829182 
4246.000000	64.775395 
4245.000000	64.717292 
4244.000000	64.661836 
4243.000000	64.614701 
4242.000000	64.579772 
4241.000000	64.558219 
4240.000000	64.549517 
4239.000000	64.551734 
4238.000000	64.562869 
4237.000000	64.581203 
4236.000000	64.606308 
4235.000000	64.638900 
4234.000000	64.680337 
4233.000000	64.730954 
4232.000000	64.789605 
4231.000000	64.852976 
4230.000000	64.915537 
4229.000000	64.970421 
4228.000000	65.010905 
4227.000000	65.031909 
4226.000000	65.031003 
4225.000000	65.009450 
4224.000000	64.972305 
4223.000000	64.927721 
4222.000000	64.884972 
4221.000000	64.852976 
4220.000000	64.839196 
4219.000000	64.847731 
4218.000000	64.879441 
4217.000000	64.930605 
4216.000000	64.994502 
4215.000000	65.061450 
4214.000000	65.121054 
4213.000000	65.163064 
4212.000000	65.178537 
4211.000000	65.161919 
4210.000000	65.111923 
4209.000000	65.032815 
4208.000000	64.933681 
4207.000000	64.827513 
4206.000000	64.729022 
4205.000000	64.651489 
4204.000000	64.604687 
4203.000000	64.591622 
4202.000000	64.607930 
4201.000000	64.643144 
4200.000000	64.683413 
4199.000000	64.713668 
4198.000000	64.721155 
4197.000000	64.698028 
4196.000000	64.643144 
4195.000000	64.561247 
4194.000000	64.462304 
4193.000000	64.358282 
4192.000000	64.261627 
4191.000000	64.182758 
4190.000000	64.128947 
4189.000000	64.103460 
4188.000000	64.105963 
4187.000000	64.133691 
4186.000000	64.182257 
4185.000000	64.246439 
4184.000000	64.320516 
4183.000000	64.398717 
4182.000000	64.474725 
4181.000000	64.542007 
4180.000000	64.593195 
4179.000000	64.621448 
4178.000000	64.619374 
4177.000000	64.580965 
4176.000000	64.502239 
4175.000000	64.383530 
4174.000000	64.229774 
4173.000000	64.051198 
4172.000000	63.862991 
4171.000000	63.683891 
4170.000000	63.533425 
4169.000000	63.428926 
4168.000000	63.382434 
4167.000000	63.398814 
4166.000000	63.474011 
4165.000000	63.596820 
4164.000000	63.749837 
4163.000000	63.913917 
4162.000000	64.070034 
4161.000000	64.204049 
4160.000000	64.307355 
4159.000000	64.379048 
