PE IR       SPECTRUM    SPECTRUM    ASCII       PEDS        1.60        
  -1
C-9A65~1.ASC
17/03/27
16:47:54.00
17/03/27
16:47:54.00
tln
$C-4040-8_t0028$<tbV0>[0.0,-7.8,8.0,0.0,27,1,0]
370.000000
64









2002,4.07    
MIRTGS : RIGHTBACK : INTERNAL 2
MIR : ON : INTERNAL 2
OPTKBR

0.200000
8
8.000000
FILLER
RATIO
SPECTRUM
UNLOCKED 256

DOUBLE
64
COMBINED
1
0
0


1.000000
RATIO


1
0
TRUE
51149
0
LEFT NOT FITTED RIGHT NOT FITTED 0
NONE
NONE
15600
12.000000
4.427000
51148
TRUE
1 0 8 72 0 0 0 0 

15798.010000






#HDR
-1
-1
#GR
CM-1
%T
0.00002384185791015625
0.0
5000.000000
-1.000000
4631
8
68.933463
22.839236
#DATA
5000.000000	63.619112 
4999.000000	63.576745 
4998.000000	63.544440 
4997.000000	63.524293 
4996.000000	63.517761 
4995.000000	63.525271 
4994.000000	63.545775 
4993.000000	63.576889 
4992.000000	63.614273 
4991.000000	63.652110 
4990.000000	63.684058 
4989.000000	63.704109 
4988.000000	63.708281 
4987.000000	63.695120 
4986.000000	63.666510 
4985.000000	63.626909 
4984.000000	63.582873 
4983.000000	63.541579 
4982.000000	63.509464 
4981.000000	63.490605 
4980.000000	63.486218 
4979.000000	63.494277 
4978.000000	63.509964 
4977.000000	63.527131 
4976.000000	63.539481 
4975.000000	63.542699 
4974.000000	63.534832 
4973.000000	63.517642 
4972.000000	63.495373 
4971.000000	63.474607 
4970.000000	63.462734 
4969.000000	63.466119 
4968.000000	63.488602 
4967.000000	63.530516 
4966.000000	63.588809 
4965.000000	63.657212 
4964.000000	63.728094 
4963.000000	63.793420 
4962.000000	63.846397 
4961.000000	63.882923 
4960.000000	63.902139 
4959.000000	63.905978 
4958.000000	63.898491 
4957.000000	63.884139 
4956.000000	63.866639 
4955.000000	63.848185 
4954.000000	63.829207 
4953.000000	63.808727 
4952.000000	63.785552 
4951.000000	63.759279 
4950.000000	63.731503 
4949.000000	63.705682 
4948.000000	63.687348 
4947.000000	63.682413 
4946.000000	63.696146 
4945.000000	63.731789 
4944.000000	63.788890 
4943.000000	63.863253 
4942.000000	63.946557 
4941.000000	64.027762 
4940.000000	64.094638 
4939.000000	64.136123 
4938.000000	64.144587 
4937.000000	64.117312 
4936.000000	64.057421 
4935.000000	63.973283 
4934.000000	63.877177 
4933.000000	63.782954 
4932.000000	63.703560 
4931.000000	63.648843 
4930.000000	63.623166 
4929.000000	63.625431 
4928.000000	63.649630 
4927.000000	63.686728 
4926.000000	63.726806 
4925.000000	63.761281 
4924.000000	63.784193 
4923.000000	63.793349 
4922.000000	63.789367 
4921.000000	63.775563 
4920.000000	63.755607 
4919.000000	63.733410 
4918.000000	63.712549 
4917.000000	63.695478 
4916.000000	63.684272 
4915.000000	63.679647 
4914.000000	63.681697 
4913.000000	63.689064 
4912.000000	63.699221 
4911.000000	63.709330 
4910.000000	63.716030 
4909.000000	63.717627 
4908.000000	63.713502 
4907.000000	63.706851 
4906.000000	63.703680 
4905.000000	63.712286 
4904.000000	63.741159 
4903.000000	63.796424 
4902.000000	63.879799 
4901.000000	63.987112 
4900.000000	64.108204 
4899.000000	64.228487 
4898.000000	64.331412 
4897.000000	64.402723 
4896.000000	64.432907 
4895.000000	64.418888 
4894.000000	64.364314 
4893.000000	64.278650 
4892.000000	64.175105 
4891.000000	64.068293 
4890.000000	63.971209 
4889.000000	63.893580 
4888.000000	63.840556 
4887.000000	63.813567 
4886.000000	63.810205 
4885.000000	63.825988 
4884.000000	63.855051 
4883.000000	63.891577 
4882.000000	63.929963 
4881.000000	63.964915 
4880.000000	63.991689 
4879.000000	64.005899 
4878.000000	64.004087 
4877.000000	63.983654 
4876.000000	63.944339 
4875.000000	63.888859 
4874.000000	63.823127 
4873.000000	63.755893 
4872.000000	63.698768 
4871.000000	63.663983 
4870.000000	63.662147 
4869.000000	63.698768 
4868.000000	63.773107 
4867.000000	63.876247 
4866.000000	63.992428 
4865.000000	64.101243 
4864.000000	64.181900 
4863.000000	64.217662 
4862.000000	64.199519 
4861.000000	64.128422 
4860.000000	64.013957 
4859.000000	63.873553 
4858.000000	63.728737 
4857.000000	63.600206 
4856.000000	63.503956 
4855.000000	63.448166 
4854.000000	63.433647 
4853.000000	63.453006 
4852.000000	63.493967 
4851.000000	63.541579 
4850.000000	63.581871 
4849.000000	63.603925 
4848.000000	63.601756 
4847.000000	63.573908 
4846.000000	63.523149 
4845.000000	63.455843 
4844.000000	63.380312 
4843.000000	63.305568 
4842.000000	63.239979 
4841.000000	63.190245 
4840.000000	63.161063 
4839.000000	63.154625 
4838.000000	63.171315 
4837.000000	63.209319 
4836.000000	63.266062 
4835.000000	63.337349 
4834.000000	63.419508 
4833.000000	63.508629 
4832.000000	63.601636 
4831.000000	63.695240 
4830.000000	63.786697 
4829.000000	63.873338 
4828.000000	63.952589 
4827.000000	64.022350 
4826.000000	64.080047 
4825.000000	64.123034 
4824.000000	64.148879 
4823.000000	64.156222 
4822.000000	64.144182 
4821.000000	64.112973 
4820.000000	64.064240 
4819.000000	64.001178 
4818.000000	63.928532 
4817.000000	63.852119 
4816.000000	63.778519 
4815.000000	63.713884 
4814.000000	63.663220 
4813.000000	63.629674 
4812.000000	63.613820 
4811.000000	63.614058 
4810.000000	63.626575 
4809.000000	63.646769 
4808.000000	63.669323 
4807.000000	63.690042 
4806.000000	63.706231 
4805.000000	63.716936 
4804.000000	63.722157 
4803.000000	63.722681 
4802.000000	63.719630 
4801.000000	63.713359 
4800.000000	63.703322 
4799.000000	63.688588 
4798.000000	63.668489 
4797.000000	63.643288 
4796.000000	63.614630 
4795.000000	63.585782 
4794.000000	63.561344 
4793.000000	63.546299 
4792.000000	63.544797 
4791.000000	63.559007 
4790.000000	63.588428 
4789.000000	63.629865 
4788.000000	63.677692 
4787.000000	63.724565 
4786.000000	63.762545 
4785.000000	63.785529 
4784.000000	63.789391 
4783.000000	63.772583 
4782.000000	63.736414 
4781.000000	63.684606 
4780.000000	63.622546 
4779.000000	63.556313 
4778.000000	63.491797 
4777.000000	63.434052 
4776.000000	63.387084 
4775.000000	63.353729 
4774.000000	63.335585 
4773.000000	63.333034 
4772.000000	63.345646 
4771.000000	63.372087 
4770.000000	63.410234 
4769.000000	63.456654 
4768.000000	63.507366 
4767.000000	63.558197 
4766.000000	63.605022 
4765.000000	63.644480 
4764.000000	63.675045 
4763.000000	63.697218 
4762.000000	63.713645 
4761.000000	63.728094 
4760.000000	63.744878 
4759.000000	63.767194 
4758.000000	63.796567 
4757.000000	63.831591 
4756.000000	63.868737 
4755.000000	63.902759 
4754.000000	63.928270 
4753.000000	63.940954 
4752.000000	63.938760 
4751.000000	63.922238 
4750.000000	63.895177 
4749.000000	63.862562 
4748.000000	63.829374 
4747.000000	63.799047 
4746.000000	63.773059 
4745.000000	63.749837 
4744.000000	63.725733 
4743.000000	63.695931 
4742.000000	63.656353 
4741.000000	63.604784 
4740.000000	63.541960 
4739.000000	63.471317 
4738.000000	63.398623 
4737.000000	63.330698 
4736.000000	63.273835 
4735.000000	63.232278 
4734.000000	63.207769 
4733.000000	63.199186 
4732.000000	63.203954 
4731.000000	63.217639 
4730.000000	63.236594 
4729.000000	63.258314 
4728.000000	63.282608 
4727.000000	63.310456 
4726.000000	63.344407 
4725.000000	63.386440 
4724.000000	63.437795 
4723.000000	63.497424 
4722.000000	63.562178 
4721.000000	63.627171 
4720.000000	63.686347 
4719.000000	63.734245 
4718.000000	63.766431 
4717.000000	63.780522 
4716.000000	63.776850 
4715.000000	63.758659 
4714.000000	63.731312 
4713.000000	63.701200 
4712.000000	63.675022 
4711.000000	63.658213 
4710.000000	63.653802 
4709.000000	63.661408 
4708.000000	63.677692 
4707.000000	63.697099 
4706.000000	63.713169 
4705.000000	63.720107 
4704.000000	63.714337 
4703.000000	63.695526 
4702.000000	63.666486 
4701.000000	63.632893 
4700.000000	63.601303 
4699.000000	63.577961 
4698.000000	63.566994 
4697.000000	63.569831 
4696.000000	63.585019 
4695.000000	63.608932 
4694.000000	63.637042 
4693.000000	63.665175 
4692.000000	63.690805 
4691.000000	63.713312 
4690.000000	63.733720 
4689.000000	63.754057 
4688.000000	63.775849 
4687.000000	63.799977 
4686.000000	63.826298 
4685.000000	63.853383 
4684.000000	63.878583 
4683.000000	63.899278 
4682.000000	63.912916 
4681.000000	63.917660 
4680.000000	63.912248 
4679.000000	63.896322 
4678.000000	63.870501 
4677.000000	63.836026 
4676.000000	63.795423 
4675.000000	63.751864 
4674.000000	63.710308 
4673.000000	63.676166 
4672.000000	63.655710 
4671.000000	63.655090 
4670.000000	63.679075 
4669.000000	63.730001 
4668.000000	63.806462 
4667.000000	63.902783 
4666.000000	64.009547 
4665.000000	64.115071 
4664.000000	64.207339 
4663.000000	64.276242 
4662.000000	64.315199 
4661.000000	64.322113 
4660.000000	64.298772 
4659.000000	64.249992 
4658.000000	64.182138 
4657.000000	64.101576 
4656.000000	64.013743 
4655.000000	63.922882 
4654.000000	63.832497 
4653.000000	63.745808 
4652.000000	63.666772 
4651.000000	63.599634 
4650.000000	63.548660 
4649.000000	63.517332 
4648.000000	63.506579 
4647.000000	63.515520 
4646.000000	63.539695 
4645.000000	63.573837 
4644.000000	63.611912 
4643.000000	63.649487 
4642.000000	63.684201 
4641.000000	63.715863 
4640.000000	63.745498 
4639.000000	63.774466 
4638.000000	63.803005 
4637.000000	63.830471 
4636.000000	63.855290 
4635.000000	63.875675 
4634.000000	63.890385 
4633.000000	63.899326 
4632.000000	63.903856 
4631.000000	63.906002 
4630.000000	63.907647 
4629.000000	63.909912 
4628.000000	63.912606 
4627.000000	63.914394 
4626.000000	63.913154 
4625.000000	63.906908 
4624.000000	63.894820 
4623.000000	63.878321 
4622.000000	63.861012 
4621.000000	63.847613 
4620.000000	63.843083 
4619.000000	63.851141 
4618.000000	63.873195 
4617.000000	63.907909 
4616.000000	63.951063 
4615.000000	63.996529 
4614.000000	64.037418 
4613.000000	64.067864 
4612.000000	64.084005 
4611.000000	64.084482 
4610.000000	64.071083 
4609.000000	64.048123 
4608.000000	64.021372 
4607.000000	63.996815 
4606.000000	63.978528 
4605.000000	63.968205 
4604.000000	63.964629 
4603.000000	63.964629 
4602.000000	63.964152 
4601.000000	63.959860 
4600.000000	63.949990 
4599.000000	63.935136 
4598.000000	63.917922 
4597.000000	63.902163 
4596.000000	63.891673 
4595.000000	63.888478 
4594.000000	63.892531 
4593.000000	63.900732 
4592.000000	63.908362 
4591.000000	63.909173 
4590.000000	63.897514 
4589.000000	63.869309 
4588.000000	63.822865 
4587.000000	63.760042 
4586.000000	63.685631 
4585.000000	63.607382 
4584.000000	63.533949 
4583.000000	63.474869 
4582.000000	63.438510 
4581.000000	63.431024 
4580.000000	63.455033 
4579.000000	63.508772 
4578.000000	63.586115 
4577.000000	63.676977 
4576.000000	63.769078 
4575.000000	63.849401 
4574.000000	63.907098 
4573.000000	63.935184 
4572.000000	63.932538 
4571.000000	63.903975 
4570.000000	63.859009 
4569.000000	63.810038 
4568.000000	63.768577 
4567.000000	63.743472 
4566.000000	63.737750 
4565.000000	63.749122 
4564.000000	63.769912 
4563.000000	63.789677 
4562.000000	63.797879 
4561.000000	63.787078 
4560.000000	63.754796 
4559.000000	63.703703 
4558.000000	63.641190 
4557.000000	63.576650 
4556.000000	63.519620 
4555.000000	63.476514 
4554.000000	63.450503 
4553.000000	63.441109 
4552.000000	63.444995 
4551.000000	63.457369 
4550.000000	63.474273 
4549.000000	63.493561 
4548.000000	63.514208 
4547.000000	63.535881 
4546.000000	63.557410 
4545.000000	63.576292 
4544.000000	63.588666 
4543.000000	63.590240 
4542.000000	63.576984 
4541.000000	63.547325 
4540.000000	63.503599 
4539.000000	63.451910 
4538.000000	63.401556 
4537.000000	63.362431 
4536.000000	63.342905 
4535.000000	63.347148 
4534.000000	63.373994 
4533.000000	63.417410 
4532.000000	63.467550 
4531.000000	63.514304 
4530.000000	63.549375 
4529.000000	63.570094 
4528.000000	63.579821 
4527.000000	63.587760 
4526.000000	63.605952 
4525.000000	63.646268 
4524.000000	63.716411 
4523.000000	63.817739 
4522.000000	63.943767 
4521.000000	64.081525 
4520.000000	64.213633 
4519.000000	64.322423 
4518.000000	64.393138 
4517.000000	64.417076 
4516.000000	64.393115 
4515.000000	64.327549 
4514.000000	64.232349 
4513.000000	64.122509 
4512.000000	64.012861 
4511.000000	63.916563 
4510.000000	63.842034 
4509.000000	63.793492 
4508.000000	63.769674 
4507.000000	63.766336 
4506.000000	63.776302 
4505.000000	63.791656 
4504.000000	63.804912 
4503.000000	63.809752 
4502.000000	63.803029 
4501.000000	63.784646 
4500.000000	63.757109 
4499.000000	63.724088 
4498.000000	63.689684 
4497.000000	63.656854 
4496.000000	63.626313 
4495.000000	63.596367 
4494.000000	63.563871 
4493.000000	63.525962 
4492.000000	63.481283 
4491.000000	63.431572 
4490.000000	63.381743 
4489.000000	63.339710 
4488.000000	63.313913 
4487.000000	63.311767 
4486.000000	63.337135 
4485.000000	63.388895 
4484.000000	63.461136 
4483.000000	63.543438 
4482.000000	63.622951 
4481.000000	63.686871 
4480.000000	63.725686 
4479.000000	63.733696 
4478.000000	63.709998 
4477.000000	63.657784 
4476.000000	63.583374 
4475.000000	63.494277 
4474.000000	63.397860 
4473.000000	63.300347 
4472.000000	63.206672 
4471.000000	63.120388 
4470.000000	63.044381 
4469.000000	62.981319 
4468.000000	62.934207 
4467.000000	62.905645 
4466.000000	62.897944 
4465.000000	62.911701 
4464.000000	62.946391 
4463.000000	62.999868 
4462.000000	63.069391 
4461.000000	63.151168 
4460.000000	63.241410 
4459.000000	63.336277 
4458.000000	63.432002 
4457.000000	63.525080 
4456.000000	63.611841 
4455.000000	63.688778 
4454.000000	63.751864 
4453.000000	63.797950 
4452.000000	63.823771 
4451.000000	63.827109 
4450.000000	63.806843 
4449.000000	63.763856 
4448.000000	63.701963 
4447.000000	63.628506 
4446.000000	63.553524 
4445.000000	63.488554 
4444.000000	63.443803 
4443.000000	63.426017 
4442.000000	63.436532 
4441.000000	63.470983 
4440.000000	63.520073 
4439.000000	63.571786 
4438.000000	63.613653 
4437.000000	63.635993 
4436.000000	63.633012 
4435.000000	63.605022 
4434.000000	63.557219 
4433.000000	63.499546 
4432.000000	63.444304 
4431.000000	63.403439 
4430.000000	63.386464 
4429.000000	63.397431 
4428.000000	63.435673 
4427.000000	63.494181 
4426.000000	63.562417 
4425.000000	63.626718 
4424.000000	63.673639 
4423.000000	63.692402 
4422.000000	63.676476 
4421.000000	63.626790 
4420.000000	63.551473 
4419.000000	63.463664 
4418.000000	63.378620 
4417.000000	63.306856 
4416.000000	63.251733 
4415.000000	63.207483 
4414.000000	63.161873 
4413.000000	63.104796 
4412.000000	63.032054 
4411.000000	62.948203 
4410.000000	62.865304 
4409.000000	62.797832 
4408.000000	62.759160 
4407.000000	62.754774 
4406.000000	62.783265 
4405.000000	62.834072 
4404.000000	62.893843 
4403.000000	62.953925 
4402.000000	63.009715 
4401.000000	63.061356 
4400.000000	63.111519 
4399.000000	63.162469 
4398.000000	63.213753 
4397.000000	63.259410 
4396.000000	63.291597 
4395.000000	63.300895 
4394.000000	63.284611 
4393.000000	63.249611 
4392.000000	63.210248 
4391.000000	63.186883 
4390.000000	63.186383 
4389.000000	63.197851 
4388.000000	63.190007 
4387.000000	63.120198 
4386.000000	62.945365 
4385.000000	62.641000 
4384.000000	62.213897 
4383.000000	61.710715 
4382.000000	61.209654 
4381.000000	60.810017 
4380.000000	60.602879 
4379.000000	60.656642 
4378.000000	61.002111 
4377.000000	61.621952 
4376.000000	62.456655 
4375.000000	63.407588 
4374.000000	64.359164 
4373.000000	65.191936 
4372.000000	65.802049 
4371.000000	66.120767 
4370.000000	66.119289 
4369.000000	65.822744 
4368.000000	65.296936 
4367.000000	64.651846 
4366.000000	64.019203 
4365.000000	63.536286 
4364.000000	63.321471 
4363.000000	63.449859 
4362.000000	63.938665 
4361.000000	64.739251 
4360.000000	65.745735 
4359.000000	66.812157 
4358.000000	67.781019 
4357.000000	68.512296 
4356.000000	68.909621 
4355.000000	68.933463 
4354.000000	68.605709 
4353.000000	67.998790 
4352.000000	67.217087 
4351.000000	66.375589 
4350.000000	65.574908 
4349.000000	64.894032 
4348.000000	64.372777 
4347.000000	64.022350 
4346.000000	63.823080 
4345.000000	63.742089 
4344.000000	63.740086 
4343.000000	63.782930 
4342.000000	63.845086 
4341.000000	63.903808 
4340.000000	63.949632 
4339.000000	63.979077 
4338.000000	63.995742 
4337.000000	64.003348 
4336.000000	64.006805 
4335.000000	64.008522 
4334.000000	64.009833 
4333.000000	64.010405 
4332.000000	64.007544 
4331.000000	63.997197 
4330.000000	63.975477 
4329.000000	63.939595 
4328.000000	63.890004 
4327.000000	63.829803 
4326.000000	63.761830 
4325.000000	63.689851 
4324.000000	63.619947 
4323.000000	63.558197 
4322.000000	63.510084 
4321.000000	63.478589 
4320.000000	63.462066 
4319.000000	63.456010 
4318.000000	63.456177 
4317.000000	63.456964 
4316.000000	63.450765 
4315.000000	63.432049 
4314.000000	63.398599 
4313.000000	63.352084 
4312.000000	63.297176 
4311.000000	63.241863 
4310.000000	63.195204 
4309.000000	63.166856 
4308.000000	63.164997 
4307.000000	63.194990 
4306.000000	63.257884 
4305.000000	63.350605 
4304.000000	63.465499 
4303.000000	63.591718 
4302.000000	63.716220 
4301.000000	63.825488 
4300.000000	63.907623 
4299.000000	63.954186 
4298.000000	63.961362 
4297.000000	63.930463 
4296.000000	63.868141 
4295.000000	63.785600 
4294.000000	63.696265 
4293.000000	63.613796 
4292.000000	63.549423 
4291.000000	63.511276 
4290.000000	63.502073 
4289.000000	63.519859 
4288.000000	63.558316 
4287.000000	63.608789 
4286.000000	63.662195 
4285.000000	63.710951 
4284.000000	63.750100 
4283.000000	63.777112 
4282.000000	63.792419 
4281.000000	63.798093 
4280.000000	63.796734 
4279.000000	63.789987 
4278.000000	63.778305 
4277.000000	63.761019 
4276.000000	63.736915 
4275.000000	63.705444 
4274.000000	63.667869 
4273.000000	63.627696 
4272.000000	63.590145 
4271.000000	63.561248 
4270.000000	63.546562 
4269.000000	63.549613 
4268.000000	63.570451 
4267.000000	63.605642 
4266.000000	63.649106 
4265.000000	63.692927 
4264.000000	63.729667 
4263.000000	63.752698 
4262.000000	63.757371 
4261.000000	63.741207 
4260.000000	63.704323 
4259.000000	63.648080 
4258.000000	63.574528 
4257.000000	63.486456 
4256.000000	63.387346 
4255.000000	63.281702 
4254.000000	63.175082 
4253.000000	63.073968 
4252.000000	62.985038 
4251.000000	62.913918 
4250.000000	62.864565 
4249.000000	62.837624 
4248.000000	62.831330 
4247.000000	62.841534 
4246.000000	62.863588 
4245.000000	62.892675 
4244.000000	62.925577 
4243.000000	62.960290 
4242.000000	62.996721 
4241.000000	63.034844 
4240.000000	63.075232 
4239.000000	63.117599 
4238.000000	63.161134 
4237.000000	63.204503 
4236.000000	63.246154 
4235.000000	63.284873 
4234.000000	63.319730 
4233.000000	63.350605 
4232.000000	63.377618 
4231.000000	63.401293 
4230.000000	63.421678 
4229.000000	63.438344 
4228.000000	63.450527 
4227.000000	63.457536 
4226.000000	63.459038 
4225.000000	63.455390 
4224.000000	63.447189 
4223.000000	63.434863 
4222.000000	63.419127 
4221.000000	63.400650 
4220.000000	63.379597 
4219.000000	63.355970 
4218.000000	63.330268 
4217.000000	63.303613 
4216.000000	63.277578 
4215.000000	63.254499 
4214.000000	63.236784 
4213.000000	63.226890 
4212.000000	63.227105 
4211.000000	63.238549 
4210.000000	63.261127 
4209.000000	63.292622 
4208.000000	63.329219 
4207.000000	63.365149 
4206.000000	63.393735 
4205.000000	63.407778 
4204.000000	63.400840 
4203.000000	63.368487 
4202.000000	63.309383 
4201.000000	63.226485 
4200.000000	63.127017 
4199.000000	63.021802 
4198.000000	62.923645 
4197.000000	62.845110 
4196.000000	62.796211 
4195.000000	62.782645 
4194.000000	62.804651 
4193.000000	62.857174 
4192.000000	62.930917 
4191.000000	63.014221 
4190.000000	63.095378 
4189.000000	63.164138 
4188.000000	63.214111 
4187.000000	63.242101 
4186.000000	63.249635 
4185.000000	63.241076 
4184.000000	63.223576 
4183.000000	63.205027 
4182.000000	63.192987 
4181.000000	63.193559 
4180.000000	63.209795 
4179.000000	63.242316 
4178.000000	63.287734 
4177.000000	63.340115 
4176.000000	63.391184 
4175.000000	63.432431 
4174.000000	63.456797 
4173.000000	63.460421 
4172.000000	63.443660 
4171.000000	63.411211 
4170.000000	63.371133 
4169.000000	63.332748 
4168.000000	63.305020 
4167.000000	63.293981 
4166.000000	63.301372 
4165.000000	63.323903 
4164.000000	63.354873 
4163.000000	63.385438 
4162.000000	63.407015 
4161.000000	63.413429 
4160.000000	63.401913 
4159.000000	63.374209 
