PE IR       SPECTRUM    SPECTRUM    ASCII       PEDS        1.60        
  -1
C-1BE1~1.ASC
17/03/27
17:10:59.00
17/03/27
17:10:59.00
tln
$C-4040-8_t0033$<tbV0>[-13.0,-7.8,8.0,0.0,27,1,0]
370.000000
64









2002,4.07    
MIRTGS : RIGHTBACK : INTERNAL 2
MIR : ON : INTERNAL 2
OPTKBR

0.200000
8
8.000000
FILLER
RATIO
SPECTRUM
UNLOCKED 256

DOUBLE
64
COMBINED
1
0
0


1.000000
RATIO


1
0
TRUE
51149
0
LEFT NOT FITTED RIGHT NOT FITTED 0
NONE
NONE
15600
12.000000
4.427000
51148
TRUE
1 0 8 72 0 0 0 0 

15798.010000






#HDR
-1
-1
#GR
CM-1
%T
0.00002384185791015625
0.0
5000.000000
-1.000000
4631
8
89.653158
33.025765
#DATA
5000.000000	64.634847 
4999.000000	64.598369 
4998.000000	64.579510 
4997.000000	64.573621 
4996.000000	64.574623 
4995.000000	64.577436 
4994.000000	64.578247 
4993.000000	64.574956 
4992.000000	64.566612 
4991.000000	64.552497 
4990.000000	64.531850 
4989.000000	64.502644 
4988.000000	64.463543 
4987.000000	64.414334 
4986.000000	64.357495 
4985.000000	64.298367 
4984.000000	64.245080 
4983.000000	64.206886 
4982.000000	64.192318 
4981.000000	64.207005 
4980.000000	64.251112 
4979.000000	64.319252 
4978.000000	64.400935 
4977.000000	64.483618 
4976.000000	64.555406 
4975.000000	64.608383 
4974.000000	64.640283 
4973.000000	64.654803 
4972.000000	64.659500 
4971.000000	64.663434 
4970.000000	64.674901 
4969.000000	64.697933 
4968.000000	64.731407 
4967.000000	64.768767 
4966.000000	64.801168 
4965.000000	64.818763 
4964.000000	64.814352 
4963.000000	64.784836 
4962.000000	64.732670 
4961.000000	64.665341 
4960.000000	64.593744 
4959.000000	64.530277 
4958.000000	64.486002 
4957.000000	64.468836 
4956.000000	64.481973 
4955.000000	64.523458 
4954.000000	64.586472 
4953.000000	64.660406 
4952.000000	64.733147 
4951.000000	64.792680 
4950.000000	64.830374 
4949.000000	64.842224 
4948.000000	64.830708 
4947.000000	64.803910 
4946.000000	64.773941 
4945.000000	64.754271 
4944.000000	64.755916 
4943.000000	64.785242 
4942.000000	64.841151 
4941.000000	64.915871 
4940.000000	64.996266 
4939.000000	65.067291 
4938.000000	65.116024 
4937.000000	65.134930 
4936.000000	65.123963 
4935.000000	65.090084 
4934.000000	65.045499 
4933.000000	65.004277 
4932.000000	64.978003 
4931.000000	64.972805 
4930.000000	64.987874 
4929.000000	65.016078 
4928.000000	65.046739 
4927.000000	65.069270 
4926.000000	65.076255 
4925.000000	65.065908 
4924.000000	65.042257 
4923.000000	65.014624 
4922.000000	64.994287 
4921.000000	64.992070 
4920.000000	65.014457 
4919.000000	65.062904 
4918.000000	65.133595 
4917.000000	65.218472 
4916.000000	65.308022 
4915.000000	65.392160 
4914.000000	65.463232 
4913.000000	65.515327 
4912.000000	65.545487 
4911.000000	65.552091 
4910.000000	65.534591 
4909.000000	65.493249 
4908.000000	65.429043 
4907.000000	65.345263 
4906.000000	65.247941 
4905.000000	65.146088 
4904.000000	65.050864 
4903.000000	64.974093 
4902.000000	64.925932 
4901.000000	64.912486 
4900.000000	64.934158 
4899.000000	64.984989 
4898.000000	65.054392 
4897.000000	65.128922 
4896.000000	65.195894 
4895.000000	65.245985 
4894.000000	65.275502 
4893.000000	65.286016 
4892.000000	65.283536 
4891.000000	65.275979 
4890.000000	65.270853 
4889.000000	65.272688 
4888.000000	65.282559 
4887.000000	65.298533 
4886.000000	65.316414 
4885.000000	65.331959 
4884.000000	65.341973 
4883.000000	65.346217 
4882.000000	65.346002 
4881.000000	65.343379 
4880.000000	65.340137 
4879.000000	65.336656 
4878.000000	65.331768 
4877.000000	65.322971 
4876.000000	65.307545 
4875.000000	65.283846 
4874.000000	65.252566 
4873.000000	65.217137 
4872.000000	65.182614 
4871.000000	65.154552 
4870.000000	65.137267 
4869.000000	65.132904 
4868.000000	65.140676 
4867.000000	65.157246 
4866.000000	65.177774 
4865.000000	65.197086 
4864.000000	65.211749 
4863.000000	65.219354 
4862.000000	65.219736 
4861.000000	65.213012 
4860.000000	65.199065 
4859.000000	65.176510 
4858.000000	65.143060 
4857.000000	65.096044 
4856.000000	65.033459 
4855.000000	64.955782 
4854.000000	64.867019 
4853.000000	64.774727 
4852.000000	64.689230 
4851.000000	64.621281 
4850.000000	64.579606 
4849.000000	64.569091 
4848.000000	64.589548 
4847.000000	64.635372 
4846.000000	64.696884 
4845.000000	64.762425 
4844.000000	64.821052 
4843.000000	64.864301 
4842.000000	64.888334 
4841.000000	64.893651 
4840.000000	64.884996 
4839.000000	64.868950 
4838.000000	64.853072 
4837.000000	64.843750 
4836.000000	64.845442 
4835.000000	64.860272 
4834.000000	64.888048 
4833.000000	64.927268 
4832.000000	64.975094 
4831.000000	65.028667 
4830.000000	65.084528 
4829.000000	65.138769 
4828.000000	65.187001 
4827.000000	65.224909 
4826.000000	65.247941 
4825.000000	65.251970 
4824.000000	65.234470 
4823.000000	65.195584 
4822.000000	65.138339 
4821.000000	65.068769 
4820.000000	64.995169 
4819.000000	64.926648 
4818.000000	64.871263 
4817.000000	64.834403 
4816.000000	64.817595 
4815.000000	64.818120 
4814.000000	64.830279 
4813.000000	64.846777 
4812.000000	64.859771 
4811.000000	64.863610 
4810.000000	64.855408 
4809.000000	64.836311 
4808.000000	64.809870 
4807.000000	64.782238 
4806.000000	64.759874 
4805.000000	64.749121 
4804.000000	64.754533 
4803.000000	64.778542 
4802.000000	64.821124 
4801.000000	64.879870 
4800.000000	64.950752 
4799.000000	65.027976 
4798.000000	65.104746 
4797.000000	65.173649 
4796.000000	65.227460 
4795.000000	65.260004 
4794.000000	65.266966 
4793.000000	65.246796 
4792.000000	65.200853 
4791.000000	65.133523 
4790.000000	65.051174 
4789.000000	64.961743 
4788.000000	64.873075 
4787.000000	64.791965 
4786.000000	64.723157 
4785.000000	64.669108 
4784.000000	64.630174 
4783.000000	64.605236 
4782.000000	64.592766 
4781.000000	64.590764 
4780.000000	64.598560 
4779.000000	64.615750 
4778.000000	64.643383 
4777.000000	64.681911 
4776.000000	64.731979 
4775.000000	64.792966 
4774.000000	64.863228 
4773.000000	64.939713 
4772.000000	65.018033 
4771.000000	65.093016 
4770.000000	65.159106 
4769.000000	65.211272 
4768.000000	65.245389 
4767.000000	65.258836 
4766.000000	65.250968 
4765.000000	65.223145 
4764.000000	65.178513 
4763.000000	65.121221 
4762.000000	65.056419 
4761.000000	64.989066 
4760.000000	64.923667 
4759.000000	64.863705 
4758.000000	64.811658 
4757.000000	64.768981 
4756.000000	64.736032 
4755.000000	64.712882 
4754.000000	64.699268 
4753.000000	64.695119 
4752.000000	64.700317 
4751.000000	64.715027 
4750.000000	64.738416 
4749.000000	64.769291 
4748.000000	64.805364 
4747.000000	64.843821 
4746.000000	64.880967 
4745.000000	64.914131 
4744.000000	64.942193 
4743.000000	64.965772 
4742.000000	64.987015 
4741.000000	65.009331 
4740.000000	65.036129 
4739.000000	65.069460 
4738.000000	65.108990 
4737.000000	65.151381 
4736.000000	65.190792 
4735.000000	65.220284 
4734.000000	65.233349 
4733.000000	65.225362 
4732.000000	65.194916 
4731.000000	65.144848 
4730.000000	65.081405 
4729.000000	65.012526 
4728.000000	64.946269 
4727.000000	64.889597 
4726.000000	64.846730 
4725.000000	64.818930 
4724.000000	64.804410 
4723.000000	64.799642 
4722.000000	64.799690 
4721.000000	64.799761 
4720.000000	64.795637 
4719.000000	64.784002 
4718.000000	64.763593 
4717.000000	64.734792 
4716.000000	64.699983 
4715.000000	64.662599 
4714.000000	64.627504 
4713.000000	64.600086 
4712.000000	64.585304 
4711.000000	64.586806 
4710.000000	64.606428 
4709.000000	64.643836 
4708.000000	64.696240 
4707.000000	64.759039 
4706.000000	64.826583 
4705.000000	64.893126 
4704.000000	64.953875 
4703.000000	65.005159 
4702.000000	65.045022 
4701.000000	65.072560 
4700.000000	65.088129 
4699.000000	65.092206 
4698.000000	65.085530 
4697.000000	65.068578 
4696.000000	65.042734 
4695.000000	65.009379 
4694.000000	64.970517 
4693.000000	64.928364 
4692.000000	64.885926 
4691.000000	64.845800 
4690.000000	64.810276 
4689.000000	64.780521 
4688.000000	64.756655 
4687.000000	64.737701 
4686.000000	64.721941 
4685.000000	64.707589 
4684.000000	64.693427 
4683.000000	64.679074 
4682.000000	64.665246 
4681.000000	64.653468 
4680.000000	64.645600 
4679.000000	64.643025 
4678.000000	64.646220 
4677.000000	64.654207 
4676.000000	64.665150 
4675.000000	64.677023 
4674.000000	64.688062 
4673.000000	64.696931 
4672.000000	64.703202 
4671.000000	64.707827 
4670.000000	64.712238 
4669.000000	64.717721 
4668.000000	64.725017 
4667.000000	64.733719 
4666.000000	64.742875 
4665.000000	64.751291 
4664.000000	64.758062 
4663.000000	64.762926 
4662.000000	64.766931 
4661.000000	64.772129 
4660.000000	64.780306 
4659.000000	64.792537 
4658.000000	64.808487 
4657.000000	64.826703 
4656.000000	64.845204 
4655.000000	64.861893 
4654.000000	64.875912 
4653.000000	64.887046 
4652.000000	64.895772 
4651.000000	64.902234 
4650.000000	64.905619 
4649.000000	64.903903 
4648.000000	64.893817 
4647.000000	64.872145 
4646.000000	64.836406 
4645.000000	64.786815 
4644.000000	64.726638 
4643.000000	64.662551 
4642.000000	64.603352 
4641.000000	64.558815 
4640.000000	64.537048 
4639.000000	64.543342 
4638.000000	64.578342 
4637.000000	64.638352 
4636.000000	64.715886 
4635.000000	64.801406 
4634.000000	64.885115 
4633.000000	64.957952 
4632.000000	65.013074 
4631.000000	65.046238 
4630.000000	65.056347 
4629.000000	65.045070 
4628.000000	65.016484 
4627.000000	64.976382 
4626.000000	64.931106 
4625.000000	64.887070 
4624.000000	64.849209 
4623.000000	64.820933 
4622.000000	64.803171 
4621.000000	64.795041 
4620.000000	64.794135 
4619.000000	64.797186 
4618.000000	64.801287 
4617.000000	64.804697 
4616.000000	64.807391 
4615.000000	64.810395 
4614.000000	64.816069 
4613.000000	64.826488 
4612.000000	64.843750 
4611.000000	64.868736 
4610.000000	64.901709 
4609.000000	64.941835 
4608.000000	64.988374 
4607.000000	65.040588 
4606.000000	65.096974 
4605.000000	65.155291 
4604.000000	65.211987 
4603.000000	65.262246 
4602.000000	65.300726 
4601.000000	65.322232 
4600.000000	65.322971 
4599.000000	65.301442 
4598.000000	65.259599 
4597.000000	65.202093 
4596.000000	65.136408 
4595.000000	65.070438 
4594.000000	65.011048 
4593.000000	64.962196 
4592.000000	64.924883 
4591.000000	64.896941 
4590.000000	64.874267 
4589.000000	64.852571 
4588.000000	64.828252 
4587.000000	64.800691 
4586.000000	64.772009 
4585.000000	64.747405 
4584.000000	64.732599 
4583.000000	64.733886 
4582.000000	64.755821 
4581.000000	64.800477 
4580.000000	64.866352 
4579.000000	64.948582 
4578.000000	65.039706 
4577.000000	65.130376 
4576.000000	65.211033 
4575.000000	65.273427 
4574.000000	65.312266 
4573.000000	65.325427 
4572.000000	65.314769 
4571.000000	65.286469 
4570.000000	65.249300 
4569.000000	65.213680 
4568.000000	65.188193 
4567.000000	65.179014 
4566.000000	65.186786 
4565.000000	65.208292 
4564.000000	65.235686 
4563.000000	65.258550 
4562.000000	65.266561 
4561.000000	65.252661 
4560.000000	65.214395 
4559.000000	65.154194 
4558.000000	65.079545 
4557.000000	65.000891 
4556.000000	64.929890 
4555.000000	64.876556 
4554.000000	64.847517 
4553.000000	64.844894 
4552.000000	64.866018 
4551.000000	64.904189 
4550.000000	64.950037 
4549.000000	64.993262 
4548.000000	65.024018 
4547.000000	65.034389 
4546.000000	65.018796 
4545.000000	64.975452 
4544.000000	64.905738 
4543.000000	64.815545 
4542.000000	64.713335 
4541.000000	64.610600 
4540.000000	64.519691 
4539.000000	64.452934 
4538.000000	64.420366 
4537.000000	64.428281 
4536.000000	64.478182 
4535.000000	64.566087 
4534.000000	64.683055 
4533.000000	64.816474 
4532.000000	64.951801 
4531.000000	65.075278 
4530.000000	65.175509 
4529.000000	65.245723 
4528.000000	65.283894 
4527.000000	65.293025 
4526.000000	65.279841 
4525.000000	65.252923 
4524.000000	65.220785 
4523.000000	65.190744 
4522.000000	65.167617 
4521.000000	65.153765 
4520.000000	65.149044 
4519.000000	65.152072 
4518.000000	65.160632 
4517.000000	65.172505 
4516.000000	65.185523 
4515.000000	65.197968 
4514.000000	65.208292 
4513.000000	65.214800 
4512.000000	65.215873 
4511.000000	65.210103 
4510.000000	65.197181 
4509.000000	65.177631 
4508.000000	65.153551 
4507.000000	65.128493 
4506.000000	65.106749 
4505.000000	65.092492 
4504.000000	65.088486 
4503.000000	65.095376 
4502.000000	65.111398 
4501.000000	65.132975 
4500.000000	65.154647 
4499.000000	65.170335 
4498.000000	65.174531 
4497.000000	65.163803 
4496.000000	65.137195 
4495.000000	65.096688 
4494.000000	65.047240 
4493.000000	64.995718 
4492.000000	64.950251 
4491.000000	64.918231 
4490.000000	64.904952 
4489.000000	64.912366 
4488.000000	64.938879 
4487.000000	64.979553 
4486.000000	65.027165 
4485.000000	65.073680 
4484.000000	65.111851 
4483.000000	65.136933 
4482.000000	65.147399 
4481.000000	65.144777 
4480.000000	65.132927 
4479.000000	65.116715 
4478.000000	65.100789 
4477.000000	65.088367 
4476.000000	65.080523 
4475.000000	65.076828 
4474.000000	65.076231 
4473.000000	65.077686 
4472.000000	65.081000 
4471.000000	65.086936 
4470.000000	65.096879 
4469.000000	65.112066 
4468.000000	65.132975 
4467.000000	65.158915 
4466.000000	65.188026 
4465.000000	65.217661 
4464.000000	65.244889 
4463.000000	65.267848 
4462.000000	65.285611 
4461.000000	65.298676 
4460.000000	65.308117 
4459.000000	65.315222 
4458.000000	65.320301 
4457.000000	65.322804 
4456.000000	65.320730 
4455.000000	65.311598 
4454.000000	65.292668 
4453.000000	65.262675 
4452.000000	65.221238 
4451.000000	65.169429 
4450.000000	65.109610 
4449.000000	65.045356 
4448.000000	64.980912 
4447.000000	64.920496 
4446.000000	64.868211 
4445.000000	64.827752 
4444.000000	64.801669 
4443.000000	64.791202 
4442.000000	64.795589 
4441.000000	64.811873 
4440.000000	64.835214 
4439.000000	64.859247 
4438.000000	64.876723 
4437.000000	64.880895 
4436.000000	64.866566 
4435.000000	64.831638 
4434.000000	64.777135 
4433.000000	64.708232 
4432.000000	64.632344 
4431.000000	64.559388 
4430.000000	64.499354 
4429.000000	64.461994 
4428.000000	64.454078 
4427.000000	64.479899 
4426.000000	64.540863 
4425.000000	64.634537 
4424.000000	64.754414 
4423.000000	64.890813 
4422.000000	65.031647 
4421.000000	65.164446 
4420.000000	65.277886 
4419.000000	65.363836 
4418.000000	65.418672 
4417.000000	65.440845 
4416.000000	65.430545 
4415.000000	65.389704 
4414.000000	65.321731 
4413.000000	65.234375 
4412.000000	65.138411 
4411.000000	65.046215 
4410.000000	64.969563 
4409.000000	64.915180 
4408.000000	64.885759 
4407.000000	64.880251 
4406.000000	64.897155 
4405.000000	64.932894 
4404.000000	64.987373 
4403.000000	65.065383 
4402.000000	65.173912 
4401.000000	65.320324 
4400.000000	65.505409 
4399.000000	65.719056 
4398.000000	65.940737 
4397.000000	66.141891 
4396.000000	66.294002 
4395.000000	66.370177 
4394.000000	66.366982 
4393.000000	66.309928 
4392.000000	66.242194 
4391.000000	66.215181 
4390.000000	66.259360 
4389.000000	66.373610 
4388.000000	66.514945 
4387.000000	66.612339 
4386.000000	66.593170 
4385.000000	66.411995 
4384.000000	66.071367 
4383.000000	65.631580 
4382.000000	65.200161 
4381.000000	64.906787 
4380.000000	64.869141 
4379.000000	65.158462 
4378.000000	65.773653 
4377.000000	66.637635 
4376.000000	67.623877 
4375.000000	68.570518 
4374.000000	69.333267 
4373.000000	69.788622 
4372.000000	69.873094 
4371.000000	69.560527 
4370.000000	68.855166 
4369.000000	67.791032 
4368.000000	66.414690 
4367.000000	64.814400 
4366.000000	63.118124 
4365.000000	61.493158 
4364.000000	60.131001 
4363.000000	59.191489 
4362.000000	58.771109 
4361.000000	58.856058 
4360.000000	59.327363 
4359.000000	59.983038 
4358.000000	60.600161 
4357.000000	60.990190 
4356.000000	61.062169 
4355.000000	60.844683 
4354.000000	60.481953 
4353.000000	60.181212 
4352.000000	60.153746 
4351.000000	60.541033 
4350.000000	61.374831 
4349.000000	62.561273 
4348.000000	63.908648 
4347.000000	65.188050 
4346.000000	66.186881 
4345.000000	66.781020 
4344.000000	66.943144 
4343.000000	66.744923 
4342.000000	66.320705 
4341.000000	65.815067 
4340.000000	65.353345 
4339.000000	65.007972 
4338.000000	64.800214 
4337.000000	64.713072 
4336.000000	64.701223 
4335.000000	64.716863 
4334.000000	64.725756 
4333.000000	64.719247 
4332.000000	64.701938 
4331.000000	64.689230 
4330.000000	64.693474 
4329.000000	64.721417 
4328.000000	64.769148 
4327.000000	64.826345 
4326.000000	64.881467 
4325.000000	64.926147 
4324.000000	64.962506 
4323.000000	64.999318 
4322.000000	65.045261 
4321.000000	65.108299 
4320.000000	65.191245 
4319.000000	65.291452 
4318.000000	65.402078 
4317.000000	65.511989 
4316.000000	65.611648 
4315.000000	65.690016 
4314.000000	65.734934 
4313.000000	65.739512 
4312.000000	65.704965 
4311.000000	65.638947 
4310.000000	65.554690 
4309.000000	65.466189 
4308.000000	65.384888 
4307.000000	65.319776 
4306.000000	65.275740 
4305.000000	65.252923 
4304.000000	65.247535 
4303.000000	65.253710 
4302.000000	65.265154 
4301.000000	65.276193 
4300.000000	65.283346 
4299.000000	65.284323 
4298.000000	65.279150 
4297.000000	65.269088 
4296.000000	65.256404 
4295.000000	65.243554 
4294.000000	65.232300 
4293.000000	65.223717 
4292.000000	65.216994 
4291.000000	65.209937 
4290.000000	65.199398 
4289.000000	65.182399 
4288.000000	65.157341 
4287.000000	65.124082 
4286.000000	65.085625 
4285.000000	65.047574 
4284.000000	65.017271 
4283.000000	65.001988 
4282.000000	65.007829 
4281.000000	65.037941 
4280.000000	65.091490 
4279.000000	65.163278 
4278.000000	65.243864 
4277.000000	65.321826 
4276.000000	65.385723 
4275.000000	65.427207 
4274.000000	65.442156 
4273.000000	65.432333 
4272.000000	65.404367 
4271.000000	65.368413 
4270.000000	65.335655 
4269.000000	65.315294 
4268.000000	65.313100 
4267.000000	65.329313 
4266.000000	65.359687 
4265.000000	65.395784 
4264.000000	65.428614 
4263.000000	65.449452 
4262.000000	65.452098 
4261.000000	65.433883 
4260.000000	65.395927 
4259.000000	65.342307 
4258.000000	65.278553 
4257.000000	65.210938 
4256.000000	65.145182 
4255.000000	65.086483 
4254.000000	65.039396 
4253.000000	65.007305 
4252.000000	64.992284 
4251.000000	64.994430 
4250.000000	65.011620 
4249.000000	65.038681 
4248.000000	65.068674 
4247.000000	65.094041 
4246.000000	65.108871 
4245.000000	65.109109 
4244.000000	65.094780 
4243.000000	65.069508 
4242.000000	65.040564 
4241.000000	65.016150 
4240.000000	65.004754 
4239.000000	65.012669 
4238.000000	65.043210 
4237.000000	65.096139 
4236.000000	65.167570 
4235.000000	65.251231 
4234.000000	65.338850 
4233.000000	65.422034 
4232.000000	65.492558 
4231.000000	65.543889 
4230.000000	65.571212 
4229.000000	65.571928 
4228.000000	65.545988 
4227.000000	65.495800 
4226.000000	65.426325 
4225.000000	65.344238 
4224.000000	65.257072 
4223.000000	65.171957 
4222.000000	65.094828 
4221.000000	65.029716 
4220.000000	64.978337 
4219.000000	64.940547 
4218.000000	64.914584 
4217.000000	64.898085 
4216.000000	64.888834 
4215.000000	64.885187 
4214.000000	64.885592 
4213.000000	64.888811 
4212.000000	64.892888 
4211.000000	64.895415 
4210.000000	64.893364 
4209.000000	64.883828 
4208.000000	64.864063 
4207.000000	64.832901 
4206.000000	64.791560 
4205.000000	64.742994 
4204.000000	64.691400 
4203.000000	64.641046 
4202.000000	64.595603 
4201.000000	64.557433 
4200.000000	64.527273 
4199.000000	64.504408 
4198.000000	64.487004 
4197.000000	64.472556 
4196.000000	64.458584 
4195.000000	64.443325 
4194.000000	64.425969 
4193.000000	64.405679 
4192.000000	64.382123 
4191.000000	64.354991 
4190.000000	64.324975 
4189.000000	64.292716 
4188.000000	64.260578 
4187.000000	64.231514 
4186.000000	64.210462 
4185.000000	64.203000 
4184.000000	64.215588 
4183.000000	64.253330 
4182.000000	64.319777 
4181.000000	64.415764 
4180.000000	64.538431 
4179.000000	64.681029 
4178.000000	64.833021 
4177.000000	64.981126 
4176.000000	65.111494 
4175.000000	65.211939 
4174.000000	65.274572 
4173.000000	65.297412 
4172.000000	65.285801 
4171.000000	65.250992 
4170.000000	65.208101 
4169.000000	65.172171 
4168.000000	65.156030 
4167.000000	65.166449 
4166.000000	65.203571 
4165.000000	65.260219 
4164.000000	65.324926 
4163.000000	65.383791 
4162.000000	65.424227 
4161.000000	65.437293 
4160.000000	65.419530 
4159.000000	65.373301 
