PE IR       SPECTRUM    SPECTRUM    ASCII       PEDS        1.60        
  -1
C-1B61~1.ASC
17/03/27
16:57:08.00
17/03/27
16:57:08.00
tln
$C-4040-8_t0030$<tbV0>[-5.2,-7.8,8.0,0.0,27,1,0]
370.000000
64









2002,4.07    
MIRTGS : RIGHTBACK : INTERNAL 2
MIR : ON : INTERNAL 2
OPTKBR

0.200000
8
8.000000
FILLER
RATIO
SPECTRUM
UNLOCKED 256

DOUBLE
64
COMBINED
1
0
0


1.000000
RATIO


1
0
TRUE
51149
0
LEFT NOT FITTED RIGHT NOT FITTED 0
NONE
NONE
15600
12.000000
4.427000
51148
TRUE
1 0 8 72 0 0 0 0 

15798.010000






#HDR
-1
-1
#GR
CM-1
%T
0.00002384185791015625
0.0
5000.000000
-1.000000
4631
8
66.671490
11.181259
#DATA
5000.000000	63.822174 
4999.000000	63.784360 
4998.000000	63.751459 
4997.000000	63.726997 
4996.000000	63.716006 
4995.000000	63.723278 
4994.000000	63.752150 
4993.000000	63.803052 
4992.000000	63.872814 
4991.000000	63.954210 
4990.000000	64.037680 
4989.000000	64.112567 
4988.000000	64.170050 
4987.000000	64.204597 
4986.000000	64.215755 
4985.000000	64.207720 
4984.000000	64.187979 
4983.000000	64.165210 
4982.000000	64.146757 
4981.000000	64.137005 
4980.000000	64.136433 
4979.000000	64.142060 
4978.000000	64.148855 
4977.000000	64.151668 
4976.000000	64.146947 
4975.000000	64.134025 
4974.000000	64.115333 
4973.000000	64.095807 
4972.000000	64.080452 
4971.000000	64.073944 
4970.000000	64.078760 
4969.000000	64.095306 
4968.000000	64.121723 
4967.000000	64.154815 
4966.000000	64.191150 
4965.000000	64.227366 
4964.000000	64.260649 
4963.000000	64.289093 
4962.000000	64.311218 
4961.000000	64.327073 
4960.000000	64.337682 
4959.000000	64.345169 
4958.000000	64.352154 
4957.000000	64.361047 
4956.000000	64.373135 
4955.000000	64.387488 
4954.000000	64.400672 
4953.000000	64.406681 
4952.000000	64.398622 
4951.000000	64.370369 
4950.000000	64.319276 
4949.000000	64.247512 
4948.000000	64.163041 
4947.000000	64.078712 
4946.000000	64.009618 
4945.000000	63.969230 
4944.000000	63.966083 
4943.000000	64.001369 
4942.000000	64.068818 
4941.000000	64.156174 
4940.000000	64.247989 
4939.000000	64.329457 
4938.000000	64.389395 
4937.000000	64.422249 
4936.000000	64.428377 
4935.000000	64.412593 
4934.000000	64.382672 
4933.000000	64.346671 
4932.000000	64.311385 
4931.000000	64.281320 
4930.000000	64.258098 
4929.000000	64.241218 
4928.000000	64.229393 
4927.000000	64.221739 
4926.000000	64.217829 
4925.000000	64.218521 
4924.000000	64.225125 
4923.000000	64.239692 
4922.000000	64.264178 
4921.000000	64.300203 
4920.000000	64.348363 
4919.000000	64.407372 
4918.000000	64.474487 
4917.000000	64.544486 
4916.000000	64.610242 
4915.000000	64.663720 
4914.000000	64.697289 
4913.000000	64.705443 
4912.000000	64.685773 
4911.000000	64.640474 
4910.000000	64.575958 
4909.000000	64.502692 
4908.000000	64.432764 
4907.000000	64.379096 
4906.000000	64.353251 
4905.000000	64.362907 
4904.000000	64.410257 
4903.000000	64.491868 
4902.000000	64.599251 
4901.000000	64.719915 
4900.000000	64.840030 
4899.000000	64.946269 
4898.000000	65.028047 
4897.000000	65.079450 
4896.000000	65.098953 
4895.000000	65.088772 
4894.000000	65.052914 
4893.000000	64.996886 
4892.000000	64.925050 
4891.000000	64.841103 
4890.000000	64.747166 
4889.000000	64.645528 
4888.000000	64.538860 
4887.000000	64.432215 
4886.000000	64.332127 
4885.000000	64.246463 
4884.000000	64.181947 
4883.000000	64.143013 
4882.000000	64.129137 
4881.000000	64.134407 
4880.000000	64.148306 
4879.000000	64.157724 
4878.000000	64.150285 
4877.000000	64.117002 
4876.000000	64.055395 
4875.000000	63.970661 
4874.000000	63.874936 
4873.000000	63.785219 
4872.000000	63.720583 
4871.000000	63.697838 
4870.000000	63.727903 
4869.000000	63.812637 
4868.000000	63.944935 
4867.000000	64.109134 
4866.000000	64.283895 
4865.000000	64.446401 
4864.000000	64.576530 
4863.000000	64.660811 
4862.000000	64.694333 
4861.000000	64.681005 
4860.000000	64.631581 
4859.000000	64.560961 
4858.000000	64.485383 
4857.000000	64.417743 
4856.000000	64.366006 
4855.000000	64.331936 
4854.000000	64.313364 
4853.000000	64.304542 
4852.000000	64.299082 
4851.000000	64.291763 
4850.000000	64.280223 
4849.000000	64.263868 
4848.000000	64.243483 
4847.000000	64.219975 
4846.000000	64.193677 
4845.000000	64.164662 
4844.000000	64.132738 
4843.000000	64.098525 
4842.000000	64.063572 
4841.000000	64.030909 
4840.000000	64.004302 
4839.000000	63.987040 
4838.000000	63.981342 
4837.000000	63.987326 
4836.000000	64.002919 
4835.000000	64.023637 
4834.000000	64.044284 
4833.000000	64.061021 
4832.000000	64.071559 
4831.000000	64.075636 
4830.000000	64.074969 
4829.000000	64.072299 
4828.000000	64.070892 
4827.000000	64.073109 
4826.000000	64.080834 
4825.000000	64.094710 
4824.000000	64.115381 
4823.000000	64.143610 
4822.000000	64.179396 
4821.000000	64.221525 
4820.000000	64.267086 
4819.000000	64.311361 
4818.000000	64.347815 
4817.000000	64.369320 
4816.000000	64.369821 
4815.000000	64.345812 
4814.000000	64.297533 
4813.000000	64.229226 
4812.000000	64.148926 
4811.000000	64.066171 
4810.000000	63.990497 
4809.000000	63.928866 
4808.000000	63.884472 
4807.000000	63.856625 
4806.000000	63.841438 
4805.000000	63.833665 
4804.000000	63.828110 
4803.000000	63.821935 
4802.000000	63.814902 
4801.000000	63.809728 
4800.000000	63.810086 
4799.000000	63.820195 
4798.000000	63.842487 
4797.000000	63.877534 
4796.000000	63.923192 
4795.000000	63.975191 
4794.000000	64.027857 
4793.000000	64.075446 
4792.000000	64.113044 
4791.000000	64.137411 
4790.000000	64.147186 
4789.000000	64.142584 
4788.000000	64.124894 
4787.000000	64.096140 
4786.000000	64.058709 
4785.000000	64.015412 
4784.000000	63.969278 
4783.000000	63.923954 
4782.000000	63.882613 
4781.000000	63.848471 
4780.000000	63.823127 
4779.000000	63.806033 
4778.000000	63.794994 
4777.000000	63.786053 
4776.000000	63.775920 
4775.000000	63.762354 
4774.000000	63.746452 
4773.000000	63.732099 
4772.000000	63.726019 
4771.000000	63.735628 
4770.000000	63.766717 
4769.000000	63.821125 
4768.000000	63.895177 
4767.000000	63.979935 
4766.000000	64.062738 
4765.000000	64.130067 
4764.000000	64.171075 
4763.000000	64.180183 
4762.000000	64.158511 
4761.000000	64.113330 
4760.000000	64.055967 
4759.000000	63.998508 
4758.000000	63.950896 
4757.000000	63.918375 
4756.000000	63.901543 
4755.000000	63.896274 
4754.000000	63.896775 
4753.000000	63.896751 
4752.000000	63.891935 
4751.000000	63.880491 
4750.000000	63.863325 
4749.000000	63.843131 
4748.000000	63.822555 
4747.000000	63.803911 
4746.000000	63.787889 
4745.000000	63.774704 
4744.000000	63.763761 
4743.000000	63.755393 
4742.000000	63.751149 
4741.000000	63.753485 
4740.000000	63.765382 
4739.000000	63.789129 
4738.000000	63.825345 
4737.000000	63.872289 
4736.000000	63.925838 
4735.000000	63.980340 
4734.000000	64.029192 
4733.000000	64.066767 
4732.000000	64.088726 
4731.000000	64.093089 
4730.000000	64.079785 
4729.000000	64.050436 
4728.000000	64.008021 
4727.000000	63.956236 
4726.000000	63.899397 
4725.000000	63.842034 
4724.000000	63.789010 
4723.000000	63.745474 
4722.000000	63.716316 
4721.000000	63.705801 
4720.000000	63.716483 
4719.000000	63.748288 
4718.000000	63.798856 
4717.000000	63.863468 
4716.000000	63.936090 
4715.000000	64.010119 
4714.000000	64.080119 
4713.000000	64.142370 
4712.000000	64.195513 
4711.000000	64.240026 
4710.000000	64.277386 
4709.000000	64.309072 
4708.000000	64.335680 
4707.000000	64.356303 
4706.000000	64.369225 
4705.000000	64.372086 
4704.000000	64.363312 
4703.000000	64.342570 
4702.000000	64.311814 
4701.000000	64.274334 
4700.000000	64.234805 
4699.000000	64.197421 
4698.000000	64.165353 
4697.000000	64.139413 
4696.000000	64.118766 
4695.000000	64.100241 
4694.000000	64.079475 
4693.000000	64.052319 
4692.000000	64.015984 
4691.000000	63.970184 
4690.000000	63.917064 
4689.000000	63.861298 
4688.000000	63.809037 
4687.000000	63.766789 
4686.000000	63.739895 
4685.000000	63.731312 
4684.000000	63.740658 
4683.000000	63.764905 
4682.000000	63.798594 
4681.000000	63.834285 
4680.000000	63.864350 
4679.000000	63.882088 
4678.000000	63.883662 
4677.000000	63.867783 
4676.000000	63.836765 
4675.000000	63.796019 
4674.000000	63.753151 
4673.000000	63.716578 
4672.000000	63.693737 
4671.000000	63.689970 
4670.000000	63.706994 
4669.000000	63.743400 
4668.000000	63.794589 
4667.000000	63.853693 
4666.000000	63.913655 
4665.000000	63.968634 
4664.000000	64.015126 
4663.000000	64.052319 
4662.000000	64.081740 
4661.000000	64.106154 
4660.000000	64.127492 
4659.000000	64.145588 
4658.000000	64.158082 
4657.000000	64.160847 
4656.000000	64.149212 
4655.000000	64.119505 
4654.000000	64.071226 
4653.000000	64.007306 
4652.000000	63.933801 
4651.000000	63.858675 
4650.000000	63.789796 
4649.000000	63.733577 
4648.000000	63.693785 
4647.000000	63.671636 
4646.000000	63.665604 
4645.000000	63.672971 
4644.000000	63.690614 
4643.000000	63.715958 
4642.000000	63.746953 
4641.000000	63.782358 
4640.000000	63.820743 
4639.000000	63.860845 
4638.000000	63.900160 
4637.000000	63.936638 
4636.000000	63.968634 
4635.000000	63.995981 
4634.000000	64.019632 
4633.000000	64.041852 
4632.000000	64.065361 
4631.000000	64.092183 
4630.000000	64.122724 
4629.000000	64.155364 
4628.000000	64.186549 
4627.000000	64.211893 
4626.000000	64.227032 
4625.000000	64.228796 
4624.000000	64.216208 
4623.000000	64.191198 
4622.000000	64.157962 
4621.000000	64.122271 
4620.000000	64.089941 
4619.000000	64.066267 
4618.000000	64.053845 
4617.000000	64.052462 
4616.000000	64.058732 
4615.000000	64.067602 
4614.000000	64.073181 
4613.000000	64.070510 
4612.000000	64.056563 
4611.000000	64.030838 
4610.000000	63.995647 
4609.000000	63.955545 
4608.000000	63.915991 
4607.000000	63.881969 
4606.000000	63.857364 
4605.000000	63.844227 
4604.000000	63.842391 
4603.000000	63.849830 
4602.000000	63.863968 
4601.000000	63.882660 
4600.000000	63.904118 
4599.000000	63.927793 
4598.000000	63.953995 
4597.000000	63.983917 
4596.000000	64.018630 
4595.000000	64.058852 
4594.000000	64.104461 
4593.000000	64.154267 
4592.000000	64.206552 
4591.000000	64.258313 
4590.000000	64.305901 
4589.000000	64.345240 
4588.000000	64.372849 
4587.000000	64.386081 
4586.000000	64.383959 
4585.000000	64.367389 
4584.000000	64.339494 
4583.000000	64.304375 
4582.000000	64.266633 
4581.000000	64.229774 
4580.000000	64.195823 
4579.000000	64.163970 
4578.000000	64.131355 
4577.000000	64.093613 
4576.000000	64.046669 
4575.000000	63.987994 
4574.000000	63.918399 
4573.000000	63.841891 
4572.000000	63.766002 
4571.000000	63.700580 
4570.000000	63.656044 
4569.000000	63.640260 
4568.000000	63.657093 
4567.000000	63.705635 
4566.000000	63.779830 
4565.000000	63.869547 
4564.000000	63.962531 
4563.000000	64.046502 
4562.000000	64.111590 
4561.000000	64.151883 
4560.000000	64.166140 
4559.000000	64.157009 
4558.000000	64.130616 
4557.000000	64.094710 
4556.000000	64.057087 
4555.000000	64.023971 
4554.000000	63.999485 
4553.000000	63.985776 
4552.000000	63.982343 
4551.000000	63.986778 
4550.000000	63.995432 
4549.000000	64.004158 
4548.000000	64.008188 
4547.000000	64.002656 
4546.000000	63.983106 
4545.000000	63.946270 
4544.000000	63.890862 
4543.000000	63.818430 
4542.000000	63.733100 
4541.000000	63.642287 
4540.000000	63.555073 
4539.000000	63.482022 
4538.000000	63.432455 
4537.000000	63.414192 
4536.000000	63.431644 
4535.000000	63.485860 
4534.000000	63.573241 
4533.000000	63.687300 
4532.000000	63.819289 
4531.000000	63.959884 
4530.000000	64.099502 
4529.000000	64.230656 
4528.000000	64.347982 
4527.000000	64.448833 
4526.000000	64.532589 
4525.000000	64.599704 
4524.000000	64.650559 
4523.000000	64.685368 
4522.000000	64.703726 
4521.000000	64.704418 
4520.000000	64.685702 
4519.000000	64.647126 
4518.000000	64.589643 
4517.000000	64.516258 
4516.000000	64.431667 
4515.000000	64.342427 
4514.000000	64.255547 
4513.000000	64.176964 
4512.000000	64.111018 
4511.000000	64.059901 
4510.000000	64.023613 
4509.000000	64.000225 
4508.000000	63.987183 
4507.000000	63.981676 
4506.000000	63.981795 
4505.000000	63.986468 
4504.000000	63.995623 
4503.000000	64.008688 
4502.000000	64.025759 
4501.000000	64.046955 
4500.000000	64.071893 
4499.000000	64.099049 
4498.000000	64.127302 
4497.000000	64.156103 
4496.000000	64.185070 
4495.000000	64.214015 
4494.000000	64.243292 
4493.000000	64.273428 
4492.000000	64.304780 
4491.000000	64.337587 
4490.000000	64.371824 
4489.000000	64.407348 
4488.000000	64.444208 
4487.000000	64.482069 
4486.000000	64.520716 
4485.000000	64.559268 
4484.000000	64.596867 
4483.000000	64.631819 
4482.000000	64.661931 
4481.000000	64.684128 
4480.000000	64.695906 
4479.000000	64.694166 
4478.000000	64.676547 
4477.000000	64.640927 
4476.000000	64.586710 
4475.000000	64.514493 
4474.000000	64.426898 
4473.000000	64.328074 
4472.000000	64.223861 
4471.000000	64.121556 
4470.000000	64.029097 
4469.000000	63.953971 
4468.000000	63.901925 
4467.000000	63.875555 
4466.000000	63.873910 
4465.000000	63.891959 
4464.000000	63.922119 
4463.000000	63.955259 
4462.000000	63.982939 
4461.000000	63.998508 
4460.000000	63.998746 
4459.000000	63.983774 
4458.000000	63.956952 
4457.000000	63.923048 
4456.000000	63.887548 
4455.000000	63.855361 
4454.000000	63.829731 
4453.000000	63.812303 
4452.000000	63.802289 
4451.000000	63.797783 
4450.000000	63.795447 
4449.000000	63.791918 
4448.000000	63.784122 
4447.000000	63.770031 
4446.000000	63.749241 
4445.000000	63.722920 
4444.000000	63.694548 
4443.000000	63.669204 
4442.000000	63.653087 
4441.000000	63.652062 
4440.000000	63.670921 
4439.000000	63.711690 
4438.000000	63.773202 
4437.000000	63.850450 
4436.000000	63.934707 
4435.000000	64.015364 
4434.000000	64.081740 
4433.000000	64.125657 
4432.000000	64.142847 
4431.000000	64.134097 
4430.000000	64.105367 
4429.000000	64.066004 
4428.000000	64.025998 
4427.000000	63.994145 
4426.000000	63.977074 
4425.000000	63.976883 
4424.000000	63.991713 
4423.000000	64.015913 
4422.000000	64.042782 
4421.000000	64.064955 
4420.000000	64.076375 
4419.000000	64.072799 
4418.000000	64.052629 
4417.000000	64.014244 
4416.000000	63.956260 
4415.000000	63.877248 
4414.000000	63.777041 
4413.000000	63.660788 
4412.000000	63.538694 
4411.000000	63.424253 
4410.000000	63.331747 
4409.000000	63.271522 
4408.000000	63.249158 
4407.000000	63.263010 
4406.000000	63.307738 
4405.000000	63.374233 
4404.000000	63.455390 
4403.000000	63.548421 
4402.000000	63.654780 
4401.000000	63.778567 
4400.000000	63.922119 
4399.000000	64.082622 
4398.000000	64.249944 
4397.000000	64.403605 
4396.000000	64.523410 
4395.000000	64.592003 
4394.000000	64.608788 
4393.000000	64.595150 
4392.000000	64.582681 
4391.000000	64.604544 
4390.000000	64.679288 
4389.000000	64.804053 
4388.000000	64.940023 
4387.000000	65.023922 
4386.000000	64.990448 
4385.000000	64.796400 
4384.000000	64.441275 
4383.000000	63.974881 
4382.000000	63.488793 
4381.000000	63.094830 
4380.000000	62.898015 
4379.000000	62.966442 
4378.000000	63.301873 
4377.000000	63.848090 
4376.000000	64.502382 
4375.000000	65.150094 
4374.000000	65.698432 
4373.000000	66.094589 
4372.000000	66.347432 
4371.000000	66.495180 
4370.000000	66.589808 
4369.000000	66.654610 
4368.000000	66.671490 
4367.000000	66.569638 
4366.000000	66.248488 
4365.000000	65.603494 
4364.000000	64.569973 
4363.000000	63.140058 
4362.000000	61.382961 
4361.000000	59.432673 
4360.000000	57.472729 
4359.000000	55.701541 
4358.000000	54.304623 
4357.000000	53.418874 
4356.000000	53.120589 
4355.000000	53.417491 
4354.000000	54.257988 
4353.000000	55.536985 
4352.000000	57.121229 
4351.000000	58.856892 
4350.000000	60.599422 
4349.000000	62.208557 
4348.000000	63.579988 
4347.000000	64.638924 
4346.000000	65.356016 
4345.000000	65.743136 
4344.000000	65.844583 
4343.000000	65.731406 
4342.000000	65.478372 
4341.000000	65.160989 
4340.000000	64.835023 
4339.000000	64.541172 
4338.000000	64.298415 
4337.000000	64.116287 
4336.000000	63.990664 
4335.000000	63.913130 
4334.000000	63.874363 
4333.000000	63.868927 
4332.000000	63.890361 
4331.000000	63.932609 
4330.000000	63.990402 
4329.000000	64.059138 
4328.000000	64.128899 
4327.000000	64.189100 
4326.000000	64.233875 
4325.000000	64.261531 
4324.000000	64.273357 
4323.000000	64.273595 
4322.000000	64.266014 
4321.000000	64.254188 
4320.000000	64.244771 
4319.000000	64.241313 
4318.000000	64.240813 
4317.000000	64.237618 
4316.000000	64.229512 
4315.000000	64.212703 
4314.000000	64.182066 
4313.000000	64.135146 
4312.000000	64.073538 
4311.000000	64.002203 
4310.000000	63.928675 
4309.000000	63.861322 
4308.000000	63.807177 
4307.000000	63.772082 
4306.000000	63.759160 
4305.000000	63.767719 
4304.000000	63.793635 
4303.000000	63.830280 
4302.000000	63.870716 
4301.000000	63.908672 
4300.000000	63.940763 
4299.000000	63.965845 
4298.000000	63.986301 
4297.000000	64.006710 
4296.000000	64.032983 
4295.000000	64.070153 
4294.000000	64.120697 
4293.000000	64.184165 
4292.000000	64.255571 
4291.000000	64.327478 
4290.000000	64.389753 
4289.000000	64.432621 
4288.000000	64.448094 
4287.000000	64.432096 
4286.000000	64.385628 
4285.000000	64.314675 
4284.000000	64.229846 
4283.000000	64.144039 
4282.000000	64.070463 
4281.000000	64.019751 
4280.000000	63.998198 
4279.000000	64.006400 
4278.000000	64.038801 
4277.000000	64.085006 
4276.000000	64.131665 
4275.000000	64.165973 
4274.000000	64.177942 
4273.000000	64.163136 
4272.000000	64.122891 
4271.000000	64.064311 
4270.000000	63.998413 
4269.000000	63.937568 
4268.000000	63.892459 
4267.000000	63.869452 
4266.000000	63.869929 
4265.000000	63.889479 
4264.000000	63.919973 
4263.000000	63.951253 
4262.000000	63.973879 
4261.000000	63.981294 
4260.000000	63.970756 
4259.000000	63.944172 
4258.000000	63.907003 
4257.000000	63.866877 
4256.000000	63.831090 
4255.000000	63.805270 
4254.000000	63.791871 
4253.000000	63.790106 
4252.000000	63.796377 
4251.000000	63.804721 
4250.000000	63.808298 
4249.000000	63.801193 
4248.000000	63.779902 
4247.000000	63.743591 
4246.000000	63.694858 
4245.000000	63.638615 
4244.000000	63.581681 
4243.000000	63.531184 
4242.000000	63.493537 
4241.000000	63.473033 
4240.000000	63.471341 
4239.000000	63.487172 
4238.000000	63.516807 
4237.000000	63.555073 
4236.000000	63.596153 
4235.000000	63.634109 
4234.000000	63.664221 
4233.000000	63.683223 
4232.000000	63.690137 
4231.000000	63.685989 
4230.000000	63.673591 
4229.000000	63.656592 
4228.000000	63.639664 
4227.000000	63.627243 
4226.000000	63.623070 
4225.000000	63.629245 
4224.000000	63.646078 
4223.000000	63.671851 
4222.000000	63.703203 
4221.000000	63.735699 
4220.000000	63.764429 
4219.000000	63.785338 
4218.000000	63.795924 
4217.000000	63.796043 
4216.000000	63.787603 
4215.000000	63.774561 
4214.000000	63.762331 
4213.000000	63.756227 
4212.000000	63.760399 
4211.000000	63.776731 
4210.000000	63.805150 
4209.000000	63.842678 
4208.000000	63.884377 
4207.000000	63.923907 
4206.000000	63.955187 
4205.000000	63.972520 
4204.000000	63.972067 
4203.000000	63.951659 
4202.000000	63.910961 
4201.000000	63.851404 
4200.000000	63.776159 
4199.000000	63.689470 
4198.000000	63.596749 
4197.000000	63.504052 
4196.000000	63.418006 
4195.000000	63.345217 
4194.000000	63.291954 
4193.000000	63.263297 
4192.000000	63.262915 
4191.000000	63.291096 
4190.000000	63.345813 
4189.000000	63.422274 
4188.000000	63.514232 
4187.000000	63.613390 
4186.000000	63.711857 
4185.000000	63.802671 
4184.000000	63.881134 
4183.000000	63.944745 
4182.000000	63.992905 
4181.000000	64.026689 
4180.000000	64.047408 
4179.000000	64.056921 
4178.000000	64.055895 
4177.000000	64.044284 
4176.000000	64.021563 
4175.000000	63.987874 
4174.000000	63.944935 
4173.000000	63.896656 
4172.000000	63.849043 
4171.000000	63.809299 
4170.000000	63.783836 
4169.000000	63.776302 
4168.000000	63.786745 
4167.000000	63.810706 
4166.000000	63.839697 
4165.000000	63.862800 
4164.000000	63.869190 
4163.000000	63.850569 
4162.000000	63.802814 
4161.000000	63.727617 
4160.000000	63.631200 
4159.000000	63.524627 
