PE IR       SPECTRUM    SPECTRUM    ASCII       PEDS        1.60        
  -1
C-9A61~1.ASC
17/03/27
16:03:50.00
17/03/27
16:03:50.00
tln
$C-4040-8_t0020$<tbV0>[-7.8,-10.4,8.0,0.0,27,1,0]
370.000000
64









2002,4.07    
MIRTGS : RIGHTBACK : INTERNAL 2
MIR : ON : INTERNAL 2
OPTKBR

0.200000
8
8.000000
FILLER
RATIO
SPECTRUM
UNLOCKED 256

DOUBLE
64
COMBINED
1
0
0


1.000000
RATIO


1
0
TRUE
51149
0
LEFT NOT FITTED RIGHT NOT FITTED 0
NONE
NONE
15600
12.000000
4.427000
51148
TRUE
1 0 8 72 0 0 0 0 

15798.010000






#HDR
-1
-1
#GR
CM-1
%T
0.00002384185791015625
0.0
5000.000000
-1.000000
4631
8
73.018097
18.781399
#DATA
5000.000000	64.248943 
4999.000000	64.219737 
4998.000000	64.172267 
4997.000000	64.118003 
4996.000000	64.072394 
4995.000000	64.051628 
4994.000000	64.068222 
4993.000000	64.127492 
4992.000000	64.225983 
4991.000000	64.353132 
4990.000000	64.491415 
4989.000000	64.620876 
4988.000000	64.722275 
4987.000000	64.781308 
4986.000000	64.790916 
4985.000000	64.752411 
4984.000000	64.674425 
4983.000000	64.570069 
4982.000000	64.453983 
4981.000000	64.338850 
4980.000000	64.232563 
4979.000000	64.137840 
4978.000000	64.053082 
4977.000000	63.975572 
4976.000000	63.905382 
4975.000000	63.846707 
4974.000000	63.808059 
4973.000000	63.798999 
4972.000000	63.827729 
4971.000000	63.895487 
4970.000000	63.993978 
4969.000000	64.104914 
4968.000000	64.202070 
4967.000000	64.258265 
4966.000000	64.252018 
4965.000000	64.173984 
4964.000000	64.029359 
4963.000000	63.838791 
4962.000000	63.634204 
4961.000000	63.450264 
4960.000000	63.316035 
4959.000000	63.248348 
4958.000000	63.248324 
4957.000000	63.303518 
4956.000000	63.391923 
4955.000000	63.488650 
4954.000000	63.571381 
4953.000000	63.622760 
4952.000000	63.632273 
4951.000000	63.594722 
4950.000000	63.509988 
4949.000000	63.379359 
4948.000000	63.207054 
4947.000000	63.000273 
4946.000000	62.771725 
4945.000000	62.538170 
4944.000000	62.322616 
4943.000000	62.150669 
4942.000000	62.048697 
4941.000000	62.037444 
4940.000000	62.129306 
4939.000000	62.323236 
4938.000000	62.604951 
4937.000000	62.947440 
4936.000000	63.315415 
4935.000000	63.670229 
4934.000000	63.976764 
4933.000000	64.208102 
4932.000000	64.350199 
4931.000000	64.402604 
4930.000000	64.378023 
4929.000000	64.298534 
4928.000000	64.192175 
4927.000000	64.086842 
4926.000000	64.006376 
4925.000000	63.965892 
4924.000000	63.971519 
4923.000000	64.019823 
4922.000000	64.100885 
4921.000000	64.201188 
4920.000000	64.307022 
4919.000000	64.408469 
4918.000000	64.499974 
4917.000000	64.581775 
4916.000000	64.657759 
4915.000000	64.733386 
4914.000000	64.811754 
4913.000000	64.892792 
4912.000000	64.972496 
4911.000000	65.044331 
4910.000000	65.102458 
4909.000000	65.142369 
4908.000000	65.163969 
4907.000000	65.169167 
4906.000000	65.162324 
4905.000000	65.146255 
4904.000000	65.121078 
4903.000000	65.084576 
4902.000000	65.033054 
4901.000000	64.962577 
4900.000000	64.871096 
4899.000000	64.760446 
4898.000000	64.637231 
4897.000000	64.511728 
4896.000000	64.396595 
4895.000000	64.303565 
4894.000000	64.241862 
4893.000000	64.216160 
4892.000000	64.226031 
4891.000000	64.267039 
4890.000000	64.330458 
4889.000000	64.405488 
4888.000000	64.479589 
4887.000000	64.540171 
4886.000000	64.575982 
4885.000000	64.576888 
4884.000000	64.538240 
4883.000000	64.461326 
4882.000000	64.355111 
4881.000000	64.234709 
4880.000000	64.119315 
4879.000000	64.028811 
4878.000000	63.979053 
4877.000000	63.978600 
4876.000000	64.026808 
4875.000000	64.114165 
4874.000000	64.224791 
4873.000000	64.340305 
4872.000000	64.443659 
4871.000000	64.523100 
4870.000000	64.574122 
4869.000000	64.599418 
4868.000000	64.606118 
4867.000000	64.603233 
4866.000000	64.599037 
4865.000000	64.598274 
4864.000000	64.602017 
4863.000000	64.607143 
4862.000000	64.610004 
4861.000000	64.605665 
4860.000000	64.591145 
4859.000000	64.564776 
4858.000000	64.527010 
4857.000000	64.480113 
4856.000000	64.427661 
4855.000000	64.374041 
4854.000000	64.323210 
4853.000000	64.279031 
4852.000000	64.244675 
4851.000000	64.222240 
4850.000000	64.212489 
4849.000000	64.214920 
4848.000000	64.227867 
4847.000000	64.248657 
4846.000000	64.274525 
4845.000000	64.303278 
4844.000000	64.333868 
4843.000000	64.366269 
4842.000000	64.401149 
4841.000000	64.439582 
4840.000000	64.481687 
4839.000000	64.525747 
4838.000000	64.567899 
4837.000000	64.602684 
4836.000000	64.624094 
4835.000000	64.627623 
4834.000000	64.610910 
4833.000000	64.574956 
4832.000000	64.523625 
4831.000000	64.463925 
4830.000000	64.403128 
4829.000000	64.347600 
4828.000000	64.300870 
4827.000000	64.263415 
4826.000000	64.232516 
4825.000000	64.203453 
4824.000000	64.171266 
4823.000000	64.132547 
4822.000000	64.085936 
4821.000000	64.032673 
4820.000000	63.976073 
4819.000000	63.920783 
4818.000000	63.871240 
4817.000000	63.831233 
4816.000000	63.803029 
4815.000000	63.787746 
4814.000000	63.785719 
4813.000000	63.797044 
4812.000000	63.821363 
4811.000000	63.858413 
4810.000000	63.907170 
4809.000000	63.966035 
4808.000000	64.031529 
4807.000000	64.099359 
4806.000000	64.164662 
4805.000000	64.222812 
4804.000000	64.270186 
4803.000000	64.304685 
4802.000000	64.325833 
4801.000000	64.334845 
4800.000000	64.334225 
4799.000000	64.327311 
4798.000000	64.317584 
4797.000000	64.308619 
4796.000000	64.303970 
4795.000000	64.306688 
4794.000000	64.319181 
4793.000000	64.342880 
4792.000000	64.377975 
4791.000000	64.422988 
4790.000000	64.474630 
4789.000000	64.528393 
4788.000000	64.579057 
4787.000000	64.621543 
4786.000000	64.651679 
4785.000000	64.667439 
4784.000000	64.668583 
4783.000000	64.656853 
4782.000000	64.635014 
4781.000000	64.606499 
4780.000000	64.574527 
4779.000000	64.542222 
4778.000000	64.511871 
4777.000000	64.485430 
4776.000000	64.463901 
4775.000000	64.448142 
4774.000000	64.437866 
4773.000000	64.431953 
4772.000000	64.428210 
4771.000000	64.423823 
4770.000000	64.415645 
4769.000000	64.400601 
4768.000000	64.376807 
4767.000000	64.344143 
4766.000000	64.304423 
4765.000000	64.261484 
4764.000000	64.220523 
4763.000000	64.187145 
4762.000000	64.166045 
4761.000000	64.159846 
4760.000000	64.168524 
4759.000000	64.189672 
4758.000000	64.218235 
4757.000000	64.248371 
4756.000000	64.274692 
4755.000000	64.293479 
4754.000000	64.302873 
4753.000000	64.303469 
4752.000000	64.297509 
4751.000000	64.288377 
4750.000000	64.279174 
4749.000000	64.272379 
4748.000000	64.269137 
4747.000000	64.269423 
4746.000000	64.272546 
4745.000000	64.277243 
4744.000000	64.282488 
4743.000000	64.287495 
4742.000000	64.291763 
4741.000000	64.294719 
4740.000000	64.295578 
4739.000000	64.293408 
4738.000000	64.287400 
4737.000000	64.276933 
4736.000000	64.261698 
4735.000000	64.242553 
4734.000000	64.220786 
4733.000000	64.197707 
4732.000000	64.174079 
4731.000000	64.149975 
4730.000000	64.124798 
4729.000000	64.097404 
4728.000000	64.066934 
4727.000000	64.033269 
4726.000000	63.997602 
4725.000000	63.962459 
4724.000000	63.931202 
4723.000000	63.907003 
4722.000000	63.891935 
4721.000000	63.885927 
4720.000000	63.886904 
4719.000000	63.890981 
4718.000000	63.893961 
4717.000000	63.892292 
4716.000000	63.884663 
4715.000000	63.872408 
4714.000000	63.859415 
4713.000000	63.851213 
4712.000000	63.853430 
4711.000000	63.870215 
4710.000000	63.903617 
4709.000000	63.952612 
4708.000000	64.013767 
4707.000000	64.081525 
4706.000000	64.149475 
4705.000000	64.211320 
4704.000000	64.261937 
4703.000000	64.297771 
4702.000000	64.316844 
4701.000000	64.318847 
4700.000000	64.305591 
4699.000000	64.280200 
4698.000000	64.246845 
4697.000000	64.210295 
4696.000000	64.176273 
4695.000000	64.149618 
4694.000000	64.134287 
4693.000000	64.131951 
4692.000000	64.142274 
4691.000000	64.162516 
4690.000000	64.188146 
4689.000000	64.213657 
4688.000000	64.233970 
4687.000000	64.245104 
4686.000000	64.244842 
4685.000000	64.233040 
4684.000000	64.211249 
4683.000000	64.182329 
4682.000000	64.149975 
4681.000000	64.117360 
4680.000000	64.087462 
4679.000000	64.062643 
4678.000000	64.045357 
4677.000000	64.037680 
4676.000000	64.042115 
4675.000000	64.061689 
4674.000000	64.099192 
4673.000000	64.155936 
4672.000000	64.230871 
4671.000000	64.319896 
4670.000000	64.415884 
4669.000000	64.509129 
4668.000000	64.589571 
4667.000000	64.648270 
4666.000000	64.679837 
4665.000000	64.683771 
4664.000000	64.664435 
4663.000000	64.629960 
4662.000000	64.590167 
4661.000000	64.554452 
4660.000000	64.528799 
4659.000000	64.514923 
4658.000000	64.509868 
4657.000000	64.507389 
4656.000000	64.500188 
4655.000000	64.482188 
4654.000000	64.450359 
4653.000000	64.405512 
4652.000000	64.351415 
4651.000000	64.294338 
4650.000000	64.240479 
4649.000000	64.195394 
4648.000000	64.162230 
4647.000000	64.142298 
4646.000000	64.135241 
4645.000000	64.139938 
4644.000000	64.155387 
4643.000000	64.180850 
4642.000000	64.215373 
4641.000000	64.257526 
4640.000000	64.304852 
4639.000000	64.353752 
4638.000000	64.399147 
4637.000000	64.436006 
4636.000000	64.460301 
4635.000000	64.469814 
4634.000000	64.464807 
4633.000000	64.447069 
4632.000000	64.419531 
4631.000000	64.385485 
4630.000000	64.348006 
4629.000000	64.309692 
4628.000000	64.272975 
4627.000000	64.240717 
4626.000000	64.216303 
4625.000000	64.203715 
4624.000000	64.206457 
4623.000000	64.226579 
4622.000000	64.263534 
4621.000000	64.313602 
4620.000000	64.370203 
4619.000000	64.424633 
4618.000000	64.468288 
4617.000000	64.494180 
4616.000000	64.498853 
4615.000000	64.483284 
4614.000000	64.452457 
4613.000000	64.413833 
4612.000000	64.375948 
4611.000000	64.346194 
4610.000000	64.329957 
4609.000000	64.329528 
4608.000000	64.344811 
4607.000000	64.373850 
4606.000000	64.413380 
4605.000000	64.459705 
4604.000000	64.508628 
4603.000000	64.555692 
4602.000000	64.596414 
4601.000000	64.626479 
4600.000000	64.641714 
4599.000000	64.638948 
4598.000000	64.616703 
4597.000000	64.575457 
4596.000000	64.518451 
4595.000000	64.450979 
4594.000000	64.379763 
4593.000000	64.311695 
4592.000000	64.252877 
4591.000000	64.207625 
4590.000000	64.177942 
4589.000000	64.164113 
4588.000000	64.164662 
4587.000000	64.178180 
4586.000000	64.203953 
4585.000000	64.242076 
4584.000000	64.292573 
4583.000000	64.354968 
4582.000000	64.427208 
4581.000000	64.504861 
4580.000000	64.580893 
4579.000000	64.646387 
4578.000000	64.692020 
4577.000000	64.710307 
4576.000000	64.697074 
4575.000000	64.652633 
4574.000000	64.581751 
4573.000000	64.492702 
4572.000000	64.395666 
4571.000000	64.301109 
4570.000000	64.218068 
4569.000000	64.152717 
4568.000000	64.108157 
4567.000000	64.085006 
4566.000000	64.081430 
4565.000000	64.094448 
4564.000000	64.120078 
4563.000000	64.153957 
4562.000000	64.191055 
4561.000000	64.225459 
4560.000000	64.251041 
4559.000000	64.261221 
4558.000000	64.251136 
4557.000000	64.218306 
4556.000000	64.164233 
4555.000000	64.094471 
4554.000000	64.018273 
4553.000000	63.947105 
4552.000000	63.892054 
4551.000000	63.861513 
4550.000000	63.858723 
4549.000000	63.881111 
4548.000000	63.920474 
4547.000000	63.964819 
4546.000000	64.001274 
4545.000000	64.019346 
4544.000000	64.013552 
4543.000000	63.984251 
4542.000000	63.937306 
4541.000000	63.881587 
4540.000000	63.825321 
4539.000000	63.774156 
4538.000000	63.729739 
4537.000000	63.690471 
4536.000000	63.652634 
4535.000000	63.613247 
4534.000000	63.572502 
4533.000000	63.534188 
4532.000000	63.504862 
4531.000000	63.492298 
4530.000000	63.502240 
4529.000000	63.537383 
4528.000000	63.595533 
4527.000000	63.670873 
4526.000000	63.754653 
4525.000000	63.838028 
4524.000000	63.913798 
4523.000000	63.977742 
4522.000000	64.028644 
4521.000000	64.067268 
4520.000000	64.095044 
4519.000000	64.112877 
4518.000000	64.120531 
4517.000000	64.116597 
4516.000000	64.099669 
4515.000000	64.069914 
4514.000000	64.030098 
4513.000000	63.986444 
4512.000000	63.947153 
4511.000000	63.921451 
4510.000000	63.916802 
4509.000000	63.935947 
4508.000000	63.977050 
4507.000000	64.033532 
4506.000000	64.096593 
4505.000000	64.157795 
4504.000000	64.210557 
4503.000000	64.252090 
4502.000000	64.281630 
4501.000000	64.299893 
4500.000000	64.307045 
4499.000000	64.301800 
4498.000000	64.281797 
4497.000000	64.244294 
4496.000000	64.188647 
4495.000000	64.117217 
4494.000000	64.036345 
4493.000000	63.955378 
4492.000000	63.884711 
4491.000000	63.833475 
4490.000000	63.805675 
4489.000000	63.800978 
4488.000000	63.814139 
4487.000000	63.838768 
4486.000000	63.869810 
4485.000000	63.904976 
4484.000000	63.948535 
4483.000000	64.004969 
4482.000000	64.073586 
4481.000000	64.148783 
4480.000000	64.219713 
4479.000000	64.272642 
4478.000000	64.292860 
4477.000000	64.272141 
4476.000000	64.213323 
4475.000000	64.128518 
4474.000000	64.037132 
4473.000000	63.959741 
4472.000000	63.912153 
4471.000000	63.903856 
4470.000000	63.936352 
4469.000000	64.002037 
4468.000000	64.087343 
4467.000000	64.181780 
4466.000000	64.280509 
4465.000000	64.381575 
4464.000000	64.487004 
4463.000000	64.597916 
4462.000000	64.717602 
4461.000000	64.842152 
4460.000000	64.972519 
4459.000000	65.113258 
4458.000000	65.280270 
4457.000000	65.497350 
4456.000000	65.793371 
4455.000000	66.194510 
4454.000000	66.714048 
4453.000000	67.344713 
4452.000000	68.055129 
4451.000000	68.794941 
4450.000000	69.499301 
4449.000000	70.105218 
4448.000000	70.555400 
4447.000000	70.812582 
4446.000000	70.856523 
4445.000000	70.688843 
4444.000000	70.319867 
4443.000000	69.766950 
4442.000000	69.049835 
4441.000000	68.192410 
4440.000000	67.227220 
4439.000000	66.198086 
4438.000000	65.164637 
4437.000000	64.195966 
4436.000000	63.361787 
4435.000000	62.721061 
4434.000000	62.304496 
4433.000000	62.114477 
4432.000000	62.121152 
4431.000000	62.274956 
4430.000000	62.509536 
4429.000000	62.763619 
4428.000000	62.986063 
4427.000000	63.148999 
4426.000000	63.238430 
4425.000000	63.262629 
4424.000000	63.239979 
4423.000000	63.195681 
4422.000000	63.150191 
4421.000000	63.117885 
4420.000000	63.105106 
4419.000000	63.109517 
4418.000000	63.123583 
4417.000000	63.138771 
4416.000000	63.148808 
4415.000000	63.153052 
4414.000000	63.156700 
4413.000000	63.158917 
4412.000000	63.153862 
4411.000000	63.137936 
4410.000000	63.109803 
4409.000000	63.068890 
4408.000000	63.016200 
4407.000000	62.962865 
4406.000000	62.919950 
4405.000000	62.890625 
4404.000000	62.870025 
4403.000000	62.845301 
4402.000000	62.800741 
4401.000000	62.722206 
4400.000000	62.604379 
4399.000000	62.453603 
4398.000000	62.288260 
4397.000000	62.139987 
4396.000000	62.035989 
4395.000000	61.989402 
4394.000000	61.995506 
4393.000000	62.029552 
4392.000000	62.064146 
4391.000000	62.076497 
4390.000000	62.083625 
4389.000000	62.143635 
4388.000000	62.353658 
4387.000000	62.822484 
4386.000000	63.633608 
4385.000000	64.812779 
4384.000000	66.301417 
4383.000000	67.963147 
4382.000000	69.613647 
4381.000000	71.058320 
4380.000000	72.148561 
4379.000000	72.800230 
4378.000000	73.018097 
4377.000000	72.868299 
4376.000000	72.464179 
4375.000000	71.913290 
4374.000000	71.294784 
4373.000000	70.636606 
4372.000000	69.930648 
4371.000000	69.143509 
4370.000000	68.258237 
4369.000000	67.285013 
4368.000000	66.286683 
4367.000000	65.351796 
4366.000000	64.577412 
4365.000000	64.035654 
4364.000000	63.748192 
4363.000000	63.689875 
4362.000000	63.793396 
4361.000000	63.974785 
4360.000000	64.155054 
4359.000000	64.279103 
4358.000000	64.326572 
4357.000000	64.299821 
4356.000000	64.221858 
4355.000000	64.121365 
4354.000000	64.026188 
4353.000000	63.950490 
4352.000000	63.896775 
4351.000000	63.864135 
4350.000000	63.847732 
4349.000000	63.843965 
4348.000000	63.851451 
4347.000000	63.874888 
4346.000000	63.919568 
4345.000000	63.985085 
4344.000000	64.068031 
4343.000000	64.157629 
4342.000000	64.243602 
4341.000000	64.321088 
4340.000000	64.386582 
4339.000000	64.437866 
4338.000000	64.473891 
4337.000000	64.494752 
4336.000000	64.498639 
4335.000000	64.481878 
4334.000000	64.444017 
4333.000000	64.388442 
4332.000000	64.319944 
4331.000000	64.244747 
4330.000000	64.169883 
4329.000000	64.102292 
4328.000000	64.048624 
4327.000000	64.013338 
4326.000000	63.998675 
4325.000000	64.003443 
4324.000000	64.022970 
4323.000000	64.050507 
4322.000000	64.078307 
4321.000000	64.099788 
4320.000000	64.110136 
4319.000000	64.107871 
4318.000000	64.094567 
4317.000000	64.073848 
4316.000000	64.050102 
4315.000000	64.026546 
4314.000000	64.004397 
4313.000000	63.981962 
4312.000000	63.956046 
4311.000000	63.922357 
4310.000000	63.877201 
4309.000000	63.818788 
4308.000000	63.748264 
4307.000000	63.669514 
4306.000000	63.588881 
4305.000000	63.513755 
4304.000000	63.451647 
4303.000000	63.408708 
4302.000000	63.389134 
4301.000000	63.394117 
4300.000000	63.422250 
4299.000000	63.469815 
4298.000000	63.531851 
4297.000000	63.602352 
4296.000000	63.675403 
4295.000000	63.745260 
4294.000000	63.807201 
4293.000000	63.857722 
4292.000000	63.894581 
4291.000000	63.916683 
4290.000000	63.924074 
4289.000000	63.918209 
4288.000000	63.901090 
4287.000000	63.875532 
4286.000000	63.844680 
4285.000000	63.811898 
4284.000000	63.780713 
4283.000000	63.754820 
4282.000000	63.737297 
4281.000000	63.730478 
4280.000000	63.736057 
4279.000000	63.755059 
4278.000000	63.787674 
4277.000000	63.833165 
4276.000000	63.889837 
4275.000000	63.954544 
4274.000000	64.022564 
4273.000000	64.087724 
4272.000000	64.143228 
4271.000000	64.182472 
4270.000000	64.200139 
4269.000000	64.192914 
4268.000000	64.160990 
4267.000000	64.107275 
4266.000000	64.037561 
4265.000000	63.958787 
4264.000000	63.877940 
4263.000000	63.801097 
4262.000000	63.732838 
4261.000000	63.676309 
4260.000000	63.633084 
4259.000000	63.604712 
4258.000000	63.592863 
4257.000000	63.599443 
4256.000000	63.626003 
4255.000000	63.672423 
4254.000000	63.735818 
4253.000000	63.810110 
4252.000000	63.886499 
4251.000000	63.954639 
4250.000000	64.004802 
4249.000000	64.030385 
4248.000000	64.029359 
4247.000000	64.005303 
4246.000000	63.966155 
4245.000000	63.922643 
4244.000000	63.885283 
4243.000000	63.862442 
4242.000000	63.857579 
4241.000000	63.869500 
4240.000000	63.892149 
4239.000000	63.917398 
4238.000000	63.936400 
4237.000000	63.942742 
4236.000000	63.933205 
4235.000000	63.908028 
4234.000000	63.870978 
4233.000000	63.827562 
4232.000000	63.784408 
4231.000000	63.747334 
4230.000000	63.721275 
4229.000000	63.709282 
4228.000000	63.712668 
4227.000000	63.731193 
4226.000000	63.762807 
4225.000000	63.804221 
4224.000000	63.851523 
4223.000000	63.900637 
4222.000000	63.946795 
4221.000000	63.985633 
4220.000000	64.013433 
4219.000000	64.028143 
4218.000000	64.029192 
4217.000000	64.018225 
4216.000000	63.998651 
4215.000000	63.975501 
4214.000000	63.954806 
4213.000000	63.942003 
4212.000000	63.941502 
4211.000000	63.954925 
4210.000000	63.981580 
4209.000000	64.017391 
4208.000000	64.056253 
4207.000000	64.090681 
4206.000000	64.113426 
4205.000000	64.119124 
4204.000000	64.105534 
4203.000000	64.073419 
4202.000000	64.026165 
4201.000000	63.967943 
4200.000000	63.902544 
4199.000000	63.832378 
4198.000000	63.758349 
4197.000000	63.680005 
4196.000000	63.597035 
4195.000000	63.510751 
4194.000000	63.425374 
4193.000000	63.348126 
4192.000000	63.288164 
4191.000000	63.254451 
4190.000000	63.253402 
4189.000000	63.286209 
4188.000000	63.348245 
4187.000000	63.428997 
4186.000000	63.514685 
4185.000000	63.591217 
4184.000000	63.646888 
4183.000000	63.675355 
4182.000000	63.675332 
4181.000000	63.650155 
4180.000000	63.605833 
4179.000000	63.548803 
4178.000000	63.485074 
4177.000000	63.419365 
4176.000000	63.355660 
4175.000000	63.297677 
4174.000000	63.249850 
4173.000000	63.217401 
4172.000000	63.205623 
4171.000000	63.218951 
4170.000000	63.259005 
4169.000000	63.324069 
4168.000000	63.408446 
4167.000000	63.503813 
4166.000000	63.600325 
4165.000000	63.689136 
4164.000000	63.764405 
4163.000000	63.823723 
4162.000000	63.868093 
4161.000000	63.900470 
4160.000000	63.925194 
4159.000000	63.945460 
