PE IR       SPECTRUM    SPECTRUM    ASCII       PEDS        1.60        
  -1
C-9B65~1.ASC
17/03/27
18:27:45.00
17/03/27
18:27:45.00
tln
$C-4040-8_t0048$<tbV0>[5.2,-2.6,8.0,0.0,27,1,0]
370.000000
64









2002,4.07    
MIRTGS : RIGHTBACK : INTERNAL 2
MIR : ON : INTERNAL 2
OPTKBR

0.200000
8
8.000000
FILLER
RATIO
SPECTRUM
UNLOCKED 256

DOUBLE
64
COMBINED
1
0
0


1.000000
RATIO


1
0
TRUE
51149
0
LEFT NOT FITTED RIGHT NOT FITTED 0
NONE
NONE
15600
12.000000
4.427000
51148
TRUE
1 0 8 72 0 0 0 0 

15798.010000






#HDR
-1
-1
#GR
CM-1
%T
0.00002384185791015625
0.0
5000.000000
-1.000000
4631
8
97.902774
34.714603
#DATA
5000.000000	65.501642 
4999.000000	65.608716 
4998.000000	65.716266 
4997.000000	65.811395 
4996.000000	65.882706 
4995.000000	65.923333 
4994.000000	65.932369 
4993.000000	65.915751 
4992.000000	65.883374 
4991.000000	65.847015 
4990.000000	65.815782 
4989.000000	65.794825 
4988.000000	65.782666 
4987.000000	65.772867 
4986.000000	65.755319 
4985.000000	65.720176 
4984.000000	65.660429 
4983.000000	65.574550 
4982.000000	65.466737 
4981.000000	65.346217 
4980.000000	65.224504 
4979.000000	65.112924 
4978.000000	65.019726 
4977.000000	64.948701 
4976.000000	64.898443 
4975.000000	64.863419 
4974.000000	64.835691 
4973.000000	64.807438 
4972.000000	64.772152 
4971.000000	64.728021 
4970.000000	64.675331 
4969.000000	64.619970 
4968.000000	64.570379 
4967.000000	64.537620 
4966.000000	64.531326 
4965.000000	64.559102 
4964.000000	64.624381 
4963.000000	64.725303 
4962.000000	64.854168 
4961.000000	64.999198 
4960.000000	65.146303 
4959.000000	65.281748 
4958.000000	65.394616 
4957.000000	65.477728 
4956.000000	65.528202 
4955.000000	65.547847 
4954.000000	65.541911 
4953.000000	65.517640 
4952.000000	65.482163 
4951.000000	65.442514 
4950.000000	65.403866 
4949.000000	65.369725 
4948.000000	65.341258 
4947.000000	65.319395 
4946.000000	65.303659 
4945.000000	65.292906 
4944.000000	65.284752 
4943.000000	65.276265 
4942.000000	65.263819 
4941.000000	65.243840 
4940.000000	65.213537 
4939.000000	65.171027 
4938.000000	65.116405 
4937.000000	65.051341 
4936.000000	64.980340 
4935.000000	64.909625 
4934.000000	64.847755 
4933.000000	64.804029 
4932.000000	64.786934 
4931.000000	64.802145 
4930.000000	64.851093 
4929.000000	64.930152 
4928.000000	65.030169 
4927.000000	65.137910 
4926.000000	65.238618 
4925.000000	65.319061 
4924.000000	65.370583 
4923.000000	65.390253 
4922.000000	65.381455 
4921.000000	65.351772 
4920.000000	65.311145 
4919.000000	65.268373 
4918.000000	65.228962 
4917.000000	65.194201 
4916.000000	65.161395 
4915.000000	65.126657 
4914.000000	65.087723 
4913.000000	65.045785 
4912.000000	65.007066 
4911.000000	64.980506 
4910.000000	64.975452 
4909.000000	64.997959 
4908.000000	65.047860 
4907.000000	65.117859 
4906.000000	65.194439 
4905.000000	65.261697 
4904.000000	65.305566 
4903.000000	65.318655 
4902.000000	65.302610 
4901.000000	65.268611 
4900.000000	65.234541 
4899.000000	65.220594 
4898.000000	65.243148 
4897.000000	65.309739 
4896.000000	65.415549 
4895.000000	65.545225 
4894.000000	65.674924 
4893.000000	65.778446 
4892.000000	65.832757 
4891.000000	65.824151 
4890.000000	65.751385 
4889.000000	65.625333 
4888.000000	65.466952 
4887.000000	65.301537 
4886.000000	65.153932 
4885.000000	65.043807 
4884.000000	64.981675 
4883.000000	64.967894 
4882.000000	64.994168 
4881.000000	65.047407 
4880.000000	65.113019 
4879.000000	65.178704 
4878.000000	65.236568 
4877.000000	65.283393 
4876.000000	65.319752 
4875.000000	65.347528 
4874.000000	65.367698 
4873.000000	65.378355 
4872.000000	65.375161 
4871.000000	65.351796 
4870.000000	65.302276 
4869.000000	65.223097 
4868.000000	65.115475 
4867.000000	64.986181 
4866.000000	64.846873 
4865.000000	64.712786 
4864.000000	64.599299 
4863.000000	64.520239 
4862.000000	64.483809 
4861.000000	64.493203 
4860.000000	64.546084 
4859.000000	64.635992 
4858.000000	64.753127 
4857.000000	64.886331 
4856.000000	65.023946 
4855.000000	65.155863 
4854.000000	65.273642 
4853.000000	65.371537 
4852.000000	65.445709 
4851.000000	65.495061 
4850.000000	65.520811 
4849.000000	65.525627 
4848.000000	65.512704 
4847.000000	65.485310 
4846.000000	65.446233 
4845.000000	65.397453 
4844.000000	65.340423 
4843.000000	65.276813 
4842.000000	65.208959 
4841.000000	65.140199 
4840.000000	65.074467 
4839.000000	65.016579 
4838.000000	64.970469 
4837.000000	64.938139 
4836.000000	64.919090 
4835.000000	64.910149 
4834.000000	64.906644 
4833.000000	64.902830 
4832.000000	64.894509 
4831.000000	64.879727 
4830.000000	64.859843 
4829.000000	64.838552 
4828.000000	64.821243 
4827.000000	64.812493 
4826.000000	64.815783 
4825.000000	64.832115 
4824.000000	64.860057 
4823.000000	64.895844 
4822.000000	64.935278 
4821.000000	64.974999 
4820.000000	65.013146 
4819.000000	65.049433 
4818.000000	65.084791 
4817.000000	65.120601 
4816.000000	65.157270 
4815.000000	65.193724 
4814.000000	65.227556 
4813.000000	65.255522 
4812.000000	65.275216 
4811.000000	65.285325 
4810.000000	65.286755 
4809.000000	65.281939 
4808.000000	65.275168 
4807.000000	65.270662 
4806.000000	65.271663 
4805.000000	65.279388 
4804.000000	65.292406 
4803.000000	65.307497 
4802.000000	65.320611 
4801.000000	65.328145 
4800.000000	65.328168 
4799.000000	65.320873 
4798.000000	65.308499 
4797.000000	65.294814 
4796.000000	65.283823 
4795.000000	65.278244 
4794.000000	65.278553 
4793.000000	65.282559 
4792.000000	65.285849 
4791.000000	65.283155 
4790.000000	65.269732 
4789.000000	65.242767 
4788.000000	65.202641 
4787.000000	65.153431 
4786.000000	65.102410 
4785.000000	65.058350 
4784.000000	65.028977 
4783.000000	65.019440 
4782.000000	65.029406 
4781.000000	65.053582 
4780.000000	65.081715 
4779.000000	65.101242 
4778.000000	65.100288 
4777.000000	65.070080 
4776.000000	65.008521 
4775.000000	64.920330 
4774.000000	64.817428 
4773.000000	64.715743 
4772.000000	64.632654 
4771.000000	64.582538 
4770.000000	64.573669 
4769.000000	64.606118 
4768.000000	64.671516 
4767.000000	64.755105 
4766.000000	64.838862 
4765.000000	64.905762 
4764.000000	64.943504 
4763.000000	64.947271 
4762.000000	64.920258 
4761.000000	64.872312 
4760.000000	64.816713 
4759.000000	64.766597 
4758.000000	64.732241 
4757.000000	64.718008 
4756.000000	64.722275 
4755.000000	64.738154 
4754.000000	64.757227 
4753.000000	64.771127 
4752.000000	64.774012 
4751.000000	64.764142 
4750.000000	64.743971 
4749.000000	64.719057 
4748.000000	64.695668 
4747.000000	64.679336 
4746.000000	64.672732 
4745.000000	64.675354 
4744.000000	64.683794 
4743.000000	64.692807 
4742.000000	64.697337 
4741.000000	64.693069 
4740.000000	64.677929 
4739.000000	64.652252 
4738.000000	64.618754 
4737.000000	64.581871 
4736.000000	64.546871 
4735.000000	64.518666 
4734.000000	64.501380 
4733.000000	64.498353 
4732.000000	64.512038 
4731.000000	64.543366 
4730.000000	64.592242 
4729.000000	64.656949 
4728.000000	64.734935 
4727.000000	64.822483 
4726.000000	64.915013 
4725.000000	65.006971 
4724.000000	65.092587 
4723.000000	65.166592 
4722.000000	65.224552 
4721.000000	65.263676 
4720.000000	65.282869 
4719.000000	65.283155 
4718.000000	65.267205 
4717.000000	65.239381 
4716.000000	65.204739 
4715.000000	65.168762 
4714.000000	65.135765 
4713.000000	65.108489 
4712.000000	65.087771 
4711.000000	65.072488 
4710.000000	65.059828 
4709.000000	65.046453 
4708.000000	65.029144 
4707.000000	65.006136 
4706.000000	64.977645 
4705.000000	64.946770 
4704.000000	64.918112 
4703.000000	64.897918 
4702.000000	64.892530 
4701.000000	64.906954 
4700.000000	64.943218 
4699.000000	64.999651 
4698.000000	65.071463 
4697.000000	65.150475 
4696.000000	65.226507 
4695.000000	65.289115 
4694.000000	65.329742 
4693.000000	65.342974 
4692.000000	65.327239 
4691.000000	65.285444 
4690.000000	65.224409 
4689.000000	65.153551 
4688.000000	65.083122 
4687.000000	65.022110 
4686.000000	64.976811 
4685.000000	64.950156 
4684.000000	64.941334 
4683.000000	64.946365 
4682.000000	64.959049 
4681.000000	64.972686 
4680.000000	64.981055 
4679.000000	64.979052 
4678.000000	64.963603 
4677.000000	64.933395 
4676.000000	64.889216 
4675.000000	64.833259 
4674.000000	64.769005 
4673.000000	64.700794 
4672.000000	64.633202 
4671.000000	64.570832 
4670.000000	64.517474 
4669.000000	64.476013 
4668.000000	64.447951 
4667.000000	64.433169 
4666.000000	64.430332 
4665.000000	64.436841 
4664.000000	64.450168 
4663.000000	64.468240 
4662.000000	64.489865 
4661.000000	64.514493 
4660.000000	64.541721 
4659.000000	64.570903 
4658.000000	64.600729 
4657.000000	64.629507 
4656.000000	64.655494 
4655.000000	64.677262 
4654.000000	64.694833 
4653.000000	64.709448 
4652.000000	64.723253 
4651.000000	64.738488 
4650.000000	64.756917 
4649.000000	64.778900 
4648.000000	64.802956 
4647.000000	64.826345 
4646.000000	64.845943 
4645.000000	64.859104 
4644.000000	64.864420 
4643.000000	64.862227 
4642.000000	64.854836 
4641.000000	64.845609 
4640.000000	64.838027 
4639.000000	64.834904 
4638.000000	64.837527 
4637.000000	64.846086 
4636.000000	64.859914 
4635.000000	64.878082 
4634.000000	64.899873 
4633.000000	64.924740 
4632.000000	64.952039 
4631.000000	64.980363 
4630.000000	65.007376 
4629.000000	65.029644 
4628.000000	65.043568 
4627.000000	65.045857 
4626.000000	65.035104 
4625.000000	65.012717 
4624.000000	64.983367 
4623.000000	64.954233 
4622.000000	64.933538 
4621.000000	64.929080 
4620.000000	64.945316 
4619.000000	64.982771 
4618.000000	65.036559 
4617.000000	65.097665 
4616.000000	65.154409 
4615.000000	65.195298 
4614.000000	65.211176 
4613.000000	65.197134 
4612.000000	65.153598 
4611.000000	65.086126 
4610.000000	65.004205 
4609.000000	64.919042 
4608.000000	64.841651 
4607.000000	64.780926 
4606.000000	64.741969 
4605.000000	64.725732 
4604.000000	64.729809 
4603.000000	64.749431 
4602.000000	64.778876 
4601.000000	64.812898 
4600.000000	64.846920 
4599.000000	64.877724 
4598.000000	64.902830 
4597.000000	64.920735 
4596.000000	64.929771 
4595.000000	64.929223 
4594.000000	64.919209 
4593.000000	64.901638 
4592.000000	64.880061 
4591.000000	64.859819 
4590.000000	64.847373 
4589.000000	64.848589 
4588.000000	64.867711 
4587.000000	64.905691 
4586.000000	64.959788 
4585.000000	65.024137 
4584.000000	65.090656 
4583.000000	65.151858 
4582.000000	65.202665 
4581.000000	65.241551 
4580.000000	65.270543 
4579.000000	65.293645 
4578.000000	65.315222 
4577.000000	65.337777 
4576.000000	65.360856 
4575.000000	65.381217 
4574.000000	65.393781 
4573.000000	65.393829 
4572.000000	65.378260 
4571.000000	65.347695 
4570.000000	65.305900 
4569.000000	65.259170 
4568.000000	65.214443 
4567.000000	65.177583 
4566.000000	65.151858 
4565.000000	65.137147 
4564.000000	65.130400 
4563.000000	65.127086 
4562.000000	65.122365 
4561.000000	65.113162 
4560.000000	65.098190 
4559.000000	65.078043 
4558.000000	65.054416 
4557.000000	65.029263 
4556.000000	65.004062 
4555.000000	64.979076 
4554.000000	64.953541 
4553.000000	64.926075 
4552.000000	64.894795 
4551.000000	64.858198 
4550.000000	64.815092 
4549.000000	64.765167 
4548.000000	64.708900 
4547.000000	64.647698 
4546.000000	64.583945 
4545.000000	64.520907 
4544.000000	64.461350 
4543.000000	64.408183 
4542.000000	64.363479 
4541.000000	64.329409 
4540.000000	64.307332 
4539.000000	64.298796 
4538.000000	64.304733 
4537.000000	64.325928 
4536.000000	64.361667 
4535.000000	64.410924 
4534.000000	64.471292 
4533.000000	64.540076 
4532.000000	64.613723 
4531.000000	64.688658 
4530.000000	64.761447 
4529.000000	64.828562 
4528.000000	64.886546 
4527.000000	64.932346 
4526.000000	64.963889 
4525.000000	64.980864 
4524.000000	64.985036 
4523.000000	64.980816 
4522.000000	64.974594 
4521.000000	64.974308 
4520.000000	64.987468 
4519.000000	65.020036 
4518.000000	65.074110 
4517.000000	65.147113 
4516.000000	65.232086 
4515.000000	65.318918 
4514.000000	65.397000 
4513.000000	65.457797 
4512.000000	65.496826 
4511.000000	65.515065 
4510.000000	65.517950 
4509.000000	65.513420 
4508.000000	65.509510 
4507.000000	65.512180 
4506.000000	65.524148 
4505.000000	65.545105 
4504.000000	65.571808 
4503.000000	65.600490 
4502.000000	65.626597 
4501.000000	65.646934 
4500.000000	65.658664 
4499.000000	65.659976 
4498.000000	65.649557 
4497.000000	65.626692 
4496.000000	65.591216 
4495.000000	65.543723 
4494.000000	65.486502 
4493.000000	65.423250 
4492.000000	65.359210 
4491.000000	65.300226 
4490.000000	65.251731 
4489.000000	65.217590 
4488.000000	65.198993 
4487.000000	65.194916 
4486.000000	65.202260 
4485.000000	65.217304 
4484.000000	65.236234 
4483.000000	65.256309 
4482.000000	65.275931 
4481.000000	65.294885 
4480.000000	65.312767 
4479.000000	65.330052 
4478.000000	65.347456 
4477.000000	65.366053 
4476.000000	65.386939 
4475.000000	65.410947 
4474.000000	65.438270 
4473.000000	65.468597 
4472.000000	65.501117 
4471.000000	65.534949 
4470.000000	65.569329 
4469.000000	65.603709 
4468.000000	65.637469 
4467.000000	65.669393 
4466.000000	65.697956 
4465.000000	65.721225 
4464.000000	65.737509 
4463.000000	65.745854 
4462.000000	65.746593 
4461.000000	65.742373 
4460.000000	65.736865 
4459.000000	65.734648 
4458.000000	65.738797 
4457.000000	65.750765 
4456.000000	65.768694 
4455.000000	65.787482 
4454.000000	65.800046 
4453.000000	65.798878 
4452.000000	65.779399 
4451.000000	65.741682 
4450.000000	65.691161 
4449.000000	65.638017 
4448.000000	65.593647 
4447.000000	65.567445 
4446.000000	65.563869 
4445.000000	65.581035 
4444.000000	65.611362 
4443.000000	65.643882 
4442.000000	65.667891 
4441.000000	65.676021 
4440.000000	65.666103 
4439.000000	65.641880 
4438.000000	65.611028 
4437.000000	65.583229 
4436.000000	65.567207 
4435.000000	65.568351 
4434.000000	65.587449 
4433.000000	65.620374 
4432.000000	65.660166 
4431.000000	65.698218 
4430.000000	65.726351 
4429.000000	65.739059 
4428.000000	65.734338 
4427.000000	65.714764 
4426.000000	65.684652 
4425.000000	65.651655 
4424.000000	65.624237 
4423.000000	65.611004 
4422.000000	65.618824 
4421.000000	65.651869 
4420.000000	65.711140 
4419.000000	65.793561 
4418.000000	65.892839 
4417.000000	66.000032 
4416.000000	66.105127 
4415.000000	66.199231 
4414.000000	66.275811 
4413.000000	66.332006 
4412.000000	66.368317 
4411.000000	66.388678 
4410.000000	66.397953 
4409.000000	66.401433 
4408.000000	66.401481 
4407.000000	66.398143 
4406.000000	66.387081 
4405.000000	66.362261 
4404.000000	66.315865 
4403.000000	66.242408 
4402.000000	66.138839 
4401.000000	66.006660 
4400.000000	65.852212 
4399.000000	65.686583 
4398.000000	65.523290 
4397.000000	65.376138 
4396.000000	65.255856 
4395.000000	65.165519 
4394.000000	65.106701 
4393.000000	65.082764 
4392.000000	65.091943 
4391.000000	65.125298 
4390.000000	65.176701 
4389.000000	65.244650 
4388.000000	65.322494 
4387.000000	65.398883 
4386.000000	65.469717 
4385.000000	65.535497 
4384.000000	65.595030 
4383.000000	65.645337 
4382.000000	65.679311 
4381.000000	65.687441 
4380.000000	65.666127 
4379.000000	65.617251 
4378.000000	65.534853 
4377.000000	65.422081 
4376.000000	65.301680 
4375.000000	65.205717 
4374.000000	65.172505 
4373.000000	65.226840 
4372.000000	65.390944 
4371.000000	65.639114 
4370.000000	65.904378 
4369.000000	66.071462 
4368.000000	66.008186 
4367.000000	65.583705 
4366.000000	64.709782 
4365.000000	63.353323 
4364.000000	61.556434 
4363.000000	59.404110 
4362.000000	57.013201 
4361.000000	54.496598 
4360.000000	51.959872 
4359.000000	49.494504 
4358.000000	47.203278 
4357.000000	45.198488 
4356.000000	43.633103 
4355.000000	42.682719 
4354.000000	42.543435 
4353.000000	43.363142 
4352.000000	45.225048 
4351.000000	48.085069 
4350.000000	51.779651 
4349.000000	56.005692 
4348.000000	60.388493 
4347.000000	64.529824 
4346.000000	68.079042 
4345.000000	70.792746 
4344.000000	72.554707 
4343.000000	73.380112 
4342.000000	73.389339 
4341.000000	72.775983 
4340.000000	71.756744 
4339.000000	70.543050 
4338.000000	69.309782 
4337.000000	68.199658 
4336.000000	67.289733 
4335.000000	66.609120 
4334.000000	66.141676 
4333.000000	65.850758 
4332.000000	65.685439 
4331.000000	65.601086 
4330.000000	65.569829 
4329.000000	65.585756 
4328.000000	65.644073 
4327.000000	65.745115 
4326.000000	65.880441 
4325.000000	66.037273 
4324.000000	66.194987 
4323.000000	66.331934 
4322.000000	66.429781 
4321.000000	66.476559 
4320.000000	66.474318 
4319.000000	66.431546 
4318.000000	66.351652 
4317.000000	66.242837 
4316.000000	66.125082 
4315.000000	66.015005 
4314.000000	65.918397 
4313.000000	65.840077 
4312.000000	65.787744 
4311.000000	65.763449 
4310.000000	65.764045 
4309.000000	65.781164 
4308.000000	65.802288 
4307.000000	65.816116 
4306.000000	65.815448 
4305.000000	65.794539 
4304.000000	65.751171 
4303.000000	65.690374 
4302.000000	65.622329 
4301.000000	65.558028 
4300.000000	65.507078 
4299.000000	65.475058 
4298.000000	65.462660 
4297.000000	65.466737 
4296.000000	65.481138 
4295.000000	65.499043 
4294.000000	65.514421 
4293.000000	65.523219 
4292.000000	65.524339 
4291.000000	65.517425 
4290.000000	65.505146 
4289.000000	65.491509 
4288.000000	65.482187 
4287.000000	65.482687 
4286.000000	65.498018 
4285.000000	65.531373 
4284.000000	65.583300 
4283.000000	65.651369 
4282.000000	65.729713 
4281.000000	65.810012 
4280.000000	65.882825 
4279.000000	65.939259 
4278.000000	65.972900 
4277.000000	65.980672 
4276.000000	65.963673 
4275.000000	65.925955 
4274.000000	65.873169 
4273.000000	65.810775 
4272.000000	65.743327 
4271.000000	65.673780 
4270.000000	65.604090 
4269.000000	65.535283 
4268.000000	65.470075 
4267.000000	65.411114 
4266.000000	65.361213 
4265.000000	65.322113 
4264.000000	65.293765 
4263.000000	65.273809 
4262.000000	65.257453 
4261.000000	65.238666 
4260.000000	65.211534 
4259.000000	65.171527 
4258.000000	65.116381 
4257.000000	65.046715 
4256.000000	64.965963 
4255.000000	64.879345 
4254.000000	64.792704 
4253.000000	64.711380 
4252.000000	64.639306 
4251.000000	64.579176 
4250.000000	64.532685 
4249.000000	64.500737 
4248.000000	64.484119 
4247.000000	64.483404 
4246.000000	64.499449 
4245.000000	64.531517 
4244.000000	64.578437 
4243.000000	64.637136 
4242.000000	64.704012 
4241.000000	64.774250 
4240.000000	64.843702 
4239.000000	64.908719 
4238.000000	64.967584 
4237.000000	65.020489 
4236.000000	65.069365 
4235.000000	65.117001 
4234.000000	65.166068 
4233.000000	65.218639 
4232.000000	65.274071 
4231.000000	65.329384 
4230.000000	65.379381 
4229.000000	65.418148 
4228.000000	65.440130 
4227.000000	65.441894 
4226.000000	65.423274 
4225.000000	65.387940 
4224.000000	65.342640 
4223.000000	65.295577 
4222.000000	65.255403 
4221.000000	65.228819 
4220.000000	65.219044 
4219.000000	65.224838 
4218.000000	65.241432 
4217.000000	65.261387 
4216.000000	65.277624 
4215.000000	65.284419 
4214.000000	65.278172 
4213.000000	65.258479 
4212.000000	65.227961 
4211.000000	65.191459 
4210.000000	65.153527 
4209.000000	65.118646 
4208.000000	65.090227 
4207.000000	65.070247 
4206.000000	65.059113 
4205.000000	65.055942 
4204.000000	65.059113 
4203.000000	65.066123 
4202.000000	65.074038 
4201.000000	65.080189 
4200.000000	65.082788 
4199.000000	65.081572 
4198.000000	65.077996 
4197.000000	65.075683 
4196.000000	65.078806 
4195.000000	65.091943 
4194.000000	65.116810 
4193.000000	65.151071 
4192.000000	65.186452 
4191.000000	65.210819 
4190.000000	65.209364 
4189.000000	65.168070 
4188.000000	65.077543 
4187.000000	64.936733 
4186.000000	64.754462 
4185.000000	64.548444 
4184.000000	64.342546 
4183.000000	64.161920 
4182.000000	64.027571 
4181.000000	63.951897 
4180.000000	63.936328 
4179.000000	63.971400 
4178.000000	64.040184 
4177.000000	64.122486 
4176.000000	64.200282 
4175.000000	64.261317 
4174.000000	64.301586 
4173.000000	64.324617 
4172.000000	64.339351 
4171.000000	64.356684 
4170.000000	64.386868 
4169.000000	64.436602 
4168.000000	64.508461 
4167.000000	64.600133 
4166.000000	64.706516 
4165.000000	64.820075 
4164.000000	64.933347 
4163.000000	65.039038 
4162.000000	65.131044 
4161.000000	65.204572 
4160.000000	65.256214 
4159.000000	65.284419 
