PE IR       SPECTRUM    SPECTRUM    ASCII       PEDS        1.60        
  -1
C-1C65~1.ASC
17/03/27
19:14:32.00
17/03/27
19:14:32.00
tln
$C-4040-8_t0058$<tbV0>[7.8,0.0,8.0,0.0,27,1,0]
370.000000
64









2002,4.07    
MIRTGS : RIGHTBACK : INTERNAL 2
MIR : ON : INTERNAL 2
OPTKBR

0.200000
8
8.000000
FILLER
RATIO
SPECTRUM
UNLOCKED 256

DOUBLE
64
COMBINED
1
0
0


1.000000
RATIO


1
0
TRUE
51149
0
LEFT NOT FITTED RIGHT NOT FITTED 0
NONE
NONE
15600
12.000000
4.427000
51148
TRUE
1 0 8 72 0 0 0 0 

15798.010000






#HDR
-1
-1
#GR
CM-1
%T
0.00002384185791015625
0.0
5000.000000
-1.000000
4631
8
73.516941
29.265928
#DATA
5000.000000	65.110683 
4999.000000	65.120744 
4998.000000	65.103077 
4997.000000	65.065765 
4996.000000	65.021800 
4995.000000	64.985752 
4994.000000	64.970970 
4993.000000	64.987421 
4992.000000	65.038084 
4991.000000	65.119338 
4990.000000	65.220594 
4989.000000	65.327429 
4988.000000	65.423703 
4987.000000	65.495371 
4986.000000	65.532350 
4985.000000	65.530371 
4984.000000	65.491008 
4983.000000	65.420818 
4982.000000	65.329790 
4981.000000	65.229225 
4980.000000	65.130305 
4979.000000	65.042376 
4978.000000	64.972949 
4977.000000	64.926552 
4976.000000	64.904952 
4975.000000	64.906311 
4974.000000	64.926290 
4973.000000	64.957666 
4972.000000	64.990496 
4971.000000	65.014529 
4970.000000	65.019369 
4969.000000	64.998793 
4968.000000	64.951467 
4967.000000	64.883017 
4966.000000	64.804244 
4965.000000	64.730119 
4964.000000	64.676141 
4963.000000	64.654970 
4962.000000	64.673018 
4961.000000	64.729475 
4960.000000	64.816784 
4959.000000	64.921736 
4958.000000	65.028643 
4957.000000	65.122246 
4956.000000	65.190792 
4955.000000	65.227198 
4954.000000	65.230274 
4953.000000	65.204310 
4952.000000	65.158224 
4951.000000	65.103602 
4950.000000	65.053176 
4949.000000	65.018820 
4948.000000	65.009355 
4947.000000	65.031123 
4946.000000	65.085029 
4945.000000	65.167260 
4944.000000	65.268492 
4943.000000	65.376329 
4942.000000	65.476322 
4941.000000	65.555095 
4940.000000	65.601849 
4939.000000	65.610551 
4938.000000	65.580081 
4937.000000	65.514087 
4936.000000	65.420031 
4935.000000	65.307402 
4934.000000	65.186977 
4933.000000	65.069556 
4932.000000	64.964866 
4931.000000	64.880919 
4930.000000	64.823293 
4929.000000	64.795017 
4928.000000	64.795184 
4927.000000	64.819645 
4926.000000	64.861989 
4925.000000	64.915084 
4924.000000	64.971137 
4923.000000	65.023875 
4922.000000	65.069150 
4921.000000	65.105986 
4920.000000	65.135383 
4919.000000	65.159940 
4918.000000	65.182900 
4917.000000	65.206384 
4916.000000	65.230703 
4915.000000	65.254044 
4914.000000	65.273761 
4913.000000	65.286159 
4912.000000	65.288805 
4911.000000	65.279889 
4910.000000	65.259695 
4909.000000	65.228939 
4908.000000	65.189099 
4907.000000	65.140986 
4906.000000	65.085077 
4905.000000	65.020608 
4904.000000	64.946651 
4903.000000	64.862012 
4902.000000	64.766526 
4901.000000	64.662361 
4900.000000	64.554738 
4899.000000	64.451646 
4898.000000	64.362144 
4897.000000	64.295387 
4896.000000	64.257550 
4895.000000	64.248871 
4894.000000	64.262938 
4893.000000	64.287042 
4892.000000	64.305591 
4891.000000	64.303183 
4890.000000	64.269757 
4889.000000	64.202904 
4888.000000	64.109492 
4887.000000	64.003634 
4886.000000	63.903188 
4885.000000	63.825178 
4884.000000	63.780522 
4883.000000	63.771104 
4882.000000	63.789272 
4881.000000	63.820123 
4880.000000	63.845896 
4879.000000	63.850903 
4878.000000	63.826513 
4877.000000	63.773727 
4876.000000	63.702845 
4875.000000	63.630580 
4874.000000	63.575863 
4873.000000	63.555049 
4872.000000	63.578343 
4871.000000	63.647699 
4870.000000	63.757491 
4869.000000	63.896083 
4868.000000	64.048838 
4867.000000	64.201092 
4866.000000	64.341115 
4865.000000	64.461588 
4864.000000	64.559268 
4863.000000	64.634561 
4862.000000	64.689946 
4861.000000	64.728856 
4860.000000	64.754414 
4859.000000	64.769005 
4858.000000	64.775204 
4857.000000	64.775085 
4856.000000	64.771795 
4855.000000	64.768958 
4854.000000	64.771533 
4853.000000	64.783573 
4852.000000	64.807677 
4851.000000	64.843916 
4850.000000	64.889812 
4849.000000	64.940261 
4848.000000	64.988613 
4847.000000	65.027928 
4846.000000	65.052485 
4845.000000	65.059018 
4844.000000	65.047359 
4843.000000	65.020656 
4842.000000	64.984488 
4841.000000	64.945912 
4840.000000	64.911580 
4839.000000	64.886617 
4838.000000	64.873218 
4837.000000	64.870953 
4836.000000	64.877009 
4835.000000	64.886188 
4834.000000	64.893388 
4833.000000	64.895057 
4832.000000	64.890217 
4831.000000	64.880108 
4830.000000	64.868617 
4829.000000	64.861011 
4828.000000	64.862298 
4827.000000	64.875531 
4826.000000	64.900755 
4825.000000	64.934873 
4824.000000	64.972305 
4823.000000	65.006375 
4822.000000	65.031719 
4821.000000	65.045642 
4820.000000	65.048789 
4819.000000	65.044569 
4818.000000	65.037441 
4817.000000	65.031075 
4816.000000	65.026807 
4815.000000	65.023207 
4814.000000	65.016818 
4813.000000	65.003561 
4812.000000	64.981198 
4811.000000	64.950108 
4810.000000	64.913892 
4809.000000	64.878463 
4808.000000	64.850687 
4807.000000	64.836287 
4806.000000	64.837741 
4805.000000	64.853811 
4804.000000	64.879488 
4803.000000	64.907884 
4802.000000	64.932179 
4801.000000	64.947199 
4800.000000	64.950990 
4799.000000	64.944219 
4798.000000	64.929819 
4797.000000	64.911437 
4796.000000	64.891982 
4795.000000	64.873600 
4794.000000	64.857530 
4793.000000	64.844870 
4792.000000	64.836835 
4791.000000	64.835596 
4790.000000	64.843988 
4789.000000	64.864492 
4788.000000	64.898657 
4787.000000	64.946293 
4786.000000	65.005207 
4785.000000	65.071272 
4784.000000	65.139079 
4783.000000	65.202689 
4782.000000	65.256834 
4781.000000	65.297842 
4780.000000	65.323758 
4779.000000	65.334796 
4778.000000	65.332198 
4777.000000	65.318155 
4776.000000	65.294814 
4775.000000	65.264177 
4774.000000	65.227961 
4773.000000	65.188145 
4772.000000	65.146684 
4771.000000	65.106153 
4770.000000	65.068912 
4769.000000	65.037226 
4768.000000	65.012168 
4767.000000	64.993619 
4766.000000	64.979791 
4765.000000	64.967799 
4764.000000	64.954280 
4763.000000	64.936733 
4762.000000	64.914083 
4761.000000	64.887475 
4760.000000	64.860367 
4759.000000	64.837503 
4758.000000	64.823627 
4757.000000	64.821982 
4756.000000	64.833188 
4755.000000	64.854407 
4754.000000	64.880132 
4753.000000	64.903116 
4752.000000	64.916133 
4751.000000	64.913845 
4750.000000	64.894127 
4749.000000	64.858841 
4748.000000	64.813113 
4747.000000	64.764213 
4746.000000	64.719796 
4745.000000	64.686036 
4744.000000	64.666152 
4743.000000	64.660239 
4742.000000	64.665746 
4741.000000	64.678049 
4740.000000	64.692020 
4739.000000	64.703416 
4738.000000	64.709734 
4737.000000	64.709949 
4736.000000	64.704298 
4735.000000	64.693593 
4734.000000	64.679074 
4733.000000	64.661884 
4732.000000	64.643669 
4731.000000	64.626002 
4730.000000	64.611482 
4729.000000	64.603590 
4728.000000	64.606356 
4727.000000	64.623570 
4726.000000	64.657878 
4725.000000	64.709973 
4724.000000	64.777922 
4723.000000	64.857053 
4722.000000	64.940524 
4721.000000	65.020203 
4720.000000	65.088462 
4719.000000	65.139460 
4718.000000	65.170383 
4717.000000	65.181708 
4716.000000	65.177655 
4715.000000	65.165066 
4714.000000	65.151882 
4713.000000	65.145158 
4712.000000	65.149903 
4711.000000	65.167760 
4710.000000	65.196681 
4709.000000	65.230846 
4708.000000	65.262126 
4707.000000	65.281343 
4706.000000	65.280342 
4705.000000	65.253639 
4704.000000	65.199446 
4703.000000	65.120267 
4702.000000	65.022540 
4701.000000	64.915442 
4700.000000	64.809226 
4699.000000	64.713597 
4698.000000	64.636373 
4697.000000	64.582753 
4696.000000	64.554333 
4695.000000	64.550280 
4694.000000	64.567613 
4693.000000	64.602732 
4692.000000	64.651393 
4691.000000	64.710140 
4690.000000	64.776062 
4689.000000	64.846301 
4688.000000	64.917254 
4687.000000	64.984107 
4686.000000	65.040636 
4685.000000	65.080165 
4684.000000	65.096735 
4683.000000	65.086770 
4682.000000	65.050363 
4681.000000	64.992189 
4680.000000	64.920616 
4679.000000	64.845991 
4678.000000	64.778089 
4677.000000	64.724683 
4676.000000	64.689421 
4675.000000	64.671540 
4674.000000	64.666295 
4673.000000	64.667129 
4672.000000	64.667439 
4671.000000	64.662528 
4670.000000	64.650511 
4669.000000	64.632368 
4668.000000	64.611482 
4667.000000	64.591479 
4666.000000	64.576053 
4665.000000	64.566922 
4664.000000	64.565515 
4663.000000	64.572453 
4662.000000	64.588499 
4661.000000	64.614486 
4660.000000	64.650583 
4659.000000	64.696097 
4658.000000	64.747977 
4657.000000	64.801263 
4656.000000	64.849925 
4655.000000	64.888358 
4654.000000	64.913010 
4653.000000	64.923501 
4652.000000	64.923286 
4651.000000	64.918613 
4650.000000	64.917206 
4649.000000	64.925432 
4648.000000	64.946627 
4647.000000	64.979171 
4646.000000	65.017676 
4645.000000	65.052986 
4644.000000	65.075302 
4643.000000	65.075993 
4642.000000	65.050601 
4641.000000	64.999318 
4640.000000	64.926910 
4639.000000	64.841699 
4638.000000	64.753317 
4637.000000	64.671444 
4636.000000	64.603900 
4635.000000	64.556145 
4634.000000	64.531064 
4633.000000	64.528918 
4632.000000	64.547634 
4631.000000	64.583659 
4630.000000	64.632320 
4629.000000	64.688396 
4628.000000	64.746451 
4627.000000	64.800953 
4626.000000	64.846777 
4625.000000	64.880013 
4624.000000	64.898300 
4623.000000	64.900875 
4622.000000	64.888596 
4621.000000	64.864039 
4620.000000	64.830660 
4619.000000	64.792585 
4618.000000	64.753556 
4617.000000	64.716720 
4616.000000	64.684176 
4615.000000	64.657211 
4614.000000	64.636445 
4613.000000	64.622020 
4612.000000	64.614439 
4611.000000	64.614105 
4610.000000	64.622664 
4609.000000	64.641976 
4608.000000	64.674425 
4607.000000	64.721655 
4606.000000	64.783644 
4605.000000	64.857769 
4604.000000	64.938807 
4603.000000	65.019011 
4602.000000	65.088963 
4601.000000	65.139150 
4600.000000	65.161609 
4599.000000	65.151810 
4598.000000	65.110087 
4597.000000	65.041780 
4596.000000	64.956593 
4595.000000	64.866471 
4594.000000	64.784002 
4593.000000	64.719629 
4592.000000	64.680099 
4591.000000	64.667034 
4590.000000	64.678072 
4589.000000	64.707088 
4588.000000	64.745950 
4587.000000	64.786148 
4586.000000	64.820265 
4585.000000	64.843177 
4584.000000	64.851975 
4583.000000	64.846873 
4582.000000	64.830017 
4581.000000	64.805340 
4580.000000	64.777588 
4579.000000	64.750909 
4578.000000	64.728331 
4577.000000	64.711308 
4576.000000	64.699506 
4575.000000	64.690732 
4574.000000	64.681529 
4573.000000	64.668178 
4572.000000	64.647793 
4571.000000	64.619016 
4570.000000	64.582443 
4569.000000	64.540505 
4568.000000	64.496707 
4567.000000	64.454746 
4566.000000	64.417338 
4565.000000	64.385628 
4564.000000	64.358878 
4563.000000	64.334583 
4562.000000	64.309549 
4561.000000	64.281105 
4560.000000	64.248108 
4559.000000	64.211034 
4558.000000	64.172697 
4557.000000	64.137148 
4556.000000	64.109754 
4555.000000	64.095497 
4554.000000	64.098954 
4553.000000	64.122819 
4552.000000	64.167952 
4551.000000	64.232850 
4550.000000	64.314484 
4549.000000	64.408564 
4548.000000	64.509463 
4547.000000	64.610862 
4546.000000	64.706563 
4545.000000	64.791011 
4544.000000	64.859294 
4543.000000	64.907789 
4542.000000	64.934992 
4541.000000	64.941406 
4540.000000	64.929962 
4539.000000	64.904928 
4538.000000	64.872193 
4537.000000	64.837336 
4536.000000	64.805650 
4535.000000	64.780688 
4534.000000	64.764118 
4533.000000	64.755940 
4532.000000	64.755368 
4531.000000	64.761495 
4530.000000	64.773726 
4529.000000	64.792609 
4528.000000	64.819550 
4527.000000	64.856910 
4526.000000	64.906716 
4525.000000	64.970564 
4524.000000	65.048694 
4523.000000	65.139842 
4522.000000	65.240883 
4521.000000	65.347576 
4520.000000	65.454721 
4519.000000	65.556907 
4518.000000	65.648770 
4517.000000	65.726399 
4516.000000	65.786433 
4515.000000	65.827083 
4514.000000	65.846514 
4513.000000	65.844726 
4512.000000	65.820932 
4511.000000	65.775847 
4510.000000	65.709257 
4509.000000	65.621685 
4508.000000	65.514159 
4507.000000	65.390014 
4506.000000	65.254878 
4505.000000	65.117025 
4504.000000	64.986848 
4503.000000	64.875793 
4502.000000	64.794039 
4501.000000	64.748382 
4500.000000	64.740443 
4499.000000	64.765882 
4498.000000	64.815735 
4497.000000	64.878082 
4496.000000	64.940547 
4495.000000	64.992618 
4494.000000	65.027451 
4493.000000	65.042400 
4492.000000	65.038585 
4491.000000	65.019631 
4490.000000	64.989638 
4489.000000	64.952468 
4488.000000	64.910411 
4487.000000	64.865279 
4486.000000	64.819097 
4485.000000	64.775252 
4484.000000	64.739155 
4483.000000	64.717626 
4482.000000	64.717888 
4481.000000	64.745473 
4480.000000	64.802122 
4479.000000	64.884853 
4478.000000	64.985823 
4477.000000	65.093398 
4476.000000	65.194296 
4475.000000	65.275764 
4474.000000	65.327596 
4473.000000	65.345072 
4472.000000	65.329599 
4471.000000	65.289092 
4470.000000	65.236163 
4469.000000	65.186190 
4468.000000	65.153908 
4467.000000	65.150618 
4466.000000	65.181875 
4465.000000	65.246605 
4464.000000	65.337681 
4463.000000	65.444087 
4462.000000	65.553331 
4461.000000	65.654563 
4460.000000	65.739583 
4459.000000	65.804314 
4458.000000	65.847516 
4457.000000	65.870642 
4456.000000	65.875077 
4455.000000	65.861296 
4454.000000	65.828514 
4453.000000	65.775489 
4452.000000	65.702438 
4451.000000	65.613245 
4450.000000	65.515112 
4449.000000	65.419220 
4448.000000	65.337061 
4447.000000	65.278387 
4446.000000	65.247678 
4445.000000	65.242743 
4444.000000	65.255475 
4443.000000	65.274143 
4442.000000	65.286588 
4441.000000	65.283608 
4440.000000	65.261483 
4439.000000	65.223479 
4438.000000	65.177989 
4437.000000	65.137124 
4436.000000	65.112805 
4435.000000	65.114545 
4434.000000	65.147137 
4433.000000	65.209364 
4432.000000	65.295433 
4431.000000	65.394830 
4430.000000	65.495586 
4429.000000	65.585064 
4428.000000	65.652775 
4427.000000	65.691065 
4426.000000	65.695619 
4425.000000	65.666651 
4424.000000	65.608143 
4423.000000	65.528273 
4422.000000	65.438032 
4421.000000	65.350079 
4420.000000	65.277147 
4419.000000	65.229129 
4418.000000	65.211939 
4417.000000	65.225768 
4416.000000	65.265679 
4415.000000	65.322017 
4414.000000	65.383172 
4413.000000	65.439367 
4412.000000	65.485048 
4411.000000	65.519332 
4410.000000	65.546011 
4409.000000	65.571689 
4408.000000	65.602898 
4407.000000	65.643644 
4406.000000	65.693354 
4405.000000	65.746426 
4404.000000	65.793871 
4403.000000	65.826654 
4402.000000	65.837955 
4401.000000	65.826177 
4400.000000	65.794634 
4399.000000	65.752601 
4398.000000	65.709996 
4397.000000	65.676808 
4396.000000	65.655541 
4395.000000	65.635657 
4394.000000	65.605974 
4393.000000	65.562462 
4392.000000	65.501832 
4391.000000	65.423607 
4390.000000	65.326857 
4389.000000	65.210008 
4388.000000	65.070843 
4387.000000	64.908242 
4386.000000	64.724922 
4385.000000	64.528703 
4384.000000	64.336490 
4383.000000	64.169645 
4382.000000	64.044475 
4381.000000	63.971447 
4380.000000	63.948583 
4379.000000	63.969302 
4378.000000	64.019179 
4377.000000	64.089298 
4376.000000	64.185810 
4375.000000	64.319205 
4374.000000	64.514112 
4373.000000	64.767861 
4372.000000	65.067648 
4371.000000	65.335869 
4370.000000	65.440750 
4369.000000	65.214633 
4368.000000	64.489507 
4367.000000	63.169860 
4366.000000	61.272501 
4365.000000	58.958649 
4364.000000	56.516504 
4363.000000	54.295253 
4362.000000	52.628707 
4361.000000	51.749420 
4360.000000	51.738381 
4359.000000	52.521967 
4358.000000	53.898763 
4357.000000	55.600547 
4356.000000	57.358622 
4355.000000	58.947324 
4354.000000	60.236239 
4353.000000	61.169767 
4352.000000	61.788344 
4351.000000	62.182283 
4350.000000	62.474727 
4349.000000	62.784266 
4348.000000	63.192152 
4347.000000	63.735294 
4346.000000	64.390611 
4345.000000	65.105724 
4344.000000	65.799450 
4343.000000	66.401410 
4342.000000	66.855740 
4341.000000	67.143774 
4340.000000	67.272591 
4339.000000	67.269682 
4338.000000	67.173814 
4337.000000	67.024207 
4336.000000	66.854906 
4335.000000	66.689705 
4334.000000	66.547632 
4333.000000	66.443109 
4332.000000	66.378808 
4331.000000	66.347813 
4330.000000	66.339254 
4329.000000	66.340303 
4328.000000	66.336417 
4327.000000	66.316246 
4326.000000	66.271066 
4325.000000	66.198492 
4324.000000	66.107368 
4323.000000	66.011476 
4322.000000	65.918374 
4321.000000	65.833806 
4320.000000	65.764117 
4319.000000	65.712141 
4318.000000	65.677118 
4317.000000	65.655779 
4316.000000	65.644288 
4315.000000	65.638041 
4314.000000	65.630936 
4313.000000	65.619874 
4312.000000	65.605449 
4311.000000	65.590214 
4310.000000	65.576815 
4309.000000	65.568780 
4308.000000	65.569281 
4307.000000	65.579700 
4306.000000	65.599274 
4305.000000	65.625977 
4304.000000	65.656805 
4303.000000	65.689611 
4302.000000	65.722918 
4301.000000	65.755081 
4300.000000	65.784215 
4299.000000	65.807723 
4298.000000	65.822410 
4297.000000	65.825104 
4296.000000	65.813469 
4295.000000	65.787124 
4294.000000	65.748333 
4293.000000	65.701699 
4292.000000	65.654063 
4291.000000	65.613389 
4290.000000	65.586853 
4289.000000	65.578937 
4288.000000	65.590596 
4287.000000	65.619134 
4286.000000	65.658283 
4285.000000	65.699625 
4284.000000	65.734219 
4283.000000	65.754389 
4282.000000	65.755438 
4281.000000	65.736484 
4280.000000	65.700149 
4279.000000	65.651631 
4278.000000	65.597701 
4277.000000	65.545153 
4276.000000	65.499401 
4275.000000	65.463328 
4274.000000	65.437483 
4273.000000	65.420031 
4272.000000	65.407538 
4271.000000	65.396189 
4270.000000	65.383315 
4269.000000	65.368103 
4268.000000	65.351176 
4267.000000	65.335321 
4266.000000	65.324282 
4265.000000	65.321826 
4264.000000	65.330648 
4263.000000	65.350961 
4262.000000	65.380501 
4261.000000	65.414285 
4260.000000	65.445947 
4259.000000	65.468239 
4258.000000	65.474462 
4257.000000	65.459895 
4256.000000	65.422892 
4255.000000	65.365004 
4254.000000	65.290808 
4253.000000	65.207099 
4252.000000	65.121865 
4251.000000	65.042734 
4250.000000	64.975643 
4249.000000	64.924526 
4248.000000	64.890456 
4247.000000	64.871883 
4246.000000	64.865088 
4245.000000	64.864969 
4244.000000	64.866471 
4243.000000	64.864706 
4242.000000	64.856672 
4241.000000	64.840459 
4240.000000	64.816999 
4239.000000	64.788794 
4238.000000	64.760255 
4237.000000	64.736461 
4236.000000	64.722394 
4235.000000	64.721775 
4234.000000	64.736247 
4233.000000	64.764928 
4232.000000	64.804673 
4231.000000	64.850449 
4230.000000	64.896726 
4229.000000	64.938688 
4228.000000	64.973235 
4227.000000	64.999628 
4226.000000	65.019583 
4225.000000	65.036487 
4224.000000	65.054297 
4223.000000	65.075945 
4222.000000	65.102910 
4221.000000	65.133833 
4220.000000	65.164184 
4219.000000	65.187120 
4218.000000	65.195655 
4217.000000	65.184473 
4216.000000	65.151739 
4215.000000	65.099620 
4214.000000	65.034413 
4213.000000	64.964890 
4212.000000	64.900231 
4211.000000	64.848041 
4210.000000	64.812088 
4209.000000	64.792704 
4208.000000	64.787220 
4207.000000	64.791464 
4206.000000	64.801526 
4205.000000	64.814400 
4204.000000	64.828634 
4203.000000	64.843916 
4202.000000	64.860510 
4201.000000	64.878225 
4200.000000	64.895701 
4199.000000	64.911317 
4198.000000	64.923524 
4197.000000	64.932394 
4196.000000	64.939808 
4195.000000	64.949774 
4194.000000	64.966917 
4193.000000	64.994764 
4192.000000	65.033507 
4191.000000	65.079331 
4190.000000	65.123844 
4189.000000	65.156078 
4188.000000	65.164709 
4187.000000	65.141367 
4186.000000	65.083026 
4185.000000	64.993309 
4184.000000	64.882206 
4183.000000	64.763832 
4182.000000	64.654231 
4181.000000	64.567232 
4180.000000	64.513301 
4179.000000	64.497184 
4178.000000	64.519119 
4177.000000	64.575290 
4176.000000	64.659929 
4175.000000	64.766550 
4174.000000	64.888739 
4173.000000	65.020298 
4172.000000	65.154552 
4171.000000	65.284180 
4170.000000	65.401148 
4169.000000	65.497565 
4168.000000	65.567183 
4167.000000	65.606403 
4166.000000	65.616011 
4165.000000	65.600180 
4164.000000	65.567088 
4163.000000	65.525388 
4162.000000	65.483498 
4161.000000	65.446352 
4160.000000	65.415644 
4159.000000	65.389180 
