PE IR       SPECTRUM    SPECTRUM    ASCII       PEDS        1.60        
  -1
C-1DEE~1.ASC
17/03/27
20:39:43.00
17/03/27
20:39:43.00
tln
$C-4040-8_t0075$<tbV0>[-7.8,2.6,8.0,0.0,27,1,0]
370.000000
64









2002,4.07    
MIRTGS : RIGHTBACK : INTERNAL 2
MIR : ON : INTERNAL 2
OPTKBR

0.200000
8
8.000000
FILLER
RATIO
SPECTRUM
UNLOCKED 256

DOUBLE
64
COMBINED
1
0
0


1.000000
RATIO


1
0
TRUE
51149
0
LEFT NOT FITTED RIGHT NOT FITTED 0
NONE
NONE
15600
12.000000
4.427000
51148
TRUE
1 0 8 72 0 0 0 0 

15798.010000






#HDR
-1
-1
#GR
CM-1
%T
0.00002384185791015625
0.0
5000.000000
-1.000000
4631
8
79.896450
29.417467
#DATA
5000.000000	65.274310 
4999.000000	65.187811 
4998.000000	65.089988 
4997.000000	64.983010 
4996.000000	64.869117 
4995.000000	64.751029 
4994.000000	64.632940 
4993.000000	64.520335 
4992.000000	64.420366 
4991.000000	64.339828 
4990.000000	64.285612 
4989.000000	64.263057 
4988.000000	64.275002 
4987.000000	64.320302 
4986.000000	64.394545 
4985.000000	64.490222 
4984.000000	64.598321 
4983.000000	64.709186 
4982.000000	64.814496 
4981.000000	64.907622 
4980.000000	64.984512 
4979.000000	65.042996 
4978.000000	65.082287 
4977.000000	65.101623 
4976.000000	65.101337 
4975.000000	65.081262 
4974.000000	65.041613 
4973.000000	64.982509 
4972.000000	64.905381 
4971.000000	64.813446 
4970.000000	64.711546 
4969.000000	64.608240 
4968.000000	64.514064 
4967.000000	64.442729 
4966.000000	64.407110 
4965.000000	64.419198 
4964.000000	64.486479 
4963.000000	64.611244 
4962.000000	64.788389 
4961.000000	65.006685 
4960.000000	65.249395 
4959.000000	65.497469 
4958.000000	65.731739 
4957.000000	65.936088 
4956.000000	66.098928 
4955.000000	66.214132 
4954.000000	66.280055 
4953.000000	66.298413 
4952.000000	66.272234 
4951.000000	66.205525 
4950.000000	66.101956 
4949.000000	65.967440 
4948.000000	65.808629 
4947.000000	65.636038 
4946.000000	65.460705 
4945.000000	65.294241 
4944.000000	65.145969 
4943.000000	65.021944 
4942.000000	64.923810 
4941.000000	64.848375 
4940.000000	64.789938 
4939.000000	64.741706 
4938.000000	64.698505 
4937.000000	64.656925 
4936.000000	64.617109 
4935.000000	64.581131 
4934.000000	64.552688 
4933.000000	64.534878 
4932.000000	64.529323 
4931.000000	64.534616 
4930.000000	64.547991 
4929.000000	64.565706 
4928.000000	64.583802 
4927.000000	64.598512 
4926.000000	64.607644 
4925.000000	64.610695 
4924.000000	64.607477 
4923.000000	64.598584 
4922.000000	64.585089 
4921.000000	64.569306 
4920.000000	64.554381 
4919.000000	64.545011 
4918.000000	64.546346 
4917.000000	64.563846 
4916.000000	64.602327 
4915.000000	64.664506 
4914.000000	64.748620 
4913.000000	64.849305 
4912.000000	64.958858 
4911.000000	65.067553 
4910.000000	65.164852 
4909.000000	65.241622 
4908.000000	65.292787 
4907.000000	65.316200 
4906.000000	65.312981 
4905.000000	65.286850 
4904.000000	65.243005 
4903.000000	65.187048 
4902.000000	65.124297 
4901.000000	65.059661 
4900.000000	64.997339 
4899.000000	64.941978 
4898.000000	64.897656 
4897.000000	64.867281 
4896.000000	64.851427 
4895.000000	64.847373 
4894.000000	64.850258 
4893.000000	64.852023 
4892.000000	64.846253 
4891.000000	64.829182 
4890.000000	64.803504 
4889.000000	64.777469 
4888.000000	64.764475 
4887.000000	64.779138 
4886.000000	64.834070 
4885.000000	64.934659 
4884.000000	65.078091 
4883.000000	65.253019 
4882.000000	65.441751 
4881.000000	65.623736 
4880.000000	65.780067 
4879.000000	65.897655 
4878.000000	65.970015 
4877.000000	65.997767 
4876.000000	65.985465 
4875.000000	65.939354 
4874.000000	65.864753 
4873.000000	65.765285 
4872.000000	65.643668 
4871.000000	65.502977 
4870.000000	65.349650 
4869.000000	65.193581 
4868.000000	65.046954 
4867.000000	64.922761 
4866.000000	64.831662 
4865.000000	64.780783 
4864.000000	64.771127 
4863.000000	64.798355 
4862.000000	64.853286 
4861.000000	64.923667 
4860.000000	64.996170 
4859.000000	65.058779 
4858.000000	65.101313 
4857.000000	65.118265 
4856.000000	65.108251 
4855.000000	65.074872 
4854.000000	65.024757 
4853.000000	64.967298 
4852.000000	64.912486 
4851.000000	64.868831 
4850.000000	64.842224 
4849.000000	64.834594 
4848.000000	64.844346 
4847.000000	64.866065 
4846.000000	64.892578 
4845.000000	64.917230 
4844.000000	64.935779 
4843.000000	64.947915 
4842.000000	64.957046 
4841.000000	64.968204 
4840.000000	64.986491 
4839.000000	65.015411 
4838.000000	65.055131 
4837.000000	65.101742 
4836.000000	65.148019 
4835.000000	65.186119 
4834.000000	65.208911 
4833.000000	65.211749 
4832.000000	65.193748 
4831.000000	65.157938 
4830.000000	65.110898 
4829.000000	65.061616 
4828.000000	65.018916 
4827.000000	64.989662 
4826.000000	64.977169 
4825.000000	64.981269 
4824.000000	64.997887 
4823.000000	65.020370 
4822.000000	65.041184 
4821.000000	65.053939 
4820.000000	65.054702 
4819.000000	65.043282 
4818.000000	65.023159 
4817.000000	65.000844 
4816.000000	64.984536 
4815.000000	64.982104 
4814.000000	64.999294 
4813.000000	65.037989 
4812.000000	65.096163 
4811.000000	65.167427 
4810.000000	65.242981 
4809.000000	65.312290 
4808.000000	65.365934 
4807.000000	65.396261 
4806.000000	65.399026 
4805.000000	65.373182 
4804.000000	65.321016 
4803.000000	65.247154 
4802.000000	65.157818 
4801.000000	65.059208 
4800.000000	64.957571 
4799.000000	64.857292 
4798.000000	64.761471 
4797.000000	64.671611 
4796.000000	64.588713 
4795.000000	64.513421 
4794.000000	64.447045 
4793.000000	64.391589 
4792.000000	64.350008 
4791.000000	64.325952 
4790.000000	64.323258 
4789.000000	64.344310 
4788.000000	64.389586 
4787.000000	64.457035 
4786.000000	64.542055 
4785.000000	64.637279 
4784.000000	64.733672 
4783.000000	64.821839 
4782.000000	64.893507 
4781.000000	64.942479 
4780.000000	64.965987 
4779.000000	64.964866 
4778.000000	64.943552 
4777.000000	64.908909 
4776.000000	64.868927 
4775.000000	64.831519 
4774.000000	64.802837 
4773.000000	64.787077 
4772.000000	64.785194 
4771.000000	64.795565 
4770.000000	64.814639 
4769.000000	64.838624 
4768.000000	64.863276 
4767.000000	64.884781 
4766.000000	64.900612 
4765.000000	64.909672 
4764.000000	64.911317 
4763.000000	64.905285 
4762.000000	64.891719 
4761.000000	64.870858 
4760.000000	64.842867 
4759.000000	64.807915 
4758.000000	64.766907 
4757.000000	64.721560 
4756.000000	64.674210 
4755.000000	64.627814 
4754.000000	64.584922 
4753.000000	64.547967 
4752.000000	64.518475 
4751.000000	64.497375 
4750.000000	64.484167 
4749.000000	64.478135 
4748.000000	64.478254 
4747.000000	64.484500 
4746.000000	64.496898 
4745.000000	64.517092 
4744.000000	64.546990 
4743.000000	64.588785 
4742.000000	64.643549 
4741.000000	64.710569 
4740.000000	64.786911 
4739.000000	64.867806 
4738.000000	64.947247 
4737.000000	65.019631 
4736.000000	65.080618 
4735.000000	65.128302 
4734.000000	65.163207 
4733.000000	65.187907 
4732.000000	65.205955 
4731.000000	65.220594 
4730.000000	65.233588 
4729.000000	65.245151 
4728.000000	65.254020 
4727.000000	65.259075 
4726.000000	65.259480 
4725.000000	65.255784 
4724.000000	65.249443 
4723.000000	65.243506 
4722.000000	65.240240 
4721.000000	65.240478 
4720.000000	65.242552 
4719.000000	65.242695 
4718.000000	65.236449 
4717.000000	65.220189 
4716.000000	65.193104 
4715.000000	65.157628 
4714.000000	65.119862 
4713.000000	65.088057 
4712.000000	65.069937 
4711.000000	65.070152 
4710.000000	65.088391 
4709.000000	65.118932 
4708.000000	65.151309 
4707.000000	65.173244 
4706.000000	65.174174 
4705.000000	65.148591 
4704.000000	65.097427 
4703.000000	65.029048 
4702.000000	64.957022 
4701.000000	64.897274 
4700.000000	64.863967 
4699.000000	64.866256 
4698.000000	64.906144 
4697.000000	64.977788 
4696.000000	65.069770 
4695.000000	65.166926 
4694.000000	65.254330 
4693.000000	65.319514 
4692.000000	65.354990 
4691.000000	65.358519 
4690.000000	65.332627 
4689.000000	65.283465 
4688.000000	65.218997 
4687.000000	65.147829 
4686.000000	65.077877 
4685.000000	65.016078 
4684.000000	64.967918 
4683.000000	64.936852 
4682.000000	64.924478 
4681.000000	64.930081 
4680.000000	64.951515 
4679.000000	64.984893 
4678.000000	65.026259 
4677.000000	65.070748 
4676.000000	65.114879 
4675.000000	65.156888 
4674.000000	65.196657 
4673.000000	65.234971 
4672.000000	65.272784 
4671.000000	65.310239 
4670.000000	65.346169 
4669.000000	65.378069 
4668.000000	65.402722 
4667.000000	65.417098 
4666.000000	65.419507 
4665.000000	65.410614 
4664.000000	65.393090 
4663.000000	65.371179 
4662.000000	65.349459 
4661.000000	65.331840 
4660.000000	65.321159 
4659.000000	65.318655 
4658.000000	65.324354 
4657.000000	65.336847 
4656.000000	65.353727 
4655.000000	65.371465 
4654.000000	65.386247 
4653.000000	65.393614 
4652.000000	65.388846 
4651.000000	65.367698 
4650.000000	65.326762 
4649.000000	65.265011 
4648.000000	65.184712 
4647.000000	65.091156 
4646.000000	64.992547 
4645.000000	64.898586 
4644.000000	64.818716 
4643.000000	64.760828 
4642.000000	64.728927 
4641.000000	64.723753 
4640.000000	64.742708 
4639.000000	64.780902 
4638.000000	64.832305 
4637.000000	64.890670 
4636.000000	64.950156 
4635.000000	65.005636 
4634.000000	65.052676 
4633.000000	65.088105 
4632.000000	65.109944 
4631.000000	65.117788 
4630.000000	65.112614 
4629.000000	65.096950 
4628.000000	65.074133 
4627.000000	65.048170 
4626.000000	65.022587 
4625.000000	65.000057 
4624.000000	64.981675 
4623.000000	64.966940 
4622.000000	64.954400 
4621.000000	64.942383 
4620.000000	64.930176 
4619.000000	64.917969 
4618.000000	64.907836 
4617.000000	64.903020 
4616.000000	64.907622 
4615.000000	64.924907 
4614.000000	64.956879 
4613.000000	65.003013 
4612.000000	65.060377 
4611.000000	65.124368 
4610.000000	65.188455 
4609.000000	65.245652 
4608.000000	65.289425 
4607.000000	65.315079 
4606.000000	65.320158 
4605.000000	65.304899 
4604.000000	65.271973 
4603.000000	65.225958 
4602.000000	65.172505 
4601.000000	65.117144 
4600.000000	65.064954 
4599.000000	65.019369 
4598.000000	64.982461 
4597.000000	64.954161 
4596.000000	64.933228 
4595.000000	64.916896 
4594.000000	64.901733 
4593.000000	64.884209 
4592.000000	64.860892 
4591.000000	64.830040 
4590.000000	64.791202 
4589.000000	64.746594 
4588.000000	64.699983 
4587.000000	64.657330 
4586.000000	64.625358 
4585.000000	64.610576 
4584.000000	64.617657 
4583.000000	64.648532 
4582.000000	64.701581 
4581.000000	64.771795 
4580.000000	64.851546 
4579.000000	64.932155 
4578.000000	65.005373 
4577.000000	65.064883 
4576.000000	65.107083 
4575.000000	65.131378 
4574.000000	65.139293 
4573.000000	65.133881 
4572.000000	65.118193 
4571.000000	65.094900 
4570.000000	65.065455 
4569.000000	65.031123 
4568.000000	64.992761 
4567.000000	64.951920 
4566.000000	64.910554 
4565.000000	64.871883 
4564.000000	64.839029 
4563.000000	64.814352 
4562.000000	64.799213 
4561.000000	64.793324 
4560.000000	64.795398 
4559.000000	64.802789 
4558.000000	64.813613 
4557.000000	64.826846 
4556.000000	64.843320 
4555.000000	64.865303 
4554.000000	64.895629 
4553.000000	64.936184 
4552.000000	64.986968 
4551.000000	65.045118 
4550.000000	65.104866 
4549.000000	65.158510 
4548.000000	65.198397 
4547.000000	65.218544 
4546.000000	65.216040 
4545.000000	65.191197 
4544.000000	65.147614 
4543.000000	65.090942 
4542.000000	65.027284 
4541.000000	64.962482 
4540.000000	64.900898 
4539.000000	64.846467 
4538.000000	64.802479 
4537.000000	64.772891 
4536.000000	64.762902 
4535.000000	64.777493 
4534.000000	64.820766 
4533.000000	64.893198 
4532.000000	64.990162 
4531.000000	65.101552 
4530.000000	65.212225 
4529.000000	65.305590 
4528.000000	65.366744 
4527.000000	65.386319 
4526.000000	65.362620 
4525.000000	65.301418 
4524.000000	65.214562 
4523.000000	65.116882 
4522.000000	65.022563 
4521.000000	64.942359 
4520.000000	64.881777 
4519.000000	64.841246 
4518.000000	64.817380 
4517.000000	64.805340 
4516.000000	64.800333 
4515.000000	64.799261 
4514.000000	64.800620 
4513.000000	64.803814 
4512.000000	64.808583 
4511.000000	64.813160 
4510.000000	64.815258 
4509.000000	64.812111 
4508.000000	64.801549 
4507.000000	64.783215 
4506.000000	64.758157 
4505.000000	64.729213 
4504.000000	64.699959 
4503.000000	64.673566 
4502.000000	64.653229 
4501.000000	64.641475 
4500.000000	64.640569 
4499.000000	64.652252 
4498.000000	64.678001 
4497.000000	64.718627 
4496.000000	64.773607 
4495.000000	64.840722 
4494.000000	64.916110 
4493.000000	64.994287 
4492.000000	65.069103 
4491.000000	65.134549 
4490.000000	65.185832 
4489.000000	65.219688 
4488.000000	65.235829 
4487.000000	65.235590 
4486.000000	65.221977 
4485.000000	65.197682 
4484.000000	65.165352 
4483.000000	65.126085 
4482.000000	65.080213 
4481.000000	65.027332 
4480.000000	64.967846 
4479.000000	64.903187 
4478.000000	64.836454 
4477.000000	64.772582 
4476.000000	64.717364 
4475.000000	64.677023 
4474.000000	64.656686 
4473.000000	64.659667 
4472.000000	64.686536 
4471.000000	64.734601 
4470.000000	64.798164 
4469.000000	64.869308 
4468.000000	64.938950 
4467.000000	64.998555 
4466.000000	65.041208 
4465.000000	65.062332 
4464.000000	65.060162 
4463.000000	65.036034 
4462.000000	64.994120 
4461.000000	64.940190 
4460.000000	64.880871 
4459.000000	64.823317 
4458.000000	64.773845 
4457.000000	64.737510 
4456.000000	64.717006 
4455.000000	64.712953 
4454.000000	64.723706 
4453.000000	64.745450 
4452.000000	64.773678 
4451.000000	64.803528 
4450.000000	64.831638 
4449.000000	64.856076 
4448.000000	64.877557 
4447.000000	64.898443 
4446.000000	64.922046 
4445.000000	64.950919 
4444.000000	64.985680 
4443.000000	65.024113 
4442.000000	65.061044 
4441.000000	65.089011 
4440.000000	65.099668 
4439.000000	65.085649 
4438.000000	65.042281 
4437.000000	64.969182 
4436.000000	64.871883 
4435.000000	64.760231 
4434.000000	64.647293 
4433.000000	64.545559 
4432.000000	64.463901 
4431.000000	64.406228 
4430.000000	64.370846 
4429.000000	64.352393 
4428.000000	64.344024 
4427.000000	64.339351 
4426.000000	64.335727 
4425.000000	64.332199 
4424.000000	64.328432 
4423.000000	64.323210 
4422.000000	64.311146 
4421.000000	64.287543 
4420.000000	64.249706 
4419.000000	64.198040 
4418.000000	64.137578 
4417.000000	64.073467 
4416.000000	64.008498 
4415.000000	63.950538 
4414.000000	63.910531 
4413.000000	63.887500 
4412.000000	63.871836 
4411.000000	63.853001 
4410.000000	63.822674 
4409.000000	63.782358 
4408.000000	63.742041 
4407.000000	63.706922 
4406.000000	63.684749 
4405.000000	63.682723 
4404.000000	63.709163 
4403.000000	63.780593 
4402.000000	63.906359 
4401.000000	64.087438 
4400.000000	64.307093 
4399.000000	64.523935 
4398.000000	64.689540 
4397.000000	64.769458 
4396.000000	64.737534 
4395.000000	64.593648 
4394.000000	64.337086 
4393.000000	63.955450 
4392.000000	63.464832 
4391.000000	62.897419 
4390.000000	62.421774 
4389.000000	62.307286 
4388.000000	62.902569 
4387.000000	64.512562 
4386.000000	67.195630 
4385.000000	70.711159 
4384.000000	74.457788 
4383.000000	77.657961 
4382.000000	79.614925 
4381.000000	79.896450 
4380.000000	78.567028 
4379.000000	76.077723 
4378.000000	73.112583 
4377.000000	70.380640 
4376.000000	68.329071 
4375.000000	67.127513 
4374.000000	66.674971 
4373.000000	66.676115 
4372.000000	66.876077 
4371.000000	67.041039 
4370.000000	67.065572 
4369.000000	66.931104 
4368.000000	66.641664 
4367.000000	66.251611 
4366.000000	65.803074 
4365.000000	65.350413 
4364.000000	64.941048 
4363.000000	64.608788 
4362.000000	64.371848 
4361.000000	64.226961 
4360.000000	64.155459 
4359.000000	64.139628 
4358.000000	64.167881 
4357.000000	64.234328 
4356.000000	64.338874 
4355.000000	64.475250 
4354.000000	64.635181 
4353.000000	64.798450 
4352.000000	64.944863 
4351.000000	65.069317 
4350.000000	65.174818 
4349.000000	65.267038 
4348.000000	65.353131 
4347.000000	65.434074 
4346.000000	65.507292 
4345.000000	65.573954 
4344.000000	65.630292 
4343.000000	65.665936 
4342.000000	65.671825 
4341.000000	65.647077 
4340.000000	65.594196 
4339.000000	65.520310 
4338.000000	65.433073 
4337.000000	65.338921 
4336.000000	65.242958 
4335.000000	65.148758 
4334.000000	65.061593 
4333.000000	64.988613 
4332.000000	64.936661 
4331.000000	64.911317 
4330.000000	64.915919 
4329.000000	64.950537 
4328.000000	65.010929 
4327.000000	65.089058 
4326.000000	65.174055 
4325.000000	65.254211 
4324.000000	65.319132 
4323.000000	65.361404 
4322.000000	65.376591 
4321.000000	65.364694 
4320.000000	65.329909 
4319.000000	65.279054 
4318.000000	65.219831 
4317.000000	65.159416 
4316.000000	65.103769 
4315.000000	65.056371 
4314.000000	65.018606 
4313.000000	64.989781 
4312.000000	64.968013 
4311.000000	64.950895 
4310.000000	64.936256 
4309.000000	64.922809 
4308.000000	64.910340 
4307.000000	64.900112 
4306.000000	64.894533 
4305.000000	64.896726 
4304.000000	64.909338 
4303.000000	64.934277 
4302.000000	64.971232 
4301.000000	65.016865 
4300.000000	65.064930 
4299.000000	65.107131 
4298.000000	65.134978 
4297.000000	65.141844 
4296.000000	65.124845 
4295.000000	65.085434 
4294.000000	65.029644 
4293.000000	64.966559 
4292.000000	64.906287 
4291.000000	64.857673 
4290.000000	64.826536 
4289.000000	64.814805 
4288.000000	64.820790 
4287.000000	64.840579 
4286.000000	64.868974 
4285.000000	64.901065 
4284.000000	64.933252 
4283.000000	64.963936 
4282.000000	64.992642 
4281.000000	65.019202 
4280.000000	65.043234 
4279.000000	65.063524 
4278.000000	65.078496 
4277.000000	65.086030 
4276.000000	65.084910 
4275.000000	65.074419 
4274.000000	65.055203 
4273.000000	65.028476 
4272.000000	64.995884 
4271.000000	64.959192 
4270.000000	64.920306 
4269.000000	64.881443 
4268.000000	64.844584 
4267.000000	64.812088 
4266.000000	64.786458 
4265.000000	64.770269 
4264.000000	64.765381 
4263.000000	64.773035 
4262.000000	64.793300 
4261.000000	64.825463 
4260.000000	64.867377 
4259.000000	64.916205 
4258.000000	64.968323 
4257.000000	65.020155 
4256.000000	65.068435 
4255.000000	65.110898 
4254.000000	65.146207 
4253.000000	65.174031 
4252.000000	65.194606 
4251.000000	65.208864 
4250.000000	65.217733 
4249.000000	65.222024 
4248.000000	65.221953 
4247.000000	65.217328 
4246.000000	65.207362 
4245.000000	65.191364 
4244.000000	65.168738 
4243.000000	65.139555 
4242.000000	65.104508 
4241.000000	65.065455 
4240.000000	65.024924 
4239.000000	64.985322 
4238.000000	64.949011 
4237.000000	64.917993 
4236.000000	64.893722 
4235.000000	64.877057 
4234.000000	64.868283 
4233.000000	64.867353 
4232.000000	64.873790 
4231.000000	64.886832 
4230.000000	64.904904 
4229.000000	64.925432 
4228.000000	64.945435 
4227.000000	64.961814 
4226.000000	64.971423 
4225.000000	64.971446 
4224.000000	64.960694 
4223.000000	64.939904 
4222.000000	64.911437 
4221.000000	64.879179 
4220.000000	64.847731 
4219.000000	64.821863 
4218.000000	64.805364 
4217.000000	64.800930 
4216.000000	64.809489 
4215.000000	64.830589 
4214.000000	64.862728 
4213.000000	64.903759 
4212.000000	64.950847 
4211.000000	65.000844 
4210.000000	65.050768 
4209.000000	65.097570 
4208.000000	65.138554 
4207.000000	65.170717 
4206.000000	65.191674 
4205.000000	65.198087 
4204.000000	65.186667 
4203.000000	65.153932 
4202.000000	65.097832 
4201.000000	65.017747 
4200.000000	64.915585 
4199.000000	64.796161 
4198.000000	64.667344 
4197.000000	64.538908 
4196.000000	64.421629 
4195.000000	64.325284 
4194.000000	64.257836 
4193.000000	64.223384 
4192.000000	64.222860 
4191.000000	64.253306 
4190.000000	64.309716 
4189.000000	64.385533 
4188.000000	64.474081 
4187.000000	64.568948 
4186.000000	64.664506 
4185.000000	64.754581 
4184.000000	64.833831 
4183.000000	64.896559 
4182.000000	64.938926 
4181.000000	64.959335 
4180.000000	64.959383 
4179.000000	64.944219 
4178.000000	64.920902 
4177.000000	64.897632 
4176.000000	64.880919 
4175.000000	64.874911 
4174.000000	64.880013 
4173.000000	64.893746 
4172.000000	64.911556 
4171.000000	64.928889 
4170.000000	64.942646 
4169.000000	64.952325 
4168.000000	64.960122 
4167.000000	64.970159 
4166.000000	64.986824 
4165.000000	65.013432 
4164.000000	65.050911 
4163.000000	65.097546 
4162.000000	65.149402 
4161.000000	65.201091 
4160.000000	65.247821 
4159.000000	65.285611 
