PE IR       SPECTRUM    SPECTRUM    ASCII       PEDS        1.60        
  -1
C-1DEF~1.ASC
17/03/27
20:48:57.00
17/03/27
20:48:57.00
tln
$C-4040-8_t0077$<tbV0>[-13.0,2.6,8.0,0.0,27,1,0]
370.000000
64









2002,4.07    
MIRTGS : RIGHTBACK : INTERNAL 2
MIR : ON : INTERNAL 2
OPTKBR

0.200000
8
8.000000
FILLER
RATIO
SPECTRUM
UNLOCKED 256

DOUBLE
64
COMBINED
1
0
0


1.000000
RATIO


1
0
TRUE
51149
0
LEFT NOT FITTED RIGHT NOT FITTED 0
NONE
NONE
15600
12.000000
4.427000
51148
TRUE
1 0 8 72 0 0 0 0 

15798.010000






#HDR
-1
-1
#GR
CM-1
%T
0.00002384185791015625
0.0
5000.000000
-1.000000
4631
8
122.472262
19.185543
#DATA
5000.000000	64.672374  
4999.000000	64.714002  
4998.000000	64.765620  
4997.000000	64.820933  
4996.000000	64.871478  
4995.000000	64.908695  
4994.000000	64.925479  
4993.000000	64.917206  
4992.000000	64.883971  
4991.000000	64.830493  
4990.000000	64.765858  
4989.000000	64.701652  
4988.000000	64.649891  
4987.000000	64.620304  
4986.000000	64.619207  
4985.000000	64.648318  
4984.000000	64.705491  
4983.000000	64.785528  
4982.000000	64.882040  
4981.000000	64.988350  
4980.000000	65.098357  
4979.000000	65.206289  
4978.000000	65.306448  
4977.000000	65.392279  
4976.000000	65.457057  
4975.000000	65.493321  
4974.000000	65.494656  
4973.000000	65.456247  
4972.000000	65.377187  
4971.000000	65.260386  
4970.000000	65.114021  
4969.000000	64.949607  
4968.000000	64.781522  
4967.000000	64.624118  
4966.000000	64.489507  
4965.000000	64.386248  
4964.000000	64.318466  
4963.000000	64.285993  
4962.000000	64.284539  
4961.000000	64.307975  
4960.000000	64.349198  
4959.000000	64.402222  
4958.000000	64.462351  
4957.000000	64.526844  
4956.000000	64.593720  
4955.000000	64.661478  
4954.000000	64.727449  
4953.000000	64.786982  
4952.000000	64.833545  
4951.000000	64.859437  
4950.000000	64.857602  
4949.000000	64.824390  
4948.000000	64.760541  
4947.000000	64.672350  
4946.000000	64.569807  
4945.000000	64.465165  
4944.000000	64.369249  
4943.000000	64.289808  
4942.000000	64.229416  
4941.000000	64.185404  
4940.000000	64.151763  
4939.000000	64.121246  
4938.000000	64.088940  
4937.000000	64.052915  
4936.000000	64.016938  
4935.000000	63.988757  
4934.000000	63.978695  
4933.000000	63.995361  
4932.000000	64.044213  
4931.000000	64.124798  
4930.000000	64.230823  
4929.000000	64.350819  
4928.000000	64.470458  
4927.000000	64.575242  
4926.000000	64.653658  
4925.000000	64.699363  
4924.000000	64.711260  
4923.000000	64.694046  
4922.000000	64.656925  
4921.000000	64.611434  
4920.000000	64.569091  
4919.000000	64.538717  
4918.000000	64.526343  
4917.000000	64.532899  
4916.000000	64.555835  
4915.000000	64.588880  
4914.000000	64.623689  
4913.000000	64.652466  
4912.000000	64.670085  
4911.000000	64.675688  
4910.000000	64.671802  
4909.000000	64.665007  
4908.000000	64.663815  
4907.000000	64.675807  
4906.000000	64.704966  
4905.000000	64.750266  
4904.000000	64.805412  
4903.000000	64.860558  
4902.000000	64.904642  
4901.000000	64.928507  
4900.000000	64.926767  
4899.000000	64.899897  
4898.000000	64.852833  
4897.000000	64.792704  
4896.000000	64.726161  
4895.000000	64.657068  
4894.000000	64.586043  
4893.000000	64.509463  
4892.000000	64.423537  
4891.000000	64.326548  
4890.000000	64.222931  
4889.000000	64.123249  
4888.000000	64.044260  
4887.000000	64.004063  
4886.000000	64.018869  
4885.000000	64.097023  
4884.000000	64.237141  
4883.000000	64.426779  
4882.000000	64.644813  
4881.000000	64.865207  
4880.000000	65.062451  
4879.000000	65.216898  
4878.000000	65.317249  
4877.000000	65.361666  
4876.000000	65.356135  
4875.000000	65.311431  
4874.000000	65.239524  
4873.000000	65.150451  
4872.000000	65.051102  
4871.000000	64.944648  
4870.000000	64.832997  
4869.000000	64.717745  
4868.000000	64.602136  
4867.000000	64.491772  
4866.000000	64.394116  
4865.000000	64.318108  
4864.000000	64.270758  
4863.000000	64.257168  
4862.000000	64.278125  
4861.000000	64.330267  
4860.000000	64.405775  
4859.000000	64.494156  
4858.000000	64.583611  
4857.000000	64.663290  
4856.000000	64.724469  
4855.000000	64.761924  
4854.000000	64.774036  
4853.000000	64.762425  
4852.000000	64.731121  
4851.000000	64.685320  
4850.000000	64.630341  
4849.000000	64.571309  
4848.000000	64.513063  
4847.000000	64.459180  
4846.000000	64.412355  
4845.000000	64.374542  
4844.000000	64.347267  
4843.000000	64.331674  
4842.000000	64.328861  
4841.000000	64.338994  
4840.000000	64.362072  
4839.000000	64.397525  
4838.000000	64.444398  
4837.000000	64.500117  
4836.000000	64.561295  
4835.000000	64.623832  
4834.000000	64.683389  
4833.000000	64.735555  
4832.000000	64.776921  
4831.000000	64.805531  
4830.000000	64.821529  
4829.000000	64.827346  
4828.000000	64.826846  
4827.000000	64.824485  
4826.000000	64.824104  
4825.000000	64.828467  
4824.000000	64.837861  
4823.000000	64.850544  
4822.000000	64.863419  
4821.000000	64.873170  
4820.000000	64.877414  
4819.000000	64.875531  
4818.000000	64.868545  
4817.000000	64.859318  
4816.000000	64.851593  
4815.000000	64.849305  
4814.000000	64.855647  
4813.000000	64.872360  
4812.000000	64.899897  
4811.000000	64.936971  
4810.000000	64.981341  
4809.000000	65.029358  
4808.000000	65.077257  
4807.000000	65.120530  
4806.000000	65.154623  
4805.000000	65.175199  
4804.000000	65.178894  
4803.000000	65.164017  
4802.000000	65.131354  
4801.000000	65.083909  
4800.000000	65.026926  
4799.000000	64.966106  
4798.000000	64.906954  
4797.000000	64.853167  
4796.000000	64.806437  
4795.000000	64.766526  
4794.000000	64.732170  
4793.000000	64.701819  
4792.000000	64.674830  
4791.000000	64.651656  
4790.000000	64.634251  
4789.000000	64.624428  
4788.000000	64.623880  
4787.000000	64.632582  
4786.000000	64.649534  
4785.000000	64.671945  
4784.000000	64.696884  
4783.000000	64.721822  
4782.000000	64.745616  
4781.000000	64.768934  
4780.000000	64.793372  
4779.000000	64.820480  
4778.000000	64.851117  
4777.000000	64.884305  
4776.000000	64.917588  
4775.000000	64.947414  
4774.000000	64.970231  
4773.000000	64.983749  
4772.000000	64.987206  
4771.000000	64.981961  
4770.000000	64.970612  
4769.000000	64.956307  
4768.000000	64.941549  
4767.000000	64.927434  
4766.000000	64.913916  
4765.000000	64.900112  
4764.000000	64.884901  
4763.000000	64.867830  
4762.000000	64.849901  
4761.000000	64.833521  
4760.000000	64.821481  
4759.000000	64.816665  
4758.000000	64.820289  
4757.000000	64.832758  
4756.000000	64.853405  
4755.000000	64.881062  
4754.000000	64.914417  
4753.000000	64.952635  
4752.000000	64.995312  
4751.000000	65.041971  
4750.000000	65.091466  
4749.000000	65.141654  
4748.000000	65.189361  
4747.000000	65.230464  
4746.000000	65.260958  
4745.000000	65.277266  
4744.000000	65.277481  
4743.000000	65.261840  
4742.000000	65.233159  
4741.000000	65.196394  
4740.000000	65.157794  
4739.000000	65.124034  
4738.000000	65.100860  
4737.000000	65.092802  
4736.000000	65.101766  
4735.000000	65.127158  
4734.000000	65.165185  
4733.000000	65.209889  
4732.000000	65.253806  
4731.000000	65.288639  
4730.000000	65.307307  
4729.000000	65.305423  
4728.000000	65.282535  
4727.000000	65.241909  
4726.000000	65.190386  
4725.000000	65.136647  
4724.000000	65.089964  
4723.000000	65.057754  
4722.000000	65.045118  
4721.000000	65.053629  
4720.000000	65.082192  
4719.000000	65.127372  
4718.000000	65.184855  
4717.000000	65.250229  
4716.000000	65.319633  
4715.000000	65.389776  
4714.000000	65.457081  
4713.000000	65.517377  
4712.000000	65.565490  
4711.000000	65.595555  
4710.000000	65.601754  
4709.000000	65.579032  
4708.000000	65.525698  
4707.000000	65.443420  
4706.000000	65.337562  
4705.000000	65.216422  
4704.000000	65.090322  
4703.000000	64.970111  
4702.000000	64.865231  
4701.000000	64.782786  
4700.000000	64.726352  
4699.000000	64.696335  
4698.000000	64.690327  
4697.000000	64.704322  
4696.000000	64.732480  
4695.000000	64.769840  
4694.000000	64.812231  
4693.000000	64.857482  
4692.000000	64.904189  
4691.000000	64.952683  
4690.000000	65.003895  
4689.000000	65.059113  
4688.000000	65.118741  
4687.000000	65.182614  
4686.000000	65.249681  
4685.000000	65.317916  
4684.000000	65.384793  
4683.000000	65.447878  
4682.000000	65.505242  
4681.000000	65.555834  
4680.000000	65.599250  
4679.000000	65.636157  
4678.000000	65.667176  
4677.000000	65.693521  
4676.000000	65.715193  
4675.000000	65.731453  
4674.000000	65.739703  
4673.000000	65.738010  
4672.000000	65.723490  
4671.000000	65.694046  
4670.000000	65.648245  
4669.000000	65.587019  
4668.000000	65.512895  
4667.000000	65.430068  
4666.000000	65.343785  
4665.000000	65.259671  
4664.000000	65.183281  
4663.000000	65.119719  
4662.000000	65.072727  
4661.000000	65.044093  
4660.000000	65.034127  
4659.000000	65.041732  
4658.000000	65.063738  
4657.000000	65.095472  
4656.000000	65.131115  
4655.000000	65.165019  
4654.000000	65.191316  
4653.000000	65.206074  
4652.000000	65.208053  
4651.000000	65.199160  
4650.000000	65.183925  
4649.000000	65.168428  
4648.000000	65.158820  
4647.000000	65.159416  
4646.000000	65.171980  
4645.000000	65.194940  
4644.000000	65.224099  
4643.000000	65.253496  
4642.000000	65.277695  
4641.000000	65.292215  
4640.000000	65.294837  
4639.000000	65.285539  
4638.000000	65.266251  
4637.000000	65.239596  
4636.000000	65.207815  
4635.000000	65.172386  
4634.000000	65.134072  
4633.000000	65.093064  
4632.000000	65.049481  
4631.000000	65.004301  
4630.000000	64.959502  
4629.000000	64.917469  
4628.000000	64.880871  
4627.000000	64.851284  
4626.000000	64.829754  
4625.000000	64.816713  
4624.000000	64.812541  
4623.000000	64.817452  
4622.000000	64.831972  
4621.000000	64.856791  
4620.000000	64.892172  
4619.000000	64.937114  
4618.000000	64.989233  
4617.000000	65.044617  
4616.000000	65.098404  
4615.000000	65.145134  
4614.000000	65.180134  
4613.000000	65.200448  
4612.000000	65.205311  
4611.000000	65.196204  
4610.000000	65.176367  
4609.000000	65.150284  
4608.000000	65.122437  
4607.000000	65.096426  
4606.000000	65.074157  
4605.000000	65.055608  
4604.000000	65.039682  
4603.000000	65.024733  
4602.000000	65.008902  
4601.000000	64.990901  
4600.000000	64.970374  
4599.000000	64.947986  
4598.000000	64.925217  
4597.000000	64.904046  
4596.000000	64.886093  
4595.000000	64.872264  
4594.000000	64.862704  
4593.000000	64.856362  
4592.000000	64.851474  
4591.000000	64.845156  
4590.000000	64.834427  
4589.000000	64.816308  
4588.000000	64.788222  
4587.000000	64.749097  
4586.000000	64.699506  
4585.000000	64.642357  
4584.000000	64.581847  
4583.000000	64.524197  
4582.000000	64.476346  
4581.000000	64.445209  
4580.000000	64.436197  
4579.000000	64.452648  
4578.000000	64.494919  
4577.000000	64.559841  
4576.000000	64.640736  
4575.000000	64.728355  
4574.000000	64.811873  
4573.000000	64.880442  
4572.000000	64.925074  
4571.000000	64.939260  
4570.000000	64.920735  
4569.000000	64.872097  
4568.000000	64.800238  
4567.000000	64.714980  
4566.000000	64.627027  
4565.000000	64.547276  
4564.000000	64.483523  
4563.000000	64.439535  
4562.000000	64.414572  
4561.000000	64.404416  
4560.000000	64.403128  
4559.000000	64.404964  
4558.000000	64.405965  
4557.000000	64.404869  
4556.000000	64.402985  
4555.000000	64.402914  
4554.000000	64.406538  
4553.000000	64.413332  
4552.000000	64.419388  
4551.000000	64.418172  
4550.000000	64.402103  
4549.000000	64.365434  
4548.000000	64.306831  
4547.000000	64.231467  
4546.000000	64.150643  
4545.000000	64.080190  
4544.000000	64.036941  
4543.000000	64.035153  
4542.000000	64.081907  
4541.000000	64.176034  
4540.000000	64.308214  
4539.000000	64.463067  
4538.000000	64.622330  
4537.000000	64.768600  
4536.000000	64.888644  
4535.000000	64.974784  
4534.000000	65.025377  
4533.000000	65.042901  
4532.000000	65.031981  
4531.000000	64.997529  
4530.000000	64.943909  
4529.000000	64.874291  
4528.000000	64.791941  
4527.000000	64.700460  
4526.000000	64.605307  
4525.000000	64.512658  
4524.000000	64.429545  
4523.000000	64.361834  
4522.000000	64.313483  
4521.000000	64.285492  
4520.000000	64.276003  
4519.000000	64.280843  
4518.000000	64.294505  
4517.000000	64.311671  
4516.000000	64.327740  
4515.000000	64.339041  
4514.000000	64.342927  
4513.000000	64.336991  
4512.000000	64.319586  
4511.000000	64.288759  
4510.000000	64.244103  
4509.000000	64.187407  
4508.000000	64.122629  
4507.000000	64.055943  
4506.000000	63.994073  
4505.000000	63.943481  
4504.000000	63.908147  
4503.000000	63.888359  
4502.000000	63.881254  
4501.000000	63.881754  
4500.000000	63.884615  
4499.000000	63.886141  
4498.000000	63.885259  
4497.000000	63.883709  
4496.000000	63.885164  
4495.000000	63.893628  
4494.000000	63.911414  
4493.000000	63.937902  
4492.000000	63.969349  
4491.000000	63.999438  
4490.000000	64.021086  
4489.000000	64.027619  
4488.000000	64.015507  
4487.000000	63.984036  
4486.000000	63.935351  
4485.000000	63.873672  
4484.000000	63.803577  
4483.000000	63.730072  
4482.000000	63.657093  
4481.000000	63.588643  
4480.000000	63.528943  
4479.000000	63.482618  
4478.000000	63.454389  
4477.000000	63.448166  
4476.000000	63.466286  
4475.000000	63.507747  
4474.000000	63.567566  
4473.000000	63.636970  
4472.000000	63.704299  
4471.000000	63.757491  
4470.000000	63.786458  
4469.000000	63.785290  
4468.000000	63.753604  
4467.000000	63.696527  
4466.000000	63.623356  
4465.000000	63.545322  
4464.000000	63.473367  
4463.000000	63.415932  
4462.000000	63.377904  
4461.000000	63.360548  
4460.000000	63.362312  
4459.000000	63.380217  
4458.000000	63.411307  
4457.000000	63.453292  
4456.000000	63.505029  
4455.000000	63.565468  
4454.000000	63.633131  
4453.000000	63.705062  
4452.000000	63.776636  
4451.000000	63.841795  
4450.000000	63.893771  
4449.000000	63.926911  
4448.000000	63.936543  
4447.000000	63.920640  
4446.000000	63.879728  
4445.000000	63.817334  
4444.000000	63.739848  
4443.000000	63.656067  
4442.000000	63.575291  
4441.000000	63.505673  
4440.000000	63.452959  
4439.000000	63.419699  
4438.000000	63.403153  
4437.000000	63.397669  
4436.000000	63.397407  
4435.000000	63.398337  
4434.000000	63.399100  
4433.000000	63.401126  
4432.000000	63.407468  
4431.000000	63.421320  
4430.000000	63.442826  
4429.000000	63.469886  
4428.000000	63.498973  
4427.000000	63.525152  
4426.000000	63.543391  
4425.000000	63.549208  
4424.000000	63.541293  
4423.000000	63.519096  
4422.000000	63.481640  
4421.000000	63.430166  
4420.000000	63.366889  
4419.000000	63.298583  
4418.000000	63.240218  
4417.000000	63.191246  
4416.000000	63.130497  
4415.000000	63.051581  
4414.000000	62.965011  
4413.000000	62.859654  
4412.000000	62.713193  
4411.000000	62.520956  
4410.000000	62.290549  
4409.000000	62.049031  
4408.000000	61.830520  
4407.000000	61.637163  
4406.000000	61.460733  
4405.000000	61.297798  
4404.000000	61.146950  
4403.000000	61.036682  
4402.000000	60.983824  
4401.000000	60.990405  
4400.000000	61.025977  
4399.000000	60.983490  
4398.000000	60.773324  
4397.000000	60.365939  
4396.000000	59.799790  
4395.000000	59.202384  
4394.000000	58.713006  
4393.000000	58.413887  
4392.000000	58.408594  
4391.000000	58.758497  
4390.000000	59.811139  
4389.000000	62.114787  
4388.000000	66.398167  
4387.000000	73.275423  
4386.000000	82.748246  
4385.000000	94.075202  
4384.000000	105.621194 
4383.000000	115.313410 
4382.000000	121.317052 
4381.000000	122.472262 
4380.000000	118.928456 
4379.000000	111.822080 
4378.000000	102.907800 
4377.000000	94.020771  
4376.000000	86.373853  
4375.000000	80.521774  
4374.000000	76.406025  
4373.000000	73.512387  
4372.000000	71.466803  
4371.000000	69.902324  
4370.000000	68.687963  
4369.000000	67.791604  
4368.000000	67.097568  
4367.000000	66.544938  
4366.000000	66.012358  
4365.000000	65.450453  
4364.000000	64.869046  
4363.000000	64.323425  
4362.000000	63.891386  
4361.000000	63.612580  
4360.000000	63.470911  
4359.000000	63.435864  
4358.000000	63.466358  
4357.000000	63.528227  
4356.000000	63.600134  
4355.000000	63.670635  
4354.000000	63.741445  
4353.000000	63.793015  
4352.000000	63.808846  
4351.000000	63.806796  
4350.000000	63.813447  
4349.000000	63.846349  
4348.000000	63.914227  
4347.000000	63.999605  
4346.000000	64.078116  
4345.000000	64.149451  
4344.000000	64.210367  
4343.000000	64.240431  
4342.000000	64.228796  
4341.000000	64.185285  
4340.000000	64.122509  
4339.000000	64.050245  
4338.000000	63.979125  
4337.000000	63.918685  
4336.000000	63.873529  
4335.000000	63.843178  
4334.000000	63.827204  
4333.000000	63.826179  
4332.000000	63.839411  
4331.000000	63.865518  
4330.000000	63.902568  
4329.000000	63.947939  
4328.000000	63.996767  
4327.000000	64.043307  
4326.000000	64.081931  
4325.000000	64.108300  
4324.000000	64.120364  
4323.000000	64.118671  
4322.000000	64.105939  
4321.000000	64.086699  
4320.000000	64.066433  
4319.000000	64.050412  
4318.000000	64.042496  
4317.000000	64.044451  
4316.000000	64.056253  
4315.000000	64.076113  
4314.000000	64.101243  
4313.000000	64.128971  
4312.000000	64.157342  
4311.000000	64.185285  
4310.000000	64.212274  
4309.000000	64.237761  
4308.000000	64.260888  
4307.000000	64.280176  
4306.000000	64.293599  
4305.000000	64.299130  
4304.000000	64.295101  
4303.000000	64.281415  
4302.000000	64.259672  
4301.000000	64.232897  
4300.000000	64.205002  
4299.000000	64.180278  
4298.000000	64.162397  
4297.000000	64.153957  
4296.000000	64.155793  
4295.000000	64.166951  
4294.000000	64.184498  
4293.000000	64.204168  
4292.000000	64.221000  
4291.000000	64.230155  
4290.000000	64.228534  
4289.000000	64.215540  
4288.000000	64.193320  
4287.000000	64.166212  
4286.000000	64.139771  
4285.000000	64.119172  
4284.000000	64.107728  
4283.000000	64.105939  
4282.000000	64.111661  
4281.000000	64.121031  
4280.000000	64.129734  
4279.000000	64.134335  
4278.000000	64.133477  
4277.000000	64.128279  
4276.000000	64.121961  
4275.000000	64.118933  
4274.000000	64.122748  
4273.000000	64.135456  
4272.000000	64.156651  
4271.000000	64.183521  
4270.000000	64.211678  
4269.000000	64.236283  
4268.000000	64.253997  
4267.000000	64.262914  
4266.000000	64.263057  
4265.000000	64.255642  
4264.000000	64.242696  
4263.000000	64.225912  
4262.000000	64.206004  
4261.000000	64.182519  
4260.000000	64.154481  
4259.000000	64.120674  
4258.000000	64.080524  
4257.000000	64.035010  
4256.000000	63.987040  
4255.000000	63.941335  
4254.000000	63.903760  
4253.000000	63.880324  
4252.000000	63.875937  
4251.000000	63.893413  
4250.000000	63.932824  
4249.000000	63.990974  
4248.000000	64.062380  
4247.000000	64.140081  
4246.000000	64.217281  
4245.000000	64.288115  
4244.000000	64.349174  
4243.000000	64.399552  
4242.000000	64.440941  
4241.000000	64.476585  
4240.000000	64.509820  
4239.000000	64.543128  
4238.000000	64.576959  
4237.000000	64.610195  
4236.000000	64.639973  
4235.000000	64.663338  
4234.000000	64.677929  
4233.000000	64.683651  
4232.000000	64.681935  
4231.000000	64.675712  
4230.000000	64.668226  
4229.000000	64.662241  
4228.000000	64.659047  
4227.000000	64.658069  
4226.000000	64.657068  
4225.000000	64.652943  
4224.000000	64.642667  
4223.000000	64.624452  
4222.000000	64.598298  
4221.000000	64.566111  
4220.000000	64.531278  
4219.000000	64.497566  
4218.000000	64.468312  
4217.000000	64.445710  
4216.000000	64.430069  
4215.000000	64.420676  
4214.000000	64.415335  
4213.000000	64.412331  
4212.000000	64.410638  
4211.000000	64.411211  
4210.000000	64.416170  
4209.000000	64.428853  
4208.000000	64.452600  
4207.000000	64.489579  
4206.000000	64.539718  
4205.000000	64.599823  
4204.000000	64.663791  
4203.000000	64.723205  
4202.000000	64.769101  
4201.000000	64.793658  
4200.000000	64.792490  
4199.000000	64.765357  
4198.000000	64.716792  
4197.000000	64.655303  
4196.000000	64.592003  
4195.000000	64.538335  
4194.000000	64.503741  
