PE IR       SPECTRUM    SPECTRUM    ASCII       PEDS        1.60        
  -1
C-9CE0~1.ASC
17/03/27
20:12:02.00
17/03/27
20:12:02.00
tln
$C-4040-8_t0069$<tbV0>[7.8,2.6,8.0,0.0,27,1,0]
370.000000
64









2002,4.07    
MIRTGS : RIGHTBACK : INTERNAL 2
MIR : ON : INTERNAL 2
OPTKBR

0.200000
8
8.000000
FILLER
RATIO
SPECTRUM
UNLOCKED 256

DOUBLE
64
COMBINED
1
0
0


1.000000
RATIO


1
0
TRUE
51149
0
LEFT NOT FITTED RIGHT NOT FITTED 0
NONE
NONE
15600
12.000000
4.427000
51148
TRUE
1 0 8 72 0 0 0 0 

15798.010000






#HDR
-1
-1
#GR
CM-1
%T
0.00002384185791015625
0.0
5000.000000
-1.000000
4631
8
82.117843
48.128032
#DATA
5000.000000	65.188717 
4999.000000	65.214920 
4998.000000	65.232086 
4997.000000	65.242409 
4996.000000	65.247726 
4995.000000	65.249204 
4994.000000	65.247344 
4993.000000	65.241932 
4992.000000	65.233182 
4991.000000	65.222311 
4990.000000	65.212082 
4989.000000	65.206956 
4988.000000	65.211367 
4987.000000	65.228390 
4986.000000	65.258359 
4985.000000	65.298581 
4984.000000	65.342736 
4983.000000	65.382075 
4982.000000	65.407395 
4981.000000	65.411090 
4980.000000	65.388607 
4979.000000	65.339255 
4978.000000	65.266442 
4977.000000	65.176701 
4976.000000	65.078258 
4975.000000	64.978861 
4974.000000	64.884495 
4973.000000	64.797949 
4972.000000	64.719915 
4971.000000	64.648699 
4970.000000	64.581513 
4969.000000	64.516353 
4968.000000	64.452314 
4967.000000	64.391493 
4966.000000	64.336895 
4965.000000	64.294362 
4964.000000	64.269852 
4963.000000	64.269709 
4962.000000	64.297676 
4961.000000	64.355134 
4960.000000	64.439535 
4959.000000	64.545249 
4958.000000	64.664030 
4957.000000	64.786696 
4956.000000	64.904522 
4955.000000	65.010666 
4954.000000	65.100669 
4953.000000	65.172076 
4952.000000	65.223598 
4951.000000	65.254950 
4950.000000	65.265560 
4949.000000	65.254974 
4948.000000	65.222477 
4947.000000	65.169191 
4946.000000	65.097784 
4945.000000	65.013360 
4944.000000	64.922690 
4943.000000	64.834666 
4942.000000	64.757561 
4941.000000	64.697432 
4940.000000	64.657211 
4939.000000	64.636230 
4938.000000	64.631056 
4937.000000	64.636373 
4936.000000	64.647054 
4935.000000	64.659261 
4934.000000	64.671421 
4933.000000	64.683389 
4932.000000	64.696431 
4931.000000	64.711785 
4930.000000	64.730334 
4929.000000	64.752006 
4928.000000	64.775609 
4927.000000	64.799141 
4926.000000	64.820981 
4925.000000	64.840054 
4924.000000	64.855861 
4923.000000	64.868450 
4922.000000	64.878654 
4921.000000	64.887619 
4920.000000	64.895963 
4919.000000	64.904093 
4918.000000	64.912629 
4917.000000	64.922118 
4916.000000	64.933705 
4915.000000	64.948344 
4914.000000	64.966058 
4913.000000	64.986634 
4912.000000	65.009903 
4911.000000	65.035414 
4910.000000	65.061521 
4909.000000	65.087294 
4908.000000	65.113210 
4907.000000	65.139913 
4906.000000	65.167522 
4905.000000	65.195703 
4904.000000	65.223240 
4903.000000	65.248131 
4902.000000	65.268182 
4901.000000	65.281033 
4900.000000	65.284752 
4899.000000	65.278959 
4898.000000	65.264391 
4897.000000	65.242433 
4896.000000	65.214085 
4895.000000	65.179657 
4894.000000	65.139031 
4893.000000	65.090084 
4892.000000	65.031862 
4891.000000	64.964938 
4890.000000	64.895129 
4889.000000	64.831089 
4888.000000	64.787411 
4887.000000	64.780211 
4886.000000	64.826536 
4885.000000	64.938473 
4884.000000	65.120983 
4883.000000	65.369272 
4882.000000	65.667676 
4881.000000	65.991401 
4880.000000	66.309380 
4879.000000	66.589999 
4878.000000	66.804981 
4877.000000	66.934633 
4876.000000	66.969990 
4875.000000	66.913771 
4874.000000	66.779184 
4873.000000	66.586422 
4872.000000	66.358828 
4871.000000	66.117811 
4870.000000	65.881609 
4869.000000	65.662026 
4868.000000	65.465044 
4867.000000	65.291500 
4866.000000	65.139746 
4865.000000	65.008449 
4864.000000	64.897537 
4863.000000	64.810228 
4862.000000	64.750194 
4861.000000	64.722371 
4860.000000	64.728665 
4859.000000	64.767932 
4858.000000	64.832806 
4857.000000	64.911699 
4856.000000	64.989709 
4855.000000	65.051507 
4854.000000	65.083956 
4853.000000	65.079092 
4852.000000	65.035533 
4851.000000	64.958477 
4850.000000	64.858198 
4849.000000	64.748930 
4848.000000	64.646196 
4847.000000	64.563488 
4846.000000	64.510130 
4845.000000	64.491057 
4844.000000	64.506554 
4843.000000	64.552974 
4842.000000	64.623832 
4841.000000	64.710330 
4840.000000	64.803242 
4839.000000	64.894104 
4838.000000	64.976477 
4837.000000	65.044856 
4836.000000	65.095829 
4835.000000	65.128397 
4834.000000	65.143013 
4833.000000	65.141081 
4832.000000	65.124845 
4831.000000	65.097618 
4830.000000	65.063357 
4829.000000	65.027070 
4828.000000	64.993858 
4827.000000	64.969229 
4826.000000	64.957070 
4825.000000	64.959597 
4824.000000	64.975810 
4823.000000	65.001845 
4822.000000	65.031671 
4821.000000	65.058684 
4820.000000	65.077137 
4819.000000	65.083551 
4818.000000	65.077686 
4817.000000	65.062642 
4816.000000	65.044188 
4815.000000	65.029191 
4814.000000	65.023207 
4813.000000	65.028786 
4812.000000	65.045237 
4811.000000	65.068268 
4810.000000	65.091919 
4809.000000	65.109610 
4808.000000	65.116143 
4807.000000	65.108299 
4806.000000	65.085935 
4805.000000	65.051484 
4804.000000	65.008807 
4803.000000	64.962983 
4802.000000	64.918923 
4801.000000	64.880728 
4800.000000	64.851355 
4799.000000	64.831304 
4798.000000	64.819073 
4797.000000	64.811062 
4796.000000	64.802837 
4795.000000	64.789986 
4794.000000	64.769864 
4793.000000	64.742541 
4792.000000	64.711260 
4791.000000	64.681959 
4790.000000	64.662075 
4789.000000	64.658641 
4788.000000	64.676284 
4787.000000	64.715576 
4786.000000	64.772534 
4785.000000	64.838790 
4784.000000	64.903593 
4783.000000	64.955949 
4782.000000	64.987611 
4781.000000	64.994931 
4780.000000	64.979624 
4779.000000	64.948153 
4778.000000	64.909815 
4777.000000	64.874720 
4776.000000	64.850902 
4775.000000	64.842748 
4774.000000	64.849877 
4773.000000	64.868140 
4772.000000	64.890527 
4771.000000	64.909410 
4770.000000	64.918637 
4769.000000	64.915466 
4768.000000	64.900922 
4767.000000	64.879298 
4766.000000	64.857149 
4765.000000	64.840936 
4764.000000	64.835691 
4763.000000	64.843225 
4762.000000	64.861822 
4761.000000	64.886593 
4760.000000	64.910960 
4759.000000	64.928483 
4758.000000	64.934611 
4757.000000	64.928364 
4756.000000	64.912581 
4755.000000	64.893460 
4754.000000	64.878416 
4753.000000	64.874505 
4752.000000	64.886498 
4751.000000	64.915227 
4750.000000	64.957475 
4749.000000	65.006756 
4748.000000	65.055441 
4747.000000	65.096664 
4746.000000	65.126276 
4745.000000	65.143680 
4744.000000	65.151715 
4743.000000	65.155315 
4742.000000	65.159773 
4741.000000	65.168261 
4740.000000	65.180897 
4739.000000	65.194606 
4738.000000	65.204238 
4737.000000	65.204811 
4736.000000	65.193128 
4735.000000	65.169501 
4734.000000	65.137815 
4733.000000	65.104484 
4732.000000	65.076446 
4731.000000	65.058803 
4730.000000	65.053534 
4729.000000	65.058660 
4728.000000	65.069293 
4727.000000	65.078997 
4726.000000	65.081977 
4725.000000	65.075254 
4724.000000	65.058875 
4723.000000	65.035963 
4722.000000	65.011215 
4721.000000	64.988708 
4720.000000	64.971065 
4719.000000	64.958143 
4718.000000	64.948368 
4717.000000	64.939403 
4716.000000	64.930033 
4715.000000	64.921236 
4714.000000	64.915657 
4713.000000	64.917039 
4712.000000	64.928436 
4711.000000	64.950799 
4710.000000	64.981770 
4709.000000	65.015959 
4708.000000	65.046119 
4707.000000	65.064930 
4706.000000	65.067386 
4705.000000	65.051770 
4704.000000	65.020442 
4703.000000	64.978647 
4702.000000	64.933013 
4701.000000	64.889788 
4700.000000	64.852929 
4699.000000	64.824056 
4698.000000	64.802026 
4697.000000	64.784669 
4696.000000	64.769983 
4695.000000	64.757609 
4694.000000	64.749026 
4693.000000	64.747738 
4692.000000	64.757132 
4691.000000	64.780616 
4690.000000	64.819836 
4689.000000	64.874434 
4688.000000	64.941501 
4687.000000	65.016579 
4686.000000	65.094232 
4685.000000	65.169048 
4684.000000	65.236234 
4683.000000	65.291810 
4682.000000	65.332603 
4681.000000	65.356516 
4680.000000	65.362572 
4679.000000	65.350961 
4678.000000	65.323376 
4677.000000	65.283679 
4676.000000	65.237450 
4675.000000	65.192246 
4674.000000	65.155529 
4673.000000	65.134096 
4672.000000	65.131950 
4671.000000	65.149807 
4670.000000	65.184092 
4669.000000	65.227913 
4668.000000	65.272116 
4667.000000	65.306949 
4666.000000	65.324354 
4665.000000	65.319728 
4664.000000	65.292382 
4663.000000	65.245485 
4662.000000	65.185284 
4661.000000	65.119600 
4660.000000	65.056872 
4659.000000	65.004611 
4658.000000	64.968585 
4657.000000	64.951968 
4656.000000	64.955806 
4655.000000	64.978909 
4654.000000	65.017986 
4653.000000	65.067887 
4652.000000	65.122628 
4651.000000	65.175652 
4650.000000	65.220093 
4649.000000	65.249681 
4648.000000	65.259718 
4647.000000	65.247726 
4646.000000	65.213775 
4645.000000	65.161085 
4644.000000	65.095138 
4643.000000	65.023851 
4642.000000	64.956426 
4641.000000	64.902257 
4640.000000	64.869356 
4639.000000	64.863181 
4638.000000	64.885783 
4637.000000	64.934992 
4636.000000	65.004634 
4635.000000	65.085005 
4634.000000	65.164542 
4633.000000	65.231966 
4632.000000	65.278387 
4631.000000	65.298819 
4630.000000	65.292716 
4629.000000	65.263843 
4628.000000	65.218663 
4627.000000	65.165114 
4626.000000	65.110206 
4625.000000	65.058684 
4624.000000	65.012216 
4623.000000	64.970326 
4622.000000	64.931344 
4621.000000	64.893651 
4620.000000	64.857530 
4619.000000	64.825487 
4618.000000	64.802527 
4617.000000	64.794301 
4616.000000	64.805984 
4615.000000	64.839768 
4614.000000	64.894342 
4613.000000	64.964413 
4612.000000	65.041399 
4611.000000	65.115213 
4610.000000	65.175986 
4609.000000	65.216302 
4608.000000	65.231990 
4607.000000	65.223050 
4606.000000	65.192627 
4605.000000	65.146017 
4604.000000	65.088915 
4603.000000	65.026569 
4602.000000	64.963150 
4601.000000	64.902162 
4600.000000	64.846611 
4599.000000	64.799857 
4598.000000	64.766311 
4597.000000	64.751458 
4596.000000	64.760661 
4595.000000	64.798021 
4594.000000	64.864635 
4593.000000	64.957189 
4592.000000	65.068054 
4591.000000	65.185213 
4590.000000	65.294098 
4589.000000	65.379977 
4588.000000	65.430855 
4587.000000	65.440058 
4586.000000	65.407443 
4585.000000	65.339660 
4584.000000	65.248656 
4583.000000	65.149068 
4582.000000	65.055370 
4581.000000	64.978957 
4580.000000	64.926385 
4579.000000	64.898347 
4578.000000	64.890742 
4577.000000	64.896178 
4576.000000	64.906477 
4575.000000	64.914560 
4574.000000	64.916181 
4573.000000	64.910197 
4572.000000	64.898467 
4571.000000	64.883875 
4570.000000	64.869952 
4569.000000	64.859366 
4568.000000	64.853739 
4567.000000	64.853811 
4566.000000	64.859366 
4565.000000	64.870095 
4564.000000	64.884901 
4563.000000	64.902687 
4562.000000	64.921307 
4561.000000	64.937210 
4560.000000	64.946484 
4559.000000	64.945030 
4558.000000	64.930486 
4557.000000	64.902520 
4556.000000	64.864516 
4555.000000	64.823174 
4554.000000	64.787411 
4553.000000	64.766407 
4552.000000	64.766836 
4551.000000	64.790940 
4550.000000	64.835834 
4549.000000	64.894175 
4548.000000	64.956068 
4547.000000	65.011692 
4546.000000	65.054178 
4545.000000	65.080976 
4544.000000	65.094494 
4543.000000	65.100002 
4542.000000	65.103697 
4541.000000	65.109610 
4540.000000	65.118432 
4539.000000	65.126681 
4538.000000	65.128064 
4537.000000	65.115833 
4536.000000	65.085816 
4535.000000	65.038061 
4534.000000	64.978361 
4533.000000	64.916443 
4532.000000	64.863872 
4531.000000	64.830827 
4530.000000	64.823293 
4529.000000	64.841723 
4528.000000	64.881014 
4527.000000	64.932298 
4526.000000	64.985394 
4525.000000	65.031599 
4524.000000	65.065598 
4523.000000	65.086126 
4522.000000	65.095520 
4521.000000	65.098023 
4520.000000	65.097761 
4519.000000	65.097308 
4518.000000	65.096402 
4517.000000	65.092635 
4516.000000	65.081357 
4515.000000	65.058565 
4514.000000	65.021252 
4513.000000	64.969158 
4512.000000	64.904952 
4511.000000	64.833450 
4510.000000	64.761638 
4509.000000	64.697146 
4508.000000	64.647436 
4507.000000	64.618158 
4506.000000	64.612722 
4505.000000	64.631700 
4504.000000	64.672589 
4503.000000	64.730143 
4502.000000	64.797091 
4501.000000	64.865398 
4500.000000	64.927220 
4499.000000	64.976072 
4498.000000	65.007829 
4497.000000	65.021204 
4496.000000	65.017938 
4495.000000	65.002107 
4494.000000	64.980149 
4493.000000	64.959311 
4492.000000	64.946627 
4491.000000	64.947152 
4490.000000	64.963936 
4489.000000	64.996576 
4488.000000	65.041828 
4487.000000	65.093493 
4486.000000	65.143394 
4485.000000	65.182900 
4484.000000	65.204238 
4483.000000	65.202355 
4482.000000	65.176081 
4481.000000	65.128469 
4480.000000	65.066289 
4479.000000	64.998507 
4478.000000	64.934492 
4477.000000	64.881849 
4476.000000	64.845347 
4475.000000	64.825487 
4474.000000	64.819073 
4473.000000	64.820289 
4472.000000	64.822840 
4471.000000	64.820837 
4470.000000	64.810276 
4469.000000	64.789628 
4468.000000	64.759993 
4467.000000	64.723968 
4466.000000	64.684748 
4465.000000	64.645171 
4464.000000	64.607024 
4463.000000	64.571404 
4462.000000	64.538431 
4461.000000	64.508485 
4460.000000	64.481353 
4459.000000	64.456915 
4458.000000	64.434266 
4457.000000	64.411878 
4456.000000	64.387464 
4455.000000	64.358162 
4454.000000	64.321517 
4453.000000	64.275479 
4452.000000	64.220666 
4451.000000	64.159750 
4450.000000	64.099311 
4449.000000	64.047622 
4448.000000	64.015340 
4447.000000	64.012527 
4446.000000	64.047503 
4445.000000	64.124321 
4444.000000	64.241743 
4443.000000	64.392709 
4442.000000	64.564514 
4441.000000	64.740753 
4440.000000	64.904046 
4439.000000	65.039229 
4438.000000	65.134954 
4437.000000	65.186262 
4436.000000	65.195870 
4435.000000	65.172648 
4434.000000	65.130472 
4433.000000	65.083527 
4432.000000	65.043950 
4431.000000	65.018391 
4430.000000	65.008211 
4429.000000	65.009140 
4428.000000	65.014696 
4427.000000	65.017700 
4426.000000	65.015053 
4425.000000	65.005970 
4424.000000	64.991784 
4423.000000	64.975261 
4422.000000	64.958238 
4421.000000	64.942455 
4420.000000	64.929056 
4419.000000	64.918112 
4418.000000	64.909958 
4417.000000	64.899349 
4416.000000	64.875102 
4415.000000	64.831304 
4414.000000	64.768815 
4413.000000	64.683365 
4412.000000	64.569330 
4411.000000	64.425849 
4410.000000	64.256620 
4409.000000	64.078092 
4408.000000	63.911747 
4407.000000	63.765478 
4406.000000	63.642263 
4405.000000	63.540720 
4404.000000	63.461351 
4403.000000	63.413238 
4402.000000	63.408589 
4401.000000	63.461446 
4400.000000	63.579177 
4399.000000	63.745236 
4398.000000	63.936638 
4397.000000	64.134311 
4396.000000	64.316534 
4395.000000	64.472913 
4394.000000	64.579510 
4393.000000	64.589810 
4392.000000	64.485001 
4391.000000	64.267086 
4390.000000	64.088034 
4389.000000	64.213204 
4388.000000	64.998483 
4387.000000	66.757488 
4386.000000	69.542789 
4385.000000	73.089218 
4384.000000	76.754069 
4383.000000	79.712915 
4382.000000	81.241226 
4381.000000	80.903720 
4380.000000	78.807520 
4379.000000	75.471925 
4378.000000	71.657347 
4377.000000	68.141913 
4376.000000	65.408372 
4375.000000	63.641333 
4374.000000	62.734055 
4373.000000	62.384796 
4372.000000	62.343144 
4371.000000	62.392282 
4370.000000	62.448215 
4369.000000	62.511038 
4368.000000	62.578725 
4367.000000	62.682414 
4366.000000	62.816476 
4365.000000	62.977242 
4364.000000	63.151431 
4363.000000	63.321518 
4362.000000	63.471078 
4361.000000	63.582301 
4360.000000	63.641309 
4359.000000	63.652658 
4358.000000	63.636064 
4357.000000	63.620591 
4356.000000	63.634991 
4355.000000	63.692235 
4354.000000	63.790130 
4353.000000	63.908267 
4352.000000	64.020538 
4351.000000	64.116740 
4350.000000	64.197254 
4349.000000	64.272665 
4348.000000	64.358615 
4347.000000	64.461731 
4346.000000	64.583492 
4345.000000	64.724636 
4344.000000	64.876556 
4343.000000	65.018224 
4342.000000	65.129351 
4341.000000	65.200161 
4340.000000	65.228033 
4339.000000	65.219664 
4338.000000	65.186214 
4337.000000	65.139174 
4336.000000	65.090775 
4335.000000	65.051460 
4334.000000	65.030336 
4333.000000	65.033793 
4332.000000	65.064740 
4331.000000	65.122365 
4330.000000	65.200138 
4329.000000	65.288257 
4328.000000	65.376520 
4327.000000	65.456581 
4326.000000	65.523934 
4325.000000	65.577793 
4324.000000	65.620231 
4323.000000	65.654468 
4322.000000	65.682816 
4321.000000	65.705418 
4320.000000	65.721297 
4319.000000	65.727090 
4318.000000	65.719461 
4317.000000	65.694618 
4316.000000	65.651249 
4315.000000	65.589618 
4314.000000	65.512585 
4313.000000	65.425014 
4312.000000	65.333509 
4311.000000	65.244436 
4310.000000	65.162920 
4309.000000	65.092110 
4308.000000	65.033102 
4307.000000	64.984798 
4306.000000	64.944958 
4305.000000	64.911866 
4304.000000	64.885449 
4303.000000	64.867162 
4302.000000	64.860010 
4301.000000	64.867138 
4300.000000	64.891123 
4299.000000	64.931297 
4298.000000	64.984250 
4297.000000	65.044379 
4296.000000	65.104627 
4295.000000	65.157604 
4294.000000	65.196990 
4293.000000	65.218734 
4292.000000	65.221786 
4291.000000	65.207982 
4290.000000	65.181612 
4289.000000	65.147900 
4288.000000	65.112519 
4287.000000	65.080904 
4286.000000	65.056753 
4285.000000	65.041661 
4284.000000	65.035057 
4283.000000	65.035176 
4282.000000	65.038537 
4281.000000	65.040850 
4280.000000	65.038275 
4279.000000	65.028071 
4278.000000	65.008735 
4277.000000	64.979767 
4276.000000	64.942097 
4275.000000	64.896917 
4274.000000	64.844512 
4273.000000	64.784383 
4272.000000	64.714837 
4271.000000	64.635348 
4270.000000	64.547181 
4269.000000	64.455628 
4268.000000	64.368867 
4267.000000	64.298248 
4266.000000	64.255380 
4265.000000	64.250612 
4264.000000	64.288520 
4263.000000	64.368414 
4262.000000	64.483118 
4261.000000	64.620780 
4260.000000	64.766502 
4259.000000	64.905667 
4258.000000	65.026283 
4257.000000	65.120863 
4256.000000	65.186905 
4255.000000	65.226554 
4254.000000	65.245127 
4253.000000	65.249729 
4252.000000	65.247106 
4251.000000	65.242981 
4250.000000	65.240430 
4249.000000	65.241146 
4248.000000	65.244245 
4247.000000	65.247511 
4246.000000	65.247058 
4245.000000	65.238952 
4244.000000	65.219545 
4243.000000	65.186262 
4242.000000	65.138554 
4241.000000	65.078544 
4240.000000	65.010929 
4239.000000	64.941978 
4238.000000	64.878749 
4237.000000	64.828109 
4236.000000	64.794564 
4235.000000	64.779257 
4234.000000	64.779758 
4233.000000	64.790511 
4232.000000	64.804148 
4231.000000	64.813137 
4230.000000	64.811491 
4229.000000	64.795494 
4228.000000	64.765501 
4227.000000	64.725637 
4226.000000	64.681935 
4225.000000	64.640808 
4224.000000	64.608073 
4223.000000	64.587473 
4222.000000	64.580106 
4221.000000	64.584493 
4220.000000	64.597177 
4219.000000	64.614057 
4218.000000	64.631676 
4217.000000	64.648437 
4216.000000	64.663410 
4215.000000	64.678096 
4214.000000	64.694571 
4213.000000	64.716577 
4212.000000	64.747381 
4211.000000	64.789819 
4210.000000	64.845418 
4209.000000	64.913320 
4208.000000	64.990544 
4207.000000	65.071058 
4206.000000	65.147209 
4205.000000	65.209460 
4204.000000	65.248417 
4203.000000	65.256571 
4202.000000	65.230464 
4201.000000	65.171027 
4200.000000	65.083837 
4199.000000	64.978718 
4198.000000	64.868354 
4197.000000	64.765906 
4196.000000	64.683318 
4195.000000	64.629316 
4194.000000	64.609169 
4193.000000	64.624667 
4192.000000	64.674973 
4191.000000	64.757013 
4190.000000	64.865922 
4189.000000	64.995622 
4188.000000	65.137863 
4187.000000	65.281939 
4186.000000	65.414667 
4185.000000	65.521454 
4184.000000	65.588498 
4183.000000	65.604496 
4182.000000	65.565228 
4181.000000	65.474891 
4180.000000	65.347385 
4179.000000	65.204334 
4178.000000	65.071773 
4177.000000	64.975452 
4176.000000	64.934968 
4175.000000	64.959788 
4174.000000	65.046620 
4173.000000	65.180563 
4172.000000	65.337896 
4171.000000	65.491676 
4170.000000	65.616750 
4169.000000	65.695047 
4168.000000	65.718245 
4167.000000	65.688657 
4166.000000	65.616607 
4165.000000	65.517711 
4164.000000	65.408730 
4163.000000	65.303993 
4162.000000	65.213727 
4161.000000	65.142273 
4160.000000	65.090560 
4159.000000	65.055489 
