PE IR       SPECTRUM    SPECTRUM    ASCII       PEDS        1.60        
  -1
C-1BEF~1.ASC
17/03/27
17:30:04.00
17/03/27
17:30:04.00
tln
$C-4040-8_t0037$<tbV0>[5.2,-5.2,8.0,0.0,27,1,0]
370.000000
64









2002,4.07    
MIRTGS : RIGHTBACK : INTERNAL 2
MIR : ON : INTERNAL 2
OPTKBR

0.200000
8
8.000000
FILLER
RATIO
SPECTRUM
UNLOCKED 256

DOUBLE
64
COMBINED
1
0
0


1.000000
RATIO


1
0
TRUE
51149
0
LEFT NOT FITTED RIGHT NOT FITTED 0
NONE
NONE
15600
12.000000
4.427000
51148
TRUE
1 0 8 72 0 0 0 0 

15798.010000






#HDR
-1
-1
#GR
CM-1
%T
0.00002384185791015625
0.0
5000.000000
-1.000000
4631
8
65.117239
-5.736422
#DATA
5000.000000	63.031101 
4999.000000	63.054895 
4998.000000	63.081288 
4997.000000	63.106012 
4996.000000	63.125157 
4995.000000	63.136339 
4994.000000	63.137888 
4993.000000	63.129186 
4992.000000	63.109374 
4991.000000	63.077592 
4990.000000	63.032484 
4989.000000	62.972688 
4988.000000	62.898087 
4987.000000	62.810564 
4986.000000	62.715005 
4985.000000	62.619113 
4984.000000	62.532567 
4983.000000	62.465214 
4982.000000	62.424921 
4981.000000	62.415790 
4980.000000	62.437081 
4979.000000	62.483406 
4978.000000	62.545228 
4977.000000	62.611293 
4976.000000	62.670898 
4975.000000	62.716436 
4974.000000	62.744116 
4973.000000	62.754988 
4972.000000	62.753415 
4971.000000	62.745952 
4970.000000	62.739372 
4969.000000	62.739229 
4968.000000	62.749123 
4967.000000	62.769937 
4966.000000	62.800574 
4965.000000	62.838149 
4964.000000	62.879848 
4963.000000	62.922930 
4962.000000	62.965512 
4961.000000	63.006758 
4960.000000	63.046598 
4959.000000	63.085341 
4958.000000	63.123250 
4957.000000	63.159036 
4956.000000	63.189458 
4955.000000	63.209867 
4954.000000	63.215255 
4953.000000	63.200879 
4952.000000	63.164234 
4951.000000	63.106298 
4950.000000	63.032341 
4949.000000	62.951207 
4948.000000	62.873888 
4947.000000	62.812209 
4946.000000	62.775516 
4945.000000	62.769198 
4944.000000	62.792325 
4943.000000	62.838006 
4942.000000	62.894225 
4941.000000	62.946271 
4940.000000	62.980055 
4939.000000	62.984442 
4938.000000	62.954854 
4937.000000	62.893342 
4936.000000	62.809324 
4935.000000	62.716674 
4934.000000	62.631869 
4933.000000	62.569785 
4932.000000	62.540721 
4931.000000	62.548398 
4930.000000	62.588596 
4929.000000	62.650823 
4928.000000	62.720394 
4927.000000	62.782645 
4926.000000	62.826371 
4925.000000	62.846922 
4924.000000	62.846851 
4923.000000	62.835216 
4922.000000	62.824392 
4921.000000	62.826490 
4920.000000	62.849926 
4919.000000	62.896609 
4918.000000	62.961673 
4917.000000	63.034391 
4916.000000	63.102102 
4915.000000	63.152551 
4914.000000	63.177847 
4913.000000	63.175988 
4912.000000	63.151311 
4911.000000	63.112902 
4910.000000	63.071370 
4909.000000	63.036775 
4908.000000	63.015723 
4907.000000	63.010907 
4906.000000	63.020992 
4905.000000	63.042163 
4904.000000	63.070154 
4903.000000	63.101339 
4902.000000	63.133835 
4901.000000	63.167309 
4900.000000	63.202404 
4899.000000	63.239955 
4898.000000	63.280057 
4897.000000	63.321399 
4896.000000	63.360953 
4895.000000	63.395237 
4894.000000	63.420343 
4893.000000	63.433051 
4892.000000	63.431143 
4891.000000	63.414597 
4890.000000	63.385462 
4889.000000	63.346934 
4888.000000	63.304162 
4887.000000	63.263344 
4886.000000	63.231754 
4885.000000	63.215851 
4884.000000	63.221096 
4883.000000	63.251185 
4882.000000	63.306260 
4881.000000	63.382959 
4880.000000	63.473343 
4879.000000	63.566040 
4878.000000	63.647627 
4877.000000	63.705182 
4876.000000	63.728237 
4875.000000	63.710975 
4874.000000	63.653779 
4873.000000	63.563394 
4872.000000	63.451957 
4871.000000	63.334393 
4870.000000	63.225960 
4869.000000	63.138175 
4868.000000	63.077545 
4867.000000	63.043379 
4866.000000	63.029146 
4865.000000	63.023519 
4864.000000	63.013505 
4863.000000	62.987828 
4862.000000	62.938809 
4861.000000	62.865233 
4860.000000	62.770938 
4859.000000	62.666058 
4858.000000	62.562966 
4857.000000	62.475538 
4856.000000	62.415432 
4855.000000	62.390947 
4854.000000	62.405371 
4853.000000	62.456536 
4852.000000	62.537431 
4851.000000	62.637400 
4850.000000	62.743902 
4849.000000	62.844657 
4848.000000	62.929368 
4847.000000	62.990593 
4846.000000	63.024473 
4845.000000	63.031053 
4844.000000	63.013577 
4843.000000	62.977552 
4842.000000	62.929320 
4841.000000	62.875103 
4840.000000	62.820172 
4839.000000	62.769293 
4838.000000	62.726259 
4837.000000	62.694334 
4836.000000	62.676191 
4835.000000	62.674236 
4834.000000	62.690019 
4833.000000	62.723326 
4832.000000	62.771940 
4831.000000	62.831139 
4830.000000	62.895011 
4829.000000	62.957000 
4828.000000	63.011741 
4827.000000	63.055706 
4826.000000	63.087749 
4825.000000	63.108825 
4824.000000	63.121294 
4823.000000	63.127946 
4822.000000	63.130736 
4821.000000	63.130116 
4820.000000	63.124775 
4819.000000	63.112330 
4818.000000	63.090825 
4817.000000	63.059568 
4816.000000	63.019752 
4815.000000	62.974524 
4814.000000	62.929034 
4813.000000	62.888860 
4812.000000	62.858724 
4811.000000	62.841224 
4810.000000	62.836718 
4809.000000	62.842798 
4808.000000	62.855410 
4807.000000	62.869143 
4806.000000	62.878203 
4805.000000	62.877726 
4804.000000	62.864446 
4803.000000	62.837719 
4802.000000	62.799048 
4801.000000	62.752318 
4800.000000	62.702727 
4799.000000	62.655997 
4798.000000	62.616968 
4797.000000	62.588930 
4796.000000	62.572884 
4795.000000	62.567758 
4794.000000	62.570786 
4793.000000	62.578082 
4792.000000	62.585282 
4791.000000	62.588405 
4790.000000	62.584328 
4789.000000	62.570738 
4788.000000	62.546634 
4787.000000	62.511658 
4786.000000	62.466859 
4785.000000	62.414169 
4784.000000	62.357091 
4783.000000	62.300229 
4782.000000	62.249326 
4781.000000	62.210679 
4780.000000	62.189960 
4779.000000	62.190723 
4778.000000	62.214255 
4777.000000	62.258291 
4776.000000	62.318444 
4775.000000	62.388467 
4774.000000	62.461948 
4773.000000	62.533164 
4772.000000	62.597894 
4771.000000	62.653422 
4770.000000	62.698364 
4769.000000	62.732195 
4768.000000	62.754106 
4767.000000	62.762665 
4766.000000	62.756395 
4765.000000	62.734127 
4764.000000	62.695932 
4763.000000	62.643790 
4762.000000	62.581872 
4761.000000	62.516450 
4760.000000	62.454891 
4759.000000	62.404632 
4758.000000	62.371397 
4757.000000	62.358498 
4756.000000	62.366390 
4755.000000	62.392616 
4754.000000	62.432432 
4753.000000	62.479615 
4752.000000	62.527465 
4751.000000	62.570047 
4750.000000	62.602591 
4749.000000	62.622642 
4748.000000	62.629723 
4747.000000	62.626028 
4746.000000	62.615466 
4745.000000	62.603306 
4744.000000	62.594842 
4743.000000	62.594342 
4742.000000	62.604141 
4741.000000	62.623834 
4740.000000	62.650394 
4739.000000	62.678265 
4738.000000	62.700748 
4737.000000	62.711739 
4736.000000	62.707138 
4735.000000	62.685632 
4734.000000	62.649011 
4733.000000	62.601518 
4732.000000	62.548828 
4731.000000	62.496519 
4730.000000	62.448811 
4729.000000	62.407827 
4728.000000	62.373661 
4727.000000	62.345242 
4726.000000	62.321305 
4725.000000	62.300896 
4724.000000	62.284731 
4723.000000	62.274479 
4722.000000	62.273383 
4721.000000	62.284684 
4720.000000	62.311053 
4719.000000	62.352776 
4718.000000	62.407565 
4717.000000	62.470555 
4716.000000	62.534713 
4715.000000	62.592005 
4714.000000	62.634468 
4713.000000	62.655472 
4712.000000	62.650942 
4711.000000	62.620186 
4710.000000	62.565326 
4709.000000	62.491226 
4708.000000	62.404751 
4707.000000	62.313938 
4706.000000	62.226963 
4705.000000	62.150955 
4704.000000	62.091565 
4703.000000	62.052392 
4702.000000	62.034821 
4701.000000	62.038159 
4700.000000	62.059354 
4699.000000	62.094068 
4698.000000	62.136673 
4697.000000	62.181544 
4696.000000	62.223219 
4695.000000	62.257456 
4694.000000	62.281346 
4693.000000	62.293791 
4692.000000	62.295341 
4691.000000	62.288141 
4690.000000	62.275338 
4689.000000	62.260913 
4688.000000	62.249088 
4687.000000	62.243890 
4686.000000	62.248682 
4685.000000	62.266063 
4684.000000	62.297129 
4683.000000	62.341785 
4682.000000	62.398052 
4681.000000	62.462139 
4680.000000	62.528109 
4679.000000	62.588715 
4678.000000	62.635946 
4677.000000	62.662458 
4676.000000	62.662696 
4675.000000	62.634301 
4674.000000	62.578892 
4673.000000	62.502408 
4672.000000	62.413930 
4671.000000	62.324690 
4670.000000	62.245583 
4669.000000	62.185597 
4668.000000	62.149953 
4667.000000	62.139344 
4666.000000	62.150406 
4665.000000	62.176847 
4664.000000	62.211608 
4663.000000	62.248611 
4662.000000	62.284159 
4661.000000	62.316966 
4660.000000	62.347579 
4659.000000	62.376904 
4658.000000	62.404870 
4657.000000	62.429499 
4656.000000	62.447214 
4655.000000	62.453079 
4654.000000	62.442851 
4653.000000	62.413716 
4652.000000	62.365770 
4651.000000	62.301540 
4650.000000	62.226295 
4649.000000	62.146496 
4648.000000	62.068414 
4647.000000	61.997437 
4646.000000	61.936879 
4645.000000	61.888647 
4644.000000	61.853241 
4643.000000	61.830854 
4642.000000	61.821532 
4641.000000	61.825752 
4640.000000	61.843395 
4639.000000	61.874318 
4638.000000	61.917018 
4637.000000	61.969542 
4636.000000	62.028717 
4635.000000	62.091040 
4634.000000	62.152695 
4633.000000	62.209653 
4632.000000	62.258124 
4631.000000	62.294530 
4630.000000	62.316083 
4629.000000	62.321591 
4628.000000	62.312078 
4627.000000	62.291121 
4626.000000	62.264466 
4625.000000	62.239551 
4624.000000	62.223768 
4623.000000	62.223744 
4622.000000	62.243366 
4621.000000	62.283086 
4620.000000	62.339472 
4619.000000	62.406301 
4618.000000	62.475371 
4617.000000	62.538528 
4616.000000	62.588810 
4615.000000	62.621998 
4614.000000	62.636494 
4613.000000	62.633395 
4612.000000	62.615561 
4611.000000	62.586712 
4610.000000	62.551164 
4609.000000	62.513303 
4608.000000	62.477326 
4607.000000	62.447047 
4606.000000	62.425303 
4605.000000	62.414073 
4604.000000	62.413668 
4603.000000	62.422871 
4602.000000	62.439608 
4601.000000	62.461471 
4600.000000	62.486052 
4599.000000	62.511706 
4598.000000	62.537646 
4597.000000	62.563562 
4596.000000	62.589907 
4595.000000	62.616372 
4594.000000	62.641596 
4593.000000	62.662267 
4592.000000	62.674331 
4591.000000	62.672853 
4590.000000	62.653613 
4589.000000	62.613677 
4588.000000	62.552881 
4587.000000	62.473773 
4586.000000	62.381911 
4585.000000	62.284588 
4584.000000	62.189936 
4583.000000	62.105774 
4582.000000	62.038516 
4581.000000	61.992168 
4580.000000	61.968088 
4579.000000	61.964631 
4578.000000	61.977887 
4577.000000	62.002205 
4576.000000	62.031769 
4575.000000	62.061595 
4574.000000	62.089252 
4573.000000	62.114691 
4572.000000	62.140703 
4571.000000	62.172031 
4570.000000	62.213754 
4569.000000	62.269854 
4568.000000	62.341094 
4567.000000	62.424731 
4566.000000	62.513947 
4565.000000	62.599086 
4564.000000	62.669897 
4563.000000	62.717676 
4562.000000	62.737464 
4561.000000	62.729787 
4560.000000	62.700223 
4559.000000	62.658405 
4558.000000	62.615513 
4557.000000	62.581968 
4556.000000	62.564778 
4555.000000	62.566399 
4554.000000	62.584161 
4553.000000	62.611842 
4552.000000	62.640738 
4551.000000	62.662506 
4550.000000	62.670946 
4549.000000	62.663888 
4548.000000	62.643122 
4547.000000	62.613773 
4546.000000	62.582683 
4545.000000	62.556338 
4544.000000	62.538981 
4543.000000	62.531590 
4542.000000	62.531924 
4541.000000	62.535548 
4540.000000	62.537527 
4539.000000	62.534165 
4538.000000	62.524533 
4537.000000	62.510657 
4536.000000	62.497234 
4535.000000	62.489819 
4534.000000	62.492895 
4533.000000	62.507939 
4532.000000	62.532687 
4531.000000	62.560868 
4530.000000	62.583756 
4529.000000	62.592434 
4528.000000	62.580418 
4527.000000	62.545537 
4526.000000	62.490963 
4525.000000	62.424182 
4524.000000	62.355613 
4523.000000	62.296223 
4522.000000	62.255454 
4521.000000	62.239575 
4520.000000	62.251114 
4519.000000	62.288784 
4518.000000	62.348365 
4517.000000	62.423992 
4516.000000	62.509322 
4515.000000	62.597894 
4514.000000	62.684369 
4513.000000	62.764048 
4512.000000	62.833809 
4511.000000	62.891578 
4510.000000	62.936687 
4509.000000	62.969589 
4508.000000	62.991642 
4507.000000	63.005375 
4506.000000	63.013052 
4505.000000	63.017129 
4504.000000	63.018774 
4503.000000	63.018631 
4502.000000	63.016510 
4501.000000	63.012337 
4500.000000	63.006591 
4499.000000	63.000917 
4498.000000	62.997651 
4497.000000	62.999653 
4496.000000	63.009309 
4495.000000	63.027787 
4494.000000	63.054156 
4493.000000	63.085532 
4492.000000	63.117241 
4491.000000	63.144159 
4490.000000	63.161396 
4489.000000	63.166141 
4488.000000	63.158130 
4487.000000	63.140177 
4486.000000	63.117957 
4485.000000	63.098406 
4484.000000	63.088130 
4483.000000	63.091230 
4482.000000	63.109111 
4481.000000	63.138580 
4480.000000	63.173127 
4479.000000	63.204050 
4478.000000	63.222813 
4477.000000	63.223266 
4476.000000	63.203001 
4475.000000	63.164639 
4474.000000	63.115167 
4473.000000	63.064670 
4472.000000	63.023734 
4471.000000	63.001036 
4470.000000	63.001060 
4469.000000	63.023161 
4468.000000	63.061738 
4467.000000	63.107514 
4466.000000	63.149857 
4465.000000	63.179111 
4464.000000	63.189148 
4463.000000	63.178586 
4462.000000	63.150811 
4461.000000	63.112783 
4460.000000	63.073229 
4459.000000	63.040137 
4458.000000	63.018870 
4457.000000	63.011407 
4456.000000	63.015818 
4455.000000	63.027787 
4454.000000	63.041710 
4453.000000	63.053011 
4452.000000	63.058757 
4451.000000	63.057899 
4450.000000	63.051772 
4449.000000	63.042712 
4448.000000	63.034224 
4447.000000	63.029742 
4446.000000	63.032269 
4445.000000	63.043451 
4444.000000	63.063216 
4443.000000	63.089823 
4442.000000	63.120055 
4441.000000	63.150000 
4440.000000	63.175916 
4439.000000	63.194990 
4438.000000	63.205885 
4437.000000	63.208866 
4436.000000	63.204765 
4435.000000	63.195109 
4434.000000	63.181304 
4433.000000	63.164901 
4432.000000	63.147091 
4431.000000	63.129615 
4430.000000	63.114905 
4429.000000	63.105845 
4428.000000	63.104915 
4427.000000	63.113880 
4426.000000	63.133931 
4425.000000	63.164019 
4424.000000	63.200736 
4423.000000	63.238811 
4422.000000	63.271617 
4421.000000	63.293743 
4420.000000	63.302469 
4419.000000	63.298416 
4418.000000	63.285803 
4417.000000	63.268780 
4416.000000	63.250255 
4415.000000	63.230299 
4414.000000	63.206481 
4413.000000	63.178730 
4412.000000	63.149738 
4411.000000	63.125061 
4410.000000	63.111639 
4409.000000	63.114237 
4408.000000	63.135266 
4407.000000	63.172841 
4406.000000	63.223600 
4405.000000	63.282370 
4404.000000	63.346171 
4403.000000	63.417005 
4402.000000	63.498711 
4401.000000	63.598203 
4400.000000	63.717532 
4399.000000	63.847970 
4398.000000	63.974022 
4397.000000	64.078211 
4396.000000	64.143323 
4395.000000	64.150857 
4394.000000	64.102602 
4393.000000	64.027428 
4392.000000	63.962316 
4391.000000	63.942122 
4390.000000	63.984227 
4389.000000	64.081549 
4388.000000	64.191842 
4387.000000	64.250612 
4386.000000	64.191365 
4385.000000	63.970708 
4384.000000	63.592147 
4383.000000	63.112449 
4382.000000	62.626695 
4381.000000	62.247300 
4380.000000	62.083053 
4379.000000	62.200641 
4378.000000	62.601017 
4377.000000	63.211584 
4376.000000	63.917398 
4375.000000	64.563584 
4374.000000	65.007567 
4373.000000	65.117239 
4372.000000	64.823842 
4371.000000	64.084315 
4370.000000	62.889957 
4369.000000	61.248326 
4368.000000	59.184265 
4367.000000	56.746745 
4366.000000	54.019165 
4365.000000	51.129484 
4364.000000	48.252344 
4363.000000	45.585846 
4362.000000	43.331384 
4361.000000	41.653370 
4360.000000	40.662193 
4359.000000	40.401291 
4358.000000	40.857577 
4357.000000	41.958832 
4356.000000	43.605780 
4355.000000	45.675659 
4354.000000	48.050808 
4353.000000	50.600385 
4352.000000	53.205204 
4351.000000	55.739212 
4350.000000	58.089685 
4349.000000	60.152387 
4348.000000	61.846876 
4347.000000	63.126707 
4346.000000	63.980126 
4345.000000	64.453148 
4344.000000	64.614582 
4343.000000	64.561438 
4342.000000	64.380884 
4341.000000	64.155292 
4340.000000	63.931536 
4339.000000	63.730788 
4338.000000	63.550734 
4337.000000	63.388085 
4336.000000	63.232588 
4335.000000	63.079118 
4334.000000	62.934112 
4333.000000	62.816190 
4332.000000	62.739109 
4331.000000	62.709426 
4330.000000	62.725687 
4329.000000	62.778973 
4328.000000	62.852430 
4327.000000	62.928509 
4326.000000	62.992262 
4325.000000	63.036727 
4324.000000	63.069319 
4323.000000	63.104939 
4322.000000	63.150405 
4321.000000	63.209939 
4320.000000	63.289737 
4319.000000	63.389015 
4318.000000	63.495659 
4317.000000	63.593745 
4316.000000	63.673090 
4315.000000	63.723182 
4314.000000	63.734650 
4313.000000	63.702940 
4312.000000	63.629984 
4311.000000	63.522624 
4310.000000	63.391947 
4309.000000	63.250350 
4308.000000	63.109731 
4307.000000	62.981343 
4306.000000	62.874746 
4305.000000	62.796497 
4304.000000	62.749505 
4303.000000	62.733340 
4302.000000	62.744355 
4301.000000	62.775564 
4300.000000	62.818098 
4299.000000	62.861561 
4298.000000	62.896466 
4297.000000	62.915229 
4296.000000	62.913727 
4295.000000	62.891125 
4294.000000	62.850141 
4293.000000	62.796211 
4292.000000	62.736082 
4291.000000	62.676215 
4290.000000	62.621951 
4289.000000	62.576794 
4288.000000	62.542533 
4287.000000	62.519550 
4286.000000	62.507963 
4285.000000	62.508082 
4284.000000	62.520909 
4283.000000	62.547421 
4282.000000	62.588691 
4281.000000	62.644505 
4280.000000	62.712669 
4279.000000	62.788200 
4278.000000	62.862992 
4277.000000	62.926745 
4276.000000	62.968969 
4275.000000	62.981295 
4274.000000	62.959146 
4273.000000	62.903428 
4272.000000	62.821102 
4271.000000	62.723970 
4270.000000	62.626457 
4269.000000	62.542510 
4268.000000	62.483096 
4267.000000	62.453842 
4266.000000	62.454557 
4265.000000	62.479639 
4264.000000	62.520122 
4263.000000	62.566041 
4262.000000	62.608575 
4261.000000	62.642264 
4260.000000	62.665414 
4259.000000	62.679553 
4258.000000	62.687611 
4257.000000	62.692546 
4256.000000	62.695765 
4255.000000	62.696695 
4254.000000	62.693047 
4253.000000	62.681603 
4252.000000	62.659573 
4251.000000	62.625694 
4250.000000	62.580871 
4249.000000	62.527918 
4248.000000	62.471461 
4247.000000	62.416887 
4246.000000	62.369656 
4245.000000	62.333559 
4244.000000	62.310695 
4243.000000	62.301063 
4242.000000	62.303137 
4241.000000	62.314105 
4240.000000	62.331151 
4239.000000	62.351822 
4238.000000	62.375044 
4237.000000	62.400937 
4236.000000	62.430167 
4235.000000	62.462997 
4234.000000	62.498593 
4233.000000	62.534570 
4232.000000	62.567019 
4231.000000	62.591314 
4230.000000	62.602853 
4229.000000	62.598156 
4228.000000	62.576031 
4227.000000	62.537956 
4226.000000	62.488150 
4225.000000	62.432694 
4224.000000	62.378048 
4223.000000	62.329673 
4222.000000	62.290787 
4221.000000	62.261748 
4220.000000	62.240314 
4219.000000	62.222456 
4218.000000	62.203097 
4217.000000	62.178134 
4216.000000	62.145209 
4215.000000	62.104892 
4214.000000	62.060117 
4213.000000	62.015867 
4212.000000	61.977553 
4211.000000	61.950016 
4210.000000	61.936235 
4209.000000	61.936187 
4208.000000	61.946630 
4207.000000	61.961770 
4206.000000	61.974620 
4205.000000	61.979031 
4204.000000	61.971282 
4203.000000	61.951065 
4202.000000	61.921381 
4201.000000	61.888313 
4200.000000	61.859226 
4199.000000	61.840701 
4198.000000	61.836338 
4197.000000	61.845612 
4196.000000	61.863374 
4195.000000	61.881184 
4194.000000	61.889052 
4193.000000	61.877465 
4192.000000	61.840152 
4191.000000	61.775350 
4190.000000	61.687636 
4189.000000	61.586236 
4188.000000	61.484813 
4187.000000	61.397743 
4186.000000	61.338686 
4185.000000	61.317515 
4184.000000	61.338663 
4183.000000	61.400771 
4182.000000	61.495733 
4181.000000	61.610507 
4180.000000	61.728334 
4179.000000	61.832213 
4178.000000	61.906647 
4177.000000	61.939692 
4176.000000	61.925578 
4175.000000	61.865210 
4174.000000	61.766839 
4173.000000	61.644196 
4172.000000	61.515164 
4171.000000	61.398172 
4170.000000	61.309027 
4169.000000	61.257767 
4168.000000	61.247515 
4167.000000	61.273717 
4166.000000	61.325621 
4165.000000	61.388444 
4164.000000	61.446523 
4163.000000	61.486935 
4162.000000	61.501073 
4161.000000	61.487269 
4160.000000	61.448502 
4159.000000	61.393427 
