PE IR       SPECTRUM    SPECTRUM    ASCII       PEDS        1.60        
  -1
C-1CE4~1.ASC
17/03/27
18:41:36.00
17/03/27
18:41:36.00
tln
$C-4040-8_t0051$<tbV0>[-2.6,-2.6,8.0,0.0,27,1,0]
370.000000
64









2002,4.07    
MIRTGS : RIGHTBACK : INTERNAL 2
MIR : ON : INTERNAL 2
OPTKBR

0.200000
8
8.000000
FILLER
RATIO
SPECTRUM
UNLOCKED 256

DOUBLE
64
COMBINED
1
0
0


1.000000
RATIO


1
0
TRUE
51149
0
LEFT NOT FITTED RIGHT NOT FITTED 0
NONE
NONE
15600
12.000000
4.427000
51148
TRUE
1 0 8 72 0 0 0 0 

15798.010000






#HDR
-1
-1
#GR
CM-1
%T
0.00002384185791015625
0.0
5000.000000
-1.000000
4631
8
117.871809
32.882094
#DATA
5000.000000	64.769434  
4999.000000	64.800238  
4998.000000	64.832878  
4997.000000	64.864635  
4996.000000	64.893603  
4995.000000	64.918732  
4994.000000	64.939832  
4993.000000	64.957427  
4992.000000	64.972257  
4991.000000	64.984965  
4990.000000	64.995694  
4989.000000	65.004324  
4988.000000	65.009713  
4987.000000	65.010476  
4986.000000	65.004253  
4985.000000	64.988470  
4984.000000	64.960789  
4983.000000	64.919996  
4982.000000	64.866423  
4981.000000	64.802527  
4980.000000	64.733314  
4979.000000	64.665913  
4978.000000	64.608812  
4977.000000	64.570260  
4976.000000	64.556074  
4975.000000	64.568614  
4974.000000	64.605689  
4973.000000	64.661550  
4972.000000	64.727330  
4971.000000	64.793944  
4970.000000	64.853191  
4969.000000	64.900302  
4968.000000	64.934110  
4967.000000	64.957141  
4966.000000	64.973855  
4965.000000	64.989256  
4964.000000	65.007209  
4963.000000	65.028977  
4962.000000	65.053176  
4961.000000	65.076112  
4960.000000	65.093302  
4959.000000	65.100717  
4958.000000	65.096306  
4957.000000	65.080380  
4956.000000	65.055990  
4955.000000	65.027594  
4954.000000	65.000462  
4953.000000	64.979577  
4952.000000	64.968776  
4951.000000	64.970374  
4950.000000	64.984846  
4949.000000	65.011119  
4948.000000	65.046787  
4947.000000	65.088629  
4946.000000	65.132951  
4945.000000	65.175604  
4944.000000	65.212655  
4943.000000	65.240597  
4942.000000	65.257000  
4941.000000	65.260982  
4940.000000	65.253090  
4939.000000	65.235495  
4938.000000	65.210938  
4937.000000	65.182828  
4936.000000	65.153598  
4935.000000	65.124869  
4934.000000	65.096664  
4933.000000	65.068149  
4932.000000	65.037631  
4931.000000	65.003395  
4930.000000	64.964795  
4929.000000	64.922714  
4928.000000	64.879417  
4927.000000	64.837980  
4926.000000	64.801645  
4925.000000	64.773344  
4924.000000	64.755082  
4923.000000	64.747643  
4922.000000	64.750289  
4921.000000	64.761114  
4920.000000	64.777517  
4919.000000	64.796495  
4918.000000	64.815020  
4917.000000	64.830780  
4916.000000	64.841389  
4915.000000	64.846014  
4914.000000	64.845323  
4913.000000	64.841818  
4912.000000	64.839625  
4911.000000	64.842939  
4910.000000	64.855718  
4909.000000	64.878892  
4908.000000	64.910745  
4907.000000	64.944982  
4906.000000	64.972019  
4905.000000	64.980602  
4904.000000	64.960837  
4903.000000	64.907336  
4902.000000	64.821743  
4901.000000	64.713740  
4900.000000	64.599752  
4899.000000	64.500474  
4898.000000	64.436006  
4897.000000	64.421582  
4896.000000	64.462757  
4895.000000	64.553475  
4894.000000	64.676761  
4893.000000	64.808225  
4892.000000	64.922070  
4891.000000	64.996576  
4890.000000	65.020227  
4889.000000	64.992523  
4888.000000	64.925360  
4887.000000	64.838242  
4886.000000	64.754319  
4885.000000	64.694023  
4884.000000	64.670634  
4883.000000	64.688324  
4882.000000	64.741253  
4881.000000	64.817619  
4880.000000	64.900755  
4879.000000	64.974331  
4878.000000	65.024447  
4877.000000	65.042638  
4876.000000	65.026140  
4875.000000	64.977741  
4874.000000	64.904427  
4873.000000	64.815640  
4872.000000	64.722990  
4871.000000	64.638018  
4870.000000	64.571642  
4869.000000	64.531445  
4868.000000	64.520764  
4867.000000	64.537572  
4866.000000	64.574742  
4865.000000	64.621615  
4864.000000	64.665532  
4863.000000	64.695787  
4862.000000	64.704298  
4861.000000	64.689636  
4860.000000	64.656090  
4859.000000	64.613986  
4858.000000	64.575839  
4857.000000	64.554667  
4856.000000	64.560627  
4855.000000	64.598751  
4854.000000	64.668512  
4853.000000	64.762449  
4852.000000	64.868068  
4851.000000	64.969348  
4850.000000	65.050363  
4849.000000	65.096735  
4848.000000	65.098547  
4847.000000	65.051436  
4846.000000	64.957904  
4845.000000	64.827680  
4844.000000	64.676237  
4843.000000	64.523172  
4842.000000	64.388346  
4841.000000	64.288926  
4840.000000	64.235281  
4839.000000	64.230108  
4838.000000	64.267110  
4837.000000	64.332699  
4836.000000	64.409375  
4835.000000	64.478993  
4834.000000	64.528059  
4833.000000	64.548683  
4832.000000	64.541721  
4831.000000	64.514040  
4830.000000	64.477610  
4829.000000	64.444994  
4828.000000	64.426779  
4827.000000	64.428615  
4826.000000	64.450383  
4825.000000	64.486789  
4824.000000	64.529490  
4823.000000	64.570069  
4822.000000	64.601540  
4821.000000	64.620208  
4820.000000	64.625358  
4819.000000	64.618968  
4818.000000	64.604258  
4817.000000	64.584374  
4816.000000	64.561295  
4815.000000	64.535760  
4814.000000	64.507579  
4813.000000	64.476752  
4812.000000	64.444732  
4811.000000	64.414882  
4810.000000	64.391732  
4809.000000	64.380431  
4808.000000	64.385342  
4807.000000	64.408898  
4806.000000	64.450240  
4805.000000	64.505648  
4804.000000	64.568138  
4803.000000	64.630055  
4802.000000	64.684534  
4801.000000	64.727210  
4800.000000	64.756774  
4799.000000	64.775300  
4798.000000	64.787316  
4797.000000	64.798331  
4796.000000	64.813160  
4795.000000	64.834594  
4794.000000	64.862561  
4793.000000	64.894223  
4792.000000	64.924788  
4791.000000	64.949035  
4790.000000	64.962673  
4789.000000	64.963364  
4788.000000	64.951324  
4787.000000	64.929223  
4786.000000	64.901185  
4785.000000	64.872145  
4784.000000	64.846086  
4783.000000	64.825081  
4782.000000	64.808821  
4781.000000	64.794969  
4780.000000	64.779973  
4779.000000	64.760279  
4778.000000	64.733457  
4777.000000	64.699006  
4776.000000	64.658808  
4775.000000	64.616584  
4774.000000	64.577388  
4773.000000	64.545679  
4772.000000	64.525032  
4771.000000	64.517045  
4770.000000	64.520668  
4769.000000	64.532351  
4768.000000	64.547061  
4767.000000	64.559555  
4766.000000	64.565038  
4765.000000	64.560365  
4764.000000	64.544987  
4763.000000	64.521098  
4762.000000	64.492893  
4761.000000	64.465785  
4760.000000	64.445447  
4759.000000	64.436244  
4758.000000	64.440512  
4757.000000	64.457559  
4756.000000	64.483928  
4755.000000	64.513945  
4754.000000	64.541268  
4753.000000	64.560341  
4752.000000	64.567065  
4751.000000	64.560294  
4750.000000	64.542222  
4749.000000	64.517235  
4748.000000	64.490628  
4747.000000	64.467358  
4746.000000	64.450836  
4745.000000	64.441752  
4744.000000	64.438247  
4743.000000	64.436054  
4742.000000	64.430189  
4741.000000	64.415431  
4740.000000	64.387965  
4739.000000	64.346003  
4738.000000	64.290428  
4737.000000	64.224505  
4736.000000	64.153552  
4735.000000	64.083647  
4734.000000	64.021229  
4733.000000	63.971853  
4732.000000	63.940000  
4731.000000	63.927984  
4730.000000	63.936686  
4729.000000	63.965010  
4728.000000	64.010977  
4727.000000	64.071464  
4726.000000	64.143157  
4725.000000	64.222216  
4724.000000	64.304924  
4723.000000	64.387273  
4722.000000	64.465093  
4721.000000	64.534211  
4720.000000	64.590239  
4719.000000	64.629650  
4718.000000	64.649629  
4717.000000	64.648747  
4716.000000	64.627766  
4715.000000	64.590239  
4714.000000	64.541530  
4713.000000	64.488077  
4712.000000	64.436697  
4711.000000	64.393281  
4710.000000	64.361500  
4709.000000	64.342308  
4708.000000	64.333701  
4707.000000	64.331674  
4706.000000	64.330887  
4705.000000	64.326810  
4704.000000	64.316153  
4703.000000	64.298772  
4702.000000	64.277315  
4701.000000	64.256978  
4700.000000	64.243149  
4699.000000	64.240646  
4698.000000	64.251637  
4697.000000	64.275431  
4696.000000	64.307904  
4695.000000	64.343643  
4694.000000	64.377427  
4693.000000	64.406299  
4692.000000	64.430284  
4691.000000	64.452528  
4690.000000	64.478278  
4689.000000	64.512658  
4688.000000	64.558529  
4687.000000	64.614939  
4686.000000	64.676856  
4685.000000	64.736080  
4684.000000	64.783167  
4683.000000	64.810156  
4682.000000	64.812111  
4681.000000	64.789366  
4680.000000	64.746332  
4679.000000	64.689421  
4678.000000	64.624905  
4677.000000	64.557695  
4676.000000	64.489674  
4675.000000	64.420151  
4674.000000	64.346981  
4673.000000	64.269089  
4672.000000	64.187765  
4671.000000	64.107918  
4670.000000	64.037466  
4669.000000	63.985109  
4668.000000	63.958740  
4667.000000	63.962507  
4666.000000	63.995718  
4665.000000	64.051818  
4664.000000	64.120578  
4663.000000	64.190220  
4662.000000	64.249920  
4661.000000	64.292025  
4660.000000	64.313268  
4659.000000	64.315271  
4658.000000	64.303016  
4657.000000	64.283657  
4656.000000	64.265227  
4655.000000	64.255332  
4654.000000	64.260339  
4653.000000	64.284229  
4652.000000	64.328718  
4651.000000	64.392256  
4650.000000	64.471125  
4649.000000	64.558696  
4648.000000	64.646220  
4647.000000	64.723753  
4646.000000	64.782094  
4645.000000	64.813828  
4644.000000	64.814972  
4643.000000	64.785313  
4642.000000	64.729547  
4641.000000	64.655423  
4640.000000	64.572477  
4639.000000	64.490103  
4638.000000	64.416193  
4637.000000	64.355945  
4636.000000	64.311981  
4635.000000	64.284110  
4634.000000	64.270567  
4633.000000	64.268040  
4632.000000	64.272999  
4631.000000	64.281773  
4630.000000	64.291405  
4629.000000	64.300584  
4628.000000	64.310121  
4627.000000	64.322185  
4626.000000	64.339852  
4625.000000	64.366436  
4624.000000	64.404201  
4623.000000	64.453363  
4622.000000	64.511489  
4621.000000	64.573907  
4620.000000	64.634227  
4619.000000	64.685797  
4618.000000	64.722490  
4617.000000	64.740729  
4616.000000	64.739108  
4615.000000	64.719104  
4614.000000	64.683866  
4613.000000	64.637422  
4612.000000	64.583945  
4611.000000	64.527082  
4610.000000	64.470553  
4609.000000	64.418125  
4608.000000	64.374136  
4607.000000	64.343619  
4606.000000	64.330649  
4605.000000	64.337301  
4604.000000	64.362645  
4603.000000	64.402103  
4602.000000	64.447689  
4601.000000	64.489245  
4600.000000	64.516139  
4599.000000	64.519977  
4598.000000	64.496231  
4597.000000	64.445710  
4596.000000	64.374208  
4595.000000	64.291691  
4594.000000	64.209747  
4593.000000	64.139795  
4592.000000	64.090657  
4591.000000	64.067506  
4590.000000	64.071559  
4589.000000	64.099836  
4588.000000	64.146614  
4587.000000	64.204049  
4586.000000	64.263677  
4585.000000	64.317607  
4584.000000	64.358735  
4583.000000	64.383053  
4582.000000	64.389419  
4581.000000	64.380335  
4580.000000	64.361000  
4579.000000	64.337968  
4578.000000	64.317512  
4577.000000	64.304280  
4576.000000	64.300227  
4575.000000	64.304089  
4574.000000	64.312267  
4573.000000	64.320015  
4572.000000	64.323425  
4571.000000	64.320683  
4570.000000	64.313483  
4569.000000	64.306354  
4568.000000	64.305734  
4567.000000	64.317536  
4566.000000	64.345335  
4565.000000	64.389467  
4564.000000	64.445590  
4563.000000	64.505696  
4562.000000	64.559292  
4561.000000	64.597153  
4560.000000	64.611816  
4559.000000	64.599370  
4558.000000	64.560437  
4557.000000	64.500045  
4556.000000	64.426398  
4555.000000	64.349293  
4554.000000	64.278173  
4553.000000	64.220499  
4552.000000	64.180898  
4551.000000	64.160680  
4550.000000	64.157652  
4549.000000	64.167118  
4548.000000	64.182806  
4547.000000	64.199042  
4546.000000	64.211034  
4545.000000	64.217281  
4544.000000	64.219188  
4543.000000	64.221763  
4542.000000	64.231729  
4541.000000	64.256453  
4540.000000	64.301133  
4539.000000	64.368057  
4538.000000	64.454793  
4537.000000	64.555668  
4536.000000	64.662671  
4535.000000	64.767432  
4534.000000	64.863276  
4533.000000	64.946246  
4532.000000	65.016007  
4531.000000	65.074348  
4530.000000	65.124273  
4529.000000	65.167450  
4528.000000	65.203547  
4527.000000	65.229344  
4526.000000	65.240120  
4525.000000	65.230488  
4524.000000	65.196919  
4523.000000	65.139579  
4522.000000	65.063309  
4521.000000	64.977002  
4520.000000	64.892339  
4519.000000	64.821052  
4518.000000	64.773130  
4517.000000	64.755129  
4516.000000	64.768791  
4515.000000	64.811301  
4514.000000	64.875555  
4513.000000	64.952206  
4512.000000	65.030884  
4511.000000	65.101599  
4510.000000	65.156483  
4509.000000	65.189790  
4508.000000	65.199327  
4507.000000	65.185499  
4506.000000	65.151977  
4505.000000	65.104937  
4504.000000	65.052056  
4503.000000	65.001511  
4502.000000	64.960408  
4501.000000	64.934158  
4500.000000	64.925003  
4499.000000	64.932179  
4498.000000	64.951705  
4497.000000	64.977765  
4496.000000	65.003514  
4495.000000	65.022635  
4494.000000	65.029978  
4493.000000	65.022873  
4492.000000	65.000796  
4491.000000	64.965844  
4490.000000	64.921498  
4489.000000	64.872980  
4488.000000	64.826011  
4487.000000	64.786744  
4486.000000	64.760804  
4485.000000	64.752626  
4484.000000	64.765000  
4483.000000	64.798140  
4482.000000	64.849328  
4481.000000	64.913201  
4480.000000	64.981865  
4479.000000	65.047621  
4478.000000	65.103936  
4477.000000	65.147519  
4476.000000	65.178346  
4475.000000	65.199422  
4474.000000	65.215444  
4473.000000	65.231108  
4472.000000	65.249514  
4471.000000	65.271520  
4470.000000	65.295457  
4469.000000	65.318322  
4468.000000	65.336775  
4467.000000	65.348339  
4466.000000	65.352296  
4465.000000	65.349912  
4464.000000	65.344166  
4463.000000	65.338563  
4462.000000	65.336179  
4461.000000	65.338873  
4460.000000	65.346860  
4459.000000	65.358710  
4458.000000	65.372228  
4457.000000	65.385651  
4456.000000	65.397644  
4455.000000	65.407729  
4454.000000	65.416049  
4453.000000	65.423083  
4452.000000	65.429353  
4451.000000	65.435242  
4450.000000	65.440225  
4449.000000	65.442967  
4448.000000	65.441083  
4447.000000	65.432143  
4446.000000	65.413618  
4445.000000	65.383768  
4444.000000	65.342640  
4443.000000	65.292620  
4442.000000	65.238761  
4441.000000	65.188074  
4440.000000	65.147757  
4439.000000	65.123939  
4438.000000	65.120601  
4437.000000	65.139055  
4436.000000	65.177583  
4435.000000	65.232610  
4434.000000	65.299320  
4433.000000	65.372824  
4432.000000	65.448760  
4431.000000	65.523505  
4430.000000	65.593838  
4429.000000	65.656661  
4428.000000	65.709519  
4427.000000	65.749406  
4426.000000	65.773200  
4425.000000	65.777468  
4424.000000	65.760016  
4423.000000	65.720176  
4422.000000	65.659642  
4421.000000	65.583872  
4420.000000	65.502023  
4419.000000	65.426301  
4418.000000	65.370225  
4417.000000	65.346074  
4416.000000	65.362477  
4415.000000	65.422391  
4414.000000	65.522646  
4413.000000	65.655016  
4412.000000	65.807580  
4411.000000	65.967607  
4410.000000	66.122555  
4409.000000	66.261649  
4408.000000	66.376161  
4407.000000	66.459703  
4406.000000	66.507697  
4405.000000	66.519236  
4404.000000	66.494321  
4403.000000	66.436481  
4402.000000	66.348934  
4401.000000	66.235184  
4400.000000	66.098475  
4399.000000	65.944480  
4398.000000	65.779924  
4397.000000	65.613937  
4396.000000	65.456843  
4395.000000	65.318179  
4394.000000	65.208029  
4393.000000	65.137481  
4392.000000	65.110301  
4391.000000	65.119600  
4390.000000	65.155768  
4389.000000	65.209507  
4388.000000	65.266013  
4387.000000	65.308380  
4386.000000	65.332460  
4385.000000	65.344810  
4384.000000	65.352463  
4383.000000	65.360069  
4382.000000	65.370917  
4381.000000	65.383458  
4380.000000	65.380978  
4379.000000	65.346384  
4378.000000	65.269970  
4377.000000	65.158748  
4376.000000	65.039110  
4375.000000	64.952325  
4374.000000	64.945149  
4373.000000	65.052795  
4372.000000	65.302371  
4371.000000	65.675759  
4370.000000	66.108393  
4369.000000	66.494441  
4368.000000	66.721701  
4367.000000	66.671442  
4366.000000	66.249608  
4365.000000	65.402722  
4364.000000	64.138388  
4363.000000	62.499904  
4362.000000	60.559368  
4361.000000	58.403968  
4360.000000	56.123995  
4359.000000	53.803992  
4358.000000	51.517200  
4357.000000	49.330496  
4356.000000	47.302508  
4355.000000	45.472812  
4354.000000	43.876695  
4353.000000	42.517805  
4352.000000	41.413640  
4351.000000	40.566754  
4350.000000	40.022897  
4349.000000	39.819622  
4348.000000	40.041637  
4347.000000	40.766382  
4346.000000	42.079567  
4345.000000	44.011187  
4344.000000	46.541500  
4343.000000	49.563670  
4342.000000	52.904677  
4341.000000	56.329345  
4340.000000	59.591603  
4339.000000	62.468767  
4338.000000	64.804196  
4337.000000	66.530442  
4336.000000	67.660450  
4335.000000	68.271327  
4334.000000	68.481159  
4333.000000	68.417334  
4332.000000	68.193984  
4331.000000	67.889404  
4330.000000	67.571759  
4329.000000	67.281174  
4328.000000	67.037415  
4327.000000	66.836857  
4326.000000	66.676807  
4325.000000	66.548776  
4324.000000	66.439032  
4323.000000	66.335582  
4322.000000	66.232109  
4321.000000	66.128849  
4320.000000	66.027212  
4319.000000	65.932941  
4318.000000	65.850019  
4317.000000	65.783309  
4316.000000	65.738081  
4315.000000	65.716028  
4314.000000	65.709853  
4313.000000	65.712952  
4312.000000	65.724110  
4311.000000	65.739488  
4310.000000	65.749979  
4309.000000	65.754032  
4308.000000	65.758943  
4307.000000	65.766191  
4306.000000	65.770673  
4305.000000	65.769958  
4304.000000	65.763449  
4303.000000	65.749096  
4302.000000	65.725159  
4301.000000	65.692210  
4300.000000	65.652823  
4299.000000	65.612053  
4298.000000	65.575695  
4297.000000	65.547418  
4296.000000	65.529227  
4295.000000	65.521216  
4294.000000	65.522766  
4293.000000	65.532112  
4292.000000	65.548777  
4291.000000	65.573859  
4290.000000	65.609478  
4289.000000	65.657520  
4288.000000	65.718507  
4287.000000	65.790438  
4286.000000	65.868353  
4285.000000	65.944552  
4284.000000	66.010403  
4283.000000	66.058254  
4282.000000	66.083264  
4281.000000	66.084504  
4280.000000	66.064858  
4279.000000	66.029858  
4278.000000	65.985894  
4277.000000	65.938496  
4276.000000	65.891146  
4275.000000	65.844893  
4274.000000	65.799522  
4273.000000	65.754294  
4272.000000	65.709853  
4271.000000	65.667843  
4270.000000	65.630602  
4269.000000	65.600442  
4268.000000	65.577936  
4267.000000	65.562820  
4266.000000	65.553188  
4265.000000	65.546965  
4264.000000	65.542507  
4263.000000	65.539169  
4262.000000	65.537786  
4261.000000	65.539622  
4260.000000	65.545511  
4259.000000	65.555238  
4258.000000	65.567231  
4257.000000	65.577793  
4256.000000	65.581965  
4255.000000	65.574479  
4254.000000	65.551304  
4253.000000	65.510749  
4252.000000	65.454173  
4251.000000	65.386366  
4250.000000	65.315032  
4249.000000	65.249180  
4248.000000	65.197253  
4247.000000	65.165448  
4246.000000	65.156126  
4245.000000	65.168166  
4244.000000	65.196800  
4243.000000	65.235114  
4242.000000	65.275430  
4241.000000	65.310692  
4240.000000	65.335655  
4239.000000	65.347075  
4238.000000	65.343880  
4237.000000	65.326833  
4236.000000	65.297722  
4235.000000	65.258646  
4234.000000	65.211725  
4233.000000	65.159106  
4232.000000	65.102767  
4231.000000	65.045046  
4230.000000	64.988350  
4229.000000	64.935326  
4228.000000	64.888501  
4227.000000	64.850211  
4226.000000	64.822173  
4225.000000	64.805626  
4224.000000	64.801597  
4223.000000	64.810562  
4222.000000	64.832472  
4221.000000	64.866113  
4220.000000	64.907979  
4219.000000	64.952659  
4218.000000	64.992880  
4217.000000	65.021467  
4216.000000	65.032386  
4215.000000	65.022850  
4214.000000	64.994096  
4213.000000	64.951348  
4212.000000	64.903283  
4211.000000	64.859151  
4210.000000	64.826631  
4209.000000	64.809799  
4208.000000	64.808726  
4207.000000	64.819264  
4206.000000	64.834809  
4205.000000	64.848017  
4204.000000	64.853024  
4203.000000	64.847135  
4202.000000	64.831733  
4201.000000	64.810991  
4200.000000	64.790725  
4199.000000	64.776682  
4198.000000	64.773249  
4197.000000	64.782309  
4196.000000	64.803242  
4195.000000	64.834237  
4194.000000	64.872288  
