PE IR       SPECTRUM    SPECTRUM    ASCII       PEDS        1.60        
  -1
C-1C61~1.ASC
17/03/27
18:36:59.00
17/03/27
18:36:59.00
tln
$C-4040-8_t0050$<tbV0>[0.0,-2.6,8.0,0.0,27,1,0]
370.000000
64









2002,4.07    
MIRTGS : RIGHTBACK : INTERNAL 2
MIR : ON : INTERNAL 2
OPTKBR

0.200000
8
8.000000
FILLER
RATIO
SPECTRUM
UNLOCKED 256

DOUBLE
64
COMBINED
1
0
0


1.000000
RATIO


1
0
TRUE
51149
0
LEFT NOT FITTED RIGHT NOT FITTED 0
NONE
NONE
15600
12.000000
4.427000
51148
TRUE
1 0 8 72 0 0 0 0 

15798.010000






#HDR
-1
-1
#GR
CM-1
%T
0.00002384185791015625
0.0
5000.000000
-1.000000
4631
8
76.939606
24.644303
#DATA
5000.000000	63.839101 
4999.000000	63.880729 
4998.000000	63.922882 
4997.000000	63.962125 
4996.000000	63.998627 
4995.000000	64.035749 
4994.000000	64.079499 
4993.000000	64.137029 
4992.000000	64.212584 
4991.000000	64.305758 
4990.000000	64.409017 
4989.000000	64.509820 
4988.000000	64.590597 
4987.000000	64.633464 
4986.000000	64.623928 
4985.000000	64.555501 
4984.000000	64.431500 
4983.000000	64.265608 
4982.000000	64.079856 
4981.000000	63.900470 
4980.000000	63.752651 
4979.000000	63.654899 
4978.000000	63.616514 
4977.000000	63.634824 
4976.000000	63.696599 
4975.000000	63.780641 
4974.000000	63.862848 
4973.000000	63.922095 
4972.000000	63.942861 
4971.000000	63.920545 
4970.000000	63.859081 
4969.000000	63.772606 
4968.000000	63.680052 
4967.000000	63.602519 
4966.000000	63.557887 
4965.000000	63.557720 
4964.000000	63.605475 
4963.000000	63.695788 
4962.000000	63.816761 
4961.000000	63.952040 
4960.000000	64.084959 
4959.000000	64.201211 
4958.000000	64.291143 
4957.000000	64.351153 
4956.000000	64.383149 
4955.000000	64.393329 
4954.000000	64.389753 
4953.000000	64.381361 
4952.000000	64.375734 
4951.000000	64.378762 
4950.000000	64.393639 
4949.000000	64.421105 
4948.000000	64.459252 
4947.000000	64.505529 
4946.000000	64.555954 
4945.000000	64.606261 
4944.000000	64.652037 
4943.000000	64.689016 
4942.000000	64.714431 
4941.000000	64.726924 
4940.000000	64.727497 
4939.000000	64.718794 
4938.000000	64.705157 
4937.000000	64.691734 
4936.000000	64.683437 
4935.000000	64.684319 
4934.000000	64.696049 
4933.000000	64.718294 
4932.000000	64.747738 
4931.000000	64.778947 
4930.000000	64.805340 
4929.000000	64.820671 
4928.000000	64.819169 
4927.000000	64.796710 
4926.000000	64.752221 
4925.000000	64.688062 
4924.000000	64.609551 
4923.000000	64.524030 
4922.000000	64.439940 
4921.000000	64.365410 
4920.000000	64.306855 
4919.000000	64.268231 
4918.000000	64.250683 
4917.000000	64.252734 
4916.000000	64.269995 
4915.000000	64.297032 
4914.000000	64.328026 
4913.000000	64.357995 
4912.000000	64.382839 
4911.000000	64.400029 
4910.000000	64.408516 
4909.000000	64.407873 
4908.000000	64.398050 
4907.000000	64.378023 
4906.000000	64.346027 
4905.000000	64.299464 
4904.000000	64.236330 
4903.000000	64.155507 
4902.000000	64.058256 
4901.000000	63.949203 
4900.000000	63.836407 
4899.000000	63.730645 
4898.000000	63.643360 
4897.000000	63.584780 
4896.000000	63.560938 
4895.000000	63.571929 
4894.000000	63.611268 
4893.000000	63.666486 
4892.000000	63.722062 
4891.000000	63.762259 
4890.000000	63.775539 
4889.000000	63.756299 
4888.000000	63.706994 
4887.000000	63.636136 
4886.000000	63.557171 
4885.000000	63.484358 
4884.000000	63.430142 
4883.000000	63.402199 
4882.000000	63.402366 
4881.000000	63.427400 
4880.000000	63.469886 
4879.000000	63.520932 
4878.000000	63.572406 
4877.000000	63.619112 
4876.000000	63.659548 
4875.000000	63.695549 
4874.000000	63.730859 
4873.000000	63.769030 
4872.000000	63.811779 
4871.000000	63.857698 
4870.000000	63.902640 
4869.000000	63.940024 
4868.000000	63.962531 
4867.000000	63.963770 
4866.000000	63.941049 
4865.000000	63.895940 
4864.000000	63.833761 
4863.000000	63.763165 
4862.000000	63.694071 
4861.000000	63.636350 
4860.000000	63.597297 
4859.000000	63.581609 
4858.000000	63.590121 
4857.000000	63.621473 
4856.000000	63.673138 
4855.000000	63.741803 
4854.000000	63.824391 
4853.000000	63.916540 
4852.000000	64.012432 
4851.000000	64.103817 
4850.000000	64.180421 
4849.000000	64.231038 
4848.000000	64.245700 
4847.000000	64.217996 
4846.000000	64.147377 
4845.000000	64.040350 
4844.000000	63.909935 
4843.000000	63.774037 
4842.000000	63.651823 
4841.000000	63.560867 
4840.000000	63.512802 
4839.000000	63.511824 
4838.000000	63.553690 
4837.000000	63.627362 
4836.000000	63.717579 
4835.000000	63.807845 
4834.000000	63.884305 
4833.000000	63.937211 
4832.000000	63.963270 
4831.000000	63.964271 
4830.000000	63.946700 
4829.000000	63.918828 
4828.000000	63.888764 
4827.000000	63.863086 
4826.000000	63.844704 
4825.000000	63.833117 
4824.000000	63.825297 
4823.000000	63.817548 
4822.000000	63.807010 
4821.000000	63.792920 
4820.000000	63.777184 
4819.000000	63.763761 
4818.000000	63.757419 
4817.000000	63.761997 
4816.000000	63.778543 
4815.000000	63.804817 
4814.000000	63.835406 
4813.000000	63.863253 
4812.000000	63.881707 
4811.000000	63.886737 
4810.000000	63.877964 
4809.000000	63.859295 
4808.000000	63.837814 
4807.000000	63.821816 
4806.000000	63.818359 
4805.000000	63.831281 
4804.000000	63.859295 
4803.000000	63.897824 
4802.000000	63.940763 
4801.000000	63.982677 
4800.000000	64.020204 
4799.000000	64.054179 
4798.000000	64.089226 
4797.000000	64.131760 
4796.000000	64.187479 
4795.000000	64.258980 
4794.000000	64.344000 
4793.000000	64.435148 
4792.000000	64.521288 
4791.000000	64.590311 
4790.000000	64.632010 
4789.000000	64.641022 
4788.000000	64.617776 
4787.000000	64.568758 
4786.000000	64.504098 
4785.000000	64.435744 
4784.000000	64.373397 
4783.000000	64.323425 
4782.000000	64.286398 
4781.000000	64.259290 
4780.000000	64.235353 
4779.000000	64.207792 
4778.000000	64.170646 
4777.000000	64.121198 
4776.000000	64.059853 
4775.000000	63.989400 
4774.000000	63.914513 
4773.000000	63.839745 
4772.000000	63.769125 
4771.000000	63.705492 
4770.000000	63.650250 
4769.000000	63.603687 
4768.000000	63.565349 
4767.000000	63.534569 
4766.000000	63.510084 
4765.000000	63.490533 
4764.000000	63.474559 
4763.000000	63.461518 
4762.000000	63.450741 
4761.000000	63.442420 
4760.000000	63.437557 
4759.000000	63.438057 
4758.000000	63.445496 
4757.000000	63.461184 
4756.000000	63.485169 
4755.000000	63.516139 
4754.000000	63.551521 
4753.000000	63.587927 
4752.000000	63.621592 
4751.000000	63.649630 
4750.000000	63.671016 
4749.000000	63.685894 
4748.000000	63.695240 
4747.000000	63.700246 
4746.000000	63.702249 
4745.000000	63.701868 
4744.000000	63.698911 
4743.000000	63.693189 
4742.000000	63.684916 
4741.000000	63.674449 
4740.000000	63.662409 
4739.000000	63.649892 
4738.000000	63.638305 
4737.000000	63.628840 
4736.000000	63.621950 
4735.000000	63.617515 
4734.000000	63.614773 
4733.000000	63.612198 
4732.000000	63.608145 
4731.000000	63.600921 
4730.000000	63.589930 
4729.000000	63.575363 
4728.000000	63.559150 
4727.000000	63.543820 
4726.000000	63.532876 
4725.000000	63.529968 
4724.000000	63.538098 
4723.000000	63.558936 
4722.000000	63.592290 
4721.000000	63.635897 
4720.000000	63.685894 
4719.000000	63.737130 
4718.000000	63.784885 
4717.000000	63.825678 
4716.000000	63.857865 
4715.000000	63.881683 
4714.000000	63.898682 
4713.000000	63.910913 
4712.000000	63.920116 
4711.000000	63.926959 
4710.000000	63.931465 
4709.000000	63.932943 
4708.000000	63.930797 
4707.000000	63.924598 
4706.000000	63.914513 
4705.000000	63.900995 
4704.000000	63.884615 
4703.000000	63.866114 
4702.000000	63.846254 
4701.000000	63.826107 
4700.000000	63.806891 
4699.000000	63.790178 
4698.000000	63.777947 
4697.000000	63.771867 
4696.000000	63.773369 
4695.000000	63.782238 
4694.000000	63.796591 
4693.000000	63.812756 
4692.000000	63.825869 
4691.000000	63.831305 
4690.000000	63.825893 
4689.000000	63.808703 
4688.000000	63.781499 
4687.000000	63.748002 
4686.000000	63.713145 
4685.000000	63.681340 
4684.000000	63.655471 
4683.000000	63.636565 
4682.000000	63.623857 
4681.000000	63.615441 
4680.000000	63.608646 
4679.000000	63.600802 
4678.000000	63.589811 
4677.000000	63.574385 
4676.000000	63.554930 
4675.000000	63.532543 
4674.000000	63.509845 
4673.000000	63.489985 
4672.000000	63.476634 
4671.000000	63.473200 
4670.000000	63.482356 
4669.000000	63.505077 
4668.000000	63.540482 
4667.000000	63.585448 
4666.000000	63.635134 
4665.000000	63.683652 
4664.000000	63.725590 
4663.000000	63.756942 
4662.000000	63.775944 
4661.000000	63.783216 
4660.000000	63.780450 
4659.000000	63.769888 
4658.000000	63.753294 
4657.000000	63.732028 
4656.000000	63.707351 
4655.000000	63.681244 
4654.000000	63.657188 
4653.000000	63.639831 
4652.000000	63.634300 
4651.000000	63.644909 
4650.000000	63.673877 
4649.000000	63.720059 
4648.000000	63.778662 
4647.000000	63.842129 
4646.000000	63.901448 
4645.000000	63.947987 
4644.000000	63.975381 
4643.000000	63.980603 
4642.000000	63.964581 
4641.000000	63.931488 
4640.000000	63.887548 
4639.000000	63.839459 
4638.000000	63.793110 
4637.000000	63.753175 
4636.000000	63.723015 
4635.000000	63.704538 
4634.000000	63.698697 
4633.000000	63.704872 
4632.000000	63.721179 
4631.000000	63.744091 
4630.000000	63.768792 
4629.000000	63.789916 
4628.000000	63.802623 
4627.000000	63.803672 
4626.000000	63.792300 
4625.000000	63.770627 
4624.000000	63.743138 
4623.000000	63.715648 
4622.000000	63.694119 
4621.000000	63.683366 
4620.000000	63.685917 
4619.000000	63.701486 
4618.000000	63.726758 
4617.000000	63.756823 
4616.000000	63.785648 
4615.000000	63.807582 
4614.000000	63.818216 
4613.000000	63.815140 
4612.000000	63.798213 
4611.000000	63.769102 
4610.000000	63.731718 
4609.000000	63.691186 
4608.000000	63.653659 
4607.000000	63.625335 
4606.000000	63.611435 
4605.000000	63.615274 
4604.000000	63.637709 
4603.000000	63.676953 
4602.000000	63.728642 
4601.000000	63.785862 
4600.000000	63.840532 
4599.000000	63.884139 
4598.000000	63.909101 
4597.000000	63.909745 
4596.000000	63.883233 
4595.000000	63.830208 
4594.000000	63.754606 
4593.000000	63.663768 
4592.000000	63.567304 
4591.000000	63.475966 
4590.000000	63.400101 
4589.000000	63.348054 
4588.000000	63.325119 
4587.000000	63.331818 
4586.000000	63.364315 
4585.000000	63.414716 
4584.000000	63.472247 
4583.000000	63.526535 
4582.000000	63.569307 
4581.000000	63.596439 
4580.000000	63.608121 
4579.000000	63.608288 
4578.000000	63.602757 
4577.000000	63.597583 
4576.000000	63.597083 
4575.000000	63.602757 
4574.000000	63.612985 
4573.000000	63.624191 
4572.000000	63.632082 
4571.000000	63.633322 
4570.000000	63.626646 
4569.000000	63.613343 
4568.000000	63.596868 
4567.000000	63.581895 
4566.000000	63.572955 
4565.000000	63.573360 
4564.000000	63.583922 
4563.000000	63.602876 
4562.000000	63.625621 
4561.000000	63.647007 
4560.000000	63.660883 
4559.000000	63.661551 
4558.000000	63.645339 
4557.000000	63.610720 
4556.000000	63.560461 
4555.000000	63.501119 
4554.000000	63.442206 
4553.000000	63.394236 
4552.000000	63.366270 
4551.000000	63.363695 
4550.000000	63.386249 
4549.000000	63.428092 
4548.000000	63.478517 
4547.000000	63.524985 
4546.000000	63.555669 
4545.000000	63.562917 
4544.000000	63.544154 
4543.000000	63.503646 
4542.000000	63.450431 
4541.000000	63.397431 
4540.000000	63.358283 
4539.000000	63.344883 
4538.000000	63.365149 
4537.000000	63.420653 
4536.000000	63.507390 
4535.000000	63.614606 
4534.000000	63.728356 
4533.000000	63.831782 
4532.000000	63.908481 
4531.000000	63.945150 
4530.000000	63.933658 
4529.000000	63.873457 
4528.000000	63.771581 
4527.000000	63.642525 
4526.000000	63.505530 
4525.000000	63.381743 
4524.000000	63.290119 
4523.000000	63.244032 
4522.000000	63.249301 
4521.000000	63.302755 
4520.000000	63.393878 
4519.000000	63.507032 
4518.000000	63.625311 
4517.000000	63.733410 
4516.000000	63.820886 
4515.000000	63.882493 
4514.000000	63.919019 
4513.000000	63.935279 
4512.000000	63.938379 
4511.000000	63.935303 
4510.000000	63.930988 
4509.000000	63.927912 
4508.000000	63.925790 
4507.000000	63.923668 
4506.000000	63.919901 
4505.000000	63.914227 
4504.000000	63.907170 
4503.000000	63.900375 
4502.000000	63.895773 
4501.000000	63.894963 
4500.000000	63.898134 
4499.000000	63.903641 
4498.000000	63.908958 
4497.000000	63.911318 
4496.000000	63.909125 
4495.000000	63.902592 
4494.000000	63.893961 
4493.000000	63.886809 
4492.000000	63.885307 
4491.000000	63.892698 
4490.000000	63.909721 
4489.000000	63.934612 
4488.000000	63.962650 
4487.000000	63.988542 
4486.000000	64.008140 
4485.000000	64.019751 
4484.000000	64.024949 
4483.000000	64.027404 
4482.000000	64.032101 
4481.000000	64.042735 
4480.000000	64.060521 
4479.000000	64.083027 
4478.000000	64.104866 
4477.000000	64.119148 
4476.000000	64.119768 
4475.000000	64.102911 
4474.000000	64.068722 
4473.000000	64.021062 
4472.000000	63.966894 
4471.000000	63.914680 
4470.000000	63.872289 
4469.000000	63.845109 
4468.000000	63.834738 
4467.000000	63.838911 
4466.000000	63.852167 
4465.000000	63.867831 
4464.000000	63.879537 
4463.000000	63.882470 
4462.000000	63.874816 
4461.000000	63.857579 
4460.000000	63.834738 
4459.000000	63.811540 
4458.000000	63.793945 
4457.000000	63.786411 
4456.000000	63.791418 
4455.000000	63.808846 
4454.000000	63.836026 
4453.000000	63.868689 
4452.000000	63.902139 
4451.000000	63.932919 
4450.000000	63.958811 
4449.000000	63.979411 
4448.000000	63.994598 
4447.000000	64.003896 
4446.000000	64.005589 
4445.000000	63.996887 
4444.000000	63.975238 
4443.000000	63.939476 
4442.000000	63.891959 
4441.000000	63.839197 
4440.000000	63.791179 
4439.000000	63.759589 
4438.000000	63.755726 
4437.000000	63.787221 
4436.000000	63.855314 
4435.000000	63.953781 
4434.000000	64.069962 
4433.000000	64.186835 
4432.000000	64.286851 
4431.000000	64.355254 
4430.000000	64.383339 
4429.000000	64.369654 
4428.000000	64.319944 
4427.000000	64.245200 
4426.000000	64.159011 
4425.000000	64.073991 
4424.000000	63.999748 
4423.000000	63.941359 
4422.000000	63.899827 
4421.000000	63.873219 
4420.000000	63.859248 
4419.000000	63.855838 
4418.000000	63.862347 
4417.000000	63.879466 
4416.000000	63.909101 
4415.000000	63.952302 
4414.000000	64.008593 
4413.000000	64.076495 
4412.000000	64.153194 
4411.000000	64.235782 
4410.000000	64.320755 
4409.000000	64.403653 
4408.000000	64.479279 
4407.000000	64.542508 
4406.000000	64.588451 
4405.000000	64.612913 
4404.000000	64.613461 
4403.000000	64.590907 
4402.000000	64.548683 
4401.000000	64.493489 
4400.000000	64.433336 
4399.000000	64.377021 
4398.000000	64.330887 
4397.000000	64.300274 
4396.000000	64.284372 
4395.000000	64.274907 
4394.000000	64.262366 
4393.000000	64.242219 
4392.000000	64.207887 
4391.000000	64.151167 
4390.000000	64.069175 
4389.000000	63.966441 
4388.000000	63.847589 
4387.000000	63.718819 
4386.000000	63.592076 
4385.000000	63.483309 
4384.000000	63.418006 
4383.000000	63.422679 
4382.000000	63.503241 
4381.000000	63.649511 
4380.000000	63.846015 
4379.000000	64.071464 
4378.000000	64.297270 
4377.000000	64.498686 
4376.000000	64.661765 
4375.000000	64.781570 
4374.000000	64.870429 
4373.000000	64.934325 
4372.000000	64.981675 
4371.000000	64.988398 
4370.000000	64.908456 
4369.000000	64.662408 
4368.000000	64.163923 
4367.000000	63.332605 
4366.000000	62.129807 
4365.000000	60.557484 
4364.000000	58.675670 
4363.000000	56.571531 
4362.000000	54.361414 
4361.000000	52.174353 
4360.000000	50.163125 
4359.000000	48.534584 
4358.000000	47.539591 
4357.000000	47.455573 
4356.000000	48.519229 
4355.000000	50.850391 
4354.000000	54.390263 
4353.000000	58.851838 
4352.000000	63.763332 
4351.000000	68.537378 
4350.000000	72.590899 
4349.000000	75.467085 
4348.000000	76.916313 
4347.000000	76.939606 
4346.000000	75.762653 
4345.000000	73.778080 
4344.000000	71.432971 
4343.000000	69.141769 
4342.000000	67.194223 
4341.000000	65.745639 
4340.000000	64.793753 
4339.000000	64.245796 
4338.000000	63.955545 
4337.000000	63.802194 
4336.000000	63.697814 
4335.000000	63.611602 
4334.000000	63.544988 
4333.000000	63.518309 
4332.000000	63.548564 
4331.000000	63.639068 
4330.000000	63.783740 
4329.000000	63.966250 
4328.000000	64.166760 
4327.000000	64.365124 
4326.000000	64.545583 
4325.000000	64.697194 
4324.000000	64.816546 
4323.000000	64.903926 
4322.000000	64.953684 
4321.000000	64.960694 
4320.000000	64.931750 
4319.000000	64.873886 
4318.000000	64.788627 
4317.000000	64.679193 
4316.000000	64.558625 
4315.000000	64.437842 
4314.000000	64.325690 
4313.000000	64.225053 
4312.000000	64.130306 
4311.000000	64.037704 
4310.000000	63.950610 
4309.000000	63.870239 
4308.000000	63.795709 
4307.000000	63.726830 
4306.000000	63.664174 
4305.000000	63.608694 
4304.000000	63.561987 
4303.000000	63.526463 
4302.000000	63.504576 
4301.000000	63.497638 
4300.000000	63.505649 
4299.000000	63.525199 
4298.000000	63.551402 
4297.000000	63.578677 
4296.000000	63.602757 
4295.000000	63.620471 
4294.000000	63.631701 
4293.000000	63.639044 
4292.000000	63.647103 
4291.000000	63.660717 
4290.000000	63.683724 
4289.000000	63.717579 
4288.000000	63.761091 
4287.000000	63.810944 
4286.000000	63.861918 
4285.000000	63.908338 
4284.000000	63.945674 
4283.000000	63.971710 
4282.000000	63.986206 
4281.000000	63.990759 
4280.000000	63.987994 
4279.000000	63.980531 
4278.000000	63.969802 
4277.000000	63.955402 
4276.000000	63.935828 
4275.000000	63.908863 
4274.000000	63.872981 
4273.000000	63.828063 
4272.000000	63.776063 
4271.000000	63.721036 
4270.000000	63.667869 
4269.000000	63.622307 
4268.000000	63.588857 
4267.000000	63.571119 
4266.000000	63.570475 
4265.000000	63.586783 
4264.000000	63.618135 
4263.000000	63.661527 
4262.000000	63.713002 
4261.000000	63.768029 
4260.000000	63.821554 
4259.000000	63.868403 
4258.000000	63.903737 
4257.000000	63.923573 
4256.000000	63.925409 
4255.000000	63.908576 
4254.000000	63.874506 
4253.000000	63.826298 
4252.000000	63.767862 
4251.000000	63.702940 
4250.000000	63.634490 
4249.000000	63.563966 
4248.000000	63.492131 
4247.000000	63.419389 
4246.000000	63.347268 
4245.000000	63.278937 
4244.000000	63.219881 
4243.000000	63.176560 
4242.000000	63.155770 
4241.000000	63.162016 
4240.000000	63.196754 
4239.000000	63.256835 
4238.000000	63.335537 
4237.000000	63.422560 
4236.000000	63.506865 
4235.000000	63.578200 
4234.000000	63.629555 
4233.000000	63.657760 
4232.000000	63.663959 
4231.000000	63.652634 
4230.000000	63.629746 
4229.000000	63.600993 
4228.000000	63.570427 
4227.000000	63.539958 
4226.000000	63.509440 
4225.000000	63.477540 
4224.000000	63.443493 
4223.000000	63.407945 
4222.000000	63.374018 
4221.000000	63.346433 
4220.000000	63.329291 
4219.000000	63.324928 
4218.000000	63.333344 
4217.000000	63.351511 
4216.000000	63.374066 
4215.000000	63.394260 
4214.000000	63.406300 
4213.000000	63.406014 
4212.000000	63.391876 
4211.000000	63.365101 
4210.000000	63.328790 
4209.000000	63.287830 
4208.000000	63.247942 
4207.000000	63.214278 
4206.000000	63.190555 
4205.000000	63.177824 
4204.000000	63.174486 
4203.000000	63.175678 
4202.000000	63.174724 
4201.000000	63.164281 
4200.000000	63.138842 
4199.000000	63.096284 
4198.000000	63.039660 
4197.000000	62.977862 
4196.000000	62.924408 
4195.000000	62.895298 
4194.000000	62.904763 
4193.000000	62.961101 
4192.000000	63.063883 
4191.000000	63.203334 
4190.000000	63.361358 
4189.000000	63.515639 
4188.000000	63.643717 
4187.000000	63.728451 
4186.000000	63.760566 
4185.000000	63.740015 
4184.000000	63.675212 
4183.000000	63.579916 
4182.000000	63.470864 
4181.000000	63.364219 
4180.000000	63.273024 
4179.000000	63.206434 
4178.000000	63.167929 
4177.000000	63.156819 
4176.000000	63.168430 
4175.000000	63.196349 
4174.000000	63.232350 
4173.000000	63.268280 
4172.000000	63.296794 
4171.000000	63.312983 
4170.000000	63.315653 
4169.000000	63.308048 
4168.000000	63.297200 
4167.000000	63.292384 
4166.000000	63.303041 
4165.000000	63.335800 
4164.000000	63.392472 
4163.000000	63.468384 
4162.000000	63.554215 
4161.000000	63.636612 
4160.000000	63.701534 
4159.000000	63.737034 
