PE IR       SPECTRUM    SPECTRUM    ASCII       PEDS        1.60        
  -1
C-9C6E~1.ASC
17/03/27
19:51:26.00
17/03/27
19:51:26.00
tln
$C-4040-8_t0066$<tbV0>[-13.0,0.0,8.0,0.0,27,1,0]
370.000000
64









2002,4.07    
MIRTGS : RIGHTBACK : INTERNAL 2
MIR : ON : INTERNAL 2
OPTKBR

0.200000
8
8.000000
FILLER
RATIO
SPECTRUM
UNLOCKED 256

DOUBLE
64
COMBINED
1
0
0


1.000000
RATIO


1
0
TRUE
51149
0
LEFT NOT FITTED RIGHT NOT FITTED 0
NONE
NONE
15600
12.000000
4.427000
51148
TRUE
1 0 8 72 0 0 0 0 

15798.010000






#HDR
-1
-1
#GR
CM-1
%T
0.00002384185791015625
0.0
5000.000000
-1.000000
4631
8
91.793942
43.431401
#DATA
5000.000000	64.480161 
4999.000000	64.566278 
4998.000000	64.673352 
4997.000000	64.785313 
4996.000000	64.887785 
4995.000000	64.969491 
4994.000000	65.025186 
4993.000000	65.055513 
4992.000000	65.066337 
4991.000000	65.065813 
4990.000000	65.062284 
4989.000000	65.062522 
4988.000000	65.069365 
4987.000000	65.081858 
4986.000000	65.094995 
4985.000000	65.102005 
4984.000000	65.095162 
4983.000000	65.068173 
4982.000000	65.016770 
4981.000000	64.940190 
4980.000000	64.841842 
4979.000000	64.728999 
4978.000000	64.611625 
4977.000000	64.500522 
4976.000000	64.405846 
4975.000000	64.335155 
4974.000000	64.292478 
4973.000000	64.277887 
4972.000000	64.286518 
4971.000000	64.311718 
4970.000000	64.345192 
4969.000000	64.381408 
4968.000000	64.417624 
4967.000000	64.455914 
4966.000000	64.500737 
4965.000000	64.558482 
4964.000000	64.634346 
4963.000000	64.730024 
4962.000000	64.841938 
4961.000000	64.961409 
4960.000000	65.076351 
4959.000000	65.173530 
4958.000000	65.241599 
4957.000000	65.272831 
4956.000000	65.264678 
4955.000000	65.219569 
4954.000000	65.144515 
4953.000000	65.049409 
4952.000000	64.945554 
4951.000000	64.844155 
4950.000000	64.755201 
4949.000000	64.687156 
4948.000000	64.646172 
4947.000000	64.636588 
4946.000000	64.659404 
4945.000000	64.711499 
4944.000000	64.786219 
4943.000000	64.873170 
4942.000000	64.960885 
4941.000000	65.037679 
4940.000000	65.094804 
4939.000000	65.127563 
4938.000000	65.136265 
4937.000000	65.125608 
4936.000000	65.103268 
4935.000000	65.077900 
4934.000000	65.056896 
4933.000000	65.044999 
4932.000000	65.043258 
4931.000000	65.049576 
4930.000000	65.058994 
4929.000000	65.065383 
4928.000000	65.062260 
4927.000000	65.044522 
4926.000000	65.009307 
4925.000000	64.957046 
4924.000000	64.890718 
4923.000000	64.816236 
4922.000000	64.741587 
4921.000000	64.675831 
4920.000000	64.627623 
4919.000000	64.603734 
4918.000000	64.607405 
4917.000000	64.637923 
4916.000000	64.689636 
4915.000000	64.754796 
4914.000000	64.824295 
4913.000000	64.891266 
4912.000000	64.950847 
4911.000000	65.002822 
4910.000000	65.050625 
4909.000000	65.100026 
4908.000000	65.156483 
4907.000000	65.223360 
4906.000000	65.300321 
4905.000000	65.382599 
4904.000000	65.462303 
4903.000000	65.529203 
4902.000000	65.573382 
4901.000000	65.587878 
4900.000000	65.570378 
4899.000000	65.523314 
4898.000000	65.453004 
4897.000000	65.368366 
4896.000000	65.278267 
4895.000000	65.190243 
4894.000000	65.108346 
4893.000000	65.033650 
4892.000000	64.964127 
4891.000000	64.896488 
4890.000000	64.827513 
4889.000000	64.755582 
4888.000000	64.681744 
4887.000000	64.609169 
4886.000000	64.543437 
4885.000000	64.489793 
4884.000000	64.452958 
4883.000000	64.434790 
4882.000000	64.435100 
4881.000000	64.450883 
4880.000000	64.478659 
4879.000000	64.515066 
4878.000000	64.558410 
4877.000000	64.608573 
4876.000000	64.666390 
4875.000000	64.732336 
4874.000000	64.805150 
4873.000000	64.880418 
4872.000000	64.950966 
4871.000000	65.007305 
4870.000000	65.039920 
4869.000000	65.040898 
4868.000000	65.006589 
4867.000000	64.938282 
4866.000000	64.842915 
4865.000000	64.731550 
4864.000000	64.617061 
4863.000000	64.512085 
4862.000000	64.426755 
4861.000000	64.367842 
4860.000000	64.337658 
4859.000000	64.335680 
4858.000000	64.358901 
4857.000000	64.403939 
4856.000000	64.467215 
4855.000000	64.546012 
4854.000000	64.637374 
4853.000000	64.738631 
4852.000000	64.845824 
4851.000000	64.953923 
4850.000000	65.056395 
4849.000000	65.146088 
4848.000000	65.215969 
4847.000000	65.260553 
4846.000000	65.276741 
4845.000000	65.264582 
4844.000000	65.227127 
4843.000000	65.170001 
4842.000000	65.100026 
4841.000000	65.024328 
4840.000000	64.948773 
4839.000000	64.877843 
4838.000000	64.813971 
4837.000000	64.758062 
4836.000000	64.710021 
4835.000000	64.669728 
4834.000000	64.637446 
4833.000000	64.613652 
4832.000000	64.599251 
4831.000000	64.594650 
4830.000000	64.599561 
4829.000000	64.611601 
4828.000000	64.627218 
4827.000000	64.641737 
4826.000000	64.650726 
4825.000000	64.651083 
4824.000000	64.641904 
4823.000000	64.624619 
4822.000000	64.602780 
4821.000000	64.581251 
4820.000000	64.564538 
4819.000000	64.555692 
4818.000000	64.555788 
4817.000000	64.563894 
4816.000000	64.577531 
4815.000000	64.594006 
4814.000000	64.611315 
4813.000000	64.629006 
4812.000000	64.648342 
4811.000000	64.671492 
4810.000000	64.700150 
4809.000000	64.734792 
4808.000000	64.773845 
4807.000000	64.813995 
4806.000000	64.850783 
4805.000000	64.879846 
4804.000000	64.898490 
4803.000000	64.906167 
4802.000000	64.905238 
4801.000000	64.899897 
4800.000000	64.895081 
4799.000000	64.895248 
4798.000000	64.903497 
4797.000000	64.920663 
4796.000000	64.945268 
4795.000000	64.974737 
4794.000000	65.006518 
4793.000000	65.038657 
4792.000000	65.070343 
4791.000000	65.102005 
4790.000000	65.134906 
4789.000000	65.169954 
4788.000000	65.207099 
4787.000000	65.245342 
4786.000000	65.281987 
4785.000000	65.314078 
4784.000000	65.337824 
4783.000000	65.350389 
4782.000000	65.349411 
4781.000000	65.334272 
4780.000000	65.304851 
4779.000000	65.262794 
4778.000000	65.209960 
4777.000000	65.149044 
4776.000000	65.082216 
4775.000000	65.011668 
4774.000000	64.938759 
4773.000000	64.864587 
4772.000000	64.789795 
4771.000000	64.715194 
4770.000000	64.641618 
4769.000000	64.570283 
4768.000000	64.502906 
4767.000000	64.441514 
4766.000000	64.388298 
4765.000000	64.345049 
4764.000000	64.312887 
4763.000000	64.291930 
4762.000000	64.280986 
4761.000000	64.277720 
4760.000000	64.278960 
4759.000000	64.281320 
4758.000000	64.281439 
4757.000000	64.277052 
4756.000000	64.266729 
4755.000000	64.250564 
4754.000000	64.229655 
4753.000000	64.206314 
4752.000000	64.183425 
4751.000000	64.164137 
4750.000000	64.151215 
4749.000000	64.146447 
4748.000000	64.150238 
4747.000000	64.161610 
4746.000000	64.178466 
4745.000000	64.197564 
4744.000000	64.215040 
4743.000000	64.227366 
4742.000000	64.232349 
4741.000000	64.229178 
4740.000000	64.218640 
4739.000000	64.203524 
4738.000000	64.188146 
4737.000000	64.176964 
4736.000000	64.174008 
4735.000000	64.182400 
4734.000000	64.203763 
4733.000000	64.238023 
4732.000000	64.283132 
4731.000000	64.335918 
4730.000000	64.392209 
4729.000000	64.447212 
4728.000000	64.496326 
4727.000000	64.535260 
4726.000000	64.561057 
4725.000000	64.572143 
4724.000000	64.569258 
4723.000000	64.555048 
4722.000000	64.534163 
4721.000000	64.512586 
4720.000000	64.496397 
4719.000000	64.490890 
4718.000000	64.499354 
4717.000000	64.522814 
4716.000000	64.559674 
4715.000000	64.606094 
4714.000000	64.657521 
4713.000000	64.709711 
4712.000000	64.759492 
4711.000000	64.805030 
4710.000000	64.845895 
4709.000000	64.882326 
4708.000000	64.914202 
4707.000000	64.940285 
4706.000000	64.958262 
4705.000000	64.964866 
4704.000000	64.957118 
4703.000000	64.933180 
4702.000000	64.894270 
4701.000000	64.844298 
4700.000000	64.789986 
4699.000000	64.738917 
4698.000000	64.698433 
4697.000000	64.673233 
4696.000000	64.664554 
4695.000000	64.669561 
4694.000000	64.682245 
4693.000000	64.694619 
4692.000000	64.699125 
4691.000000	64.689970 
4690.000000	64.664602 
4689.000000	64.623951 
4688.000000	64.571785 
4687.000000	64.513897 
4686.000000	64.456224 
4685.000000	64.404106 
4684.000000	64.360952 
4683.000000	64.328575 
4682.000000	64.306712 
4681.000000	64.293766 
4680.000000	64.286947 
4679.000000	64.282441 
4678.000000	64.276361 
4677.000000	64.264559 
4676.000000	64.245033 
4675.000000	64.217114 
4674.000000	64.183449 
4673.000000	64.149260 
4672.000000	64.121651 
4671.000000	64.107918 
4670.000000	64.113879 
4669.000000	64.142227 
4668.000000	64.191102 
4667.000000	64.253973 
4666.000000	64.321208 
4665.000000	64.382004 
4664.000000	64.427161 
4663.000000	64.451050 
4662.000000	64.453005 
4661.000000	64.437150 
4660.000000	64.410924 
4659.000000	64.383125 
4658.000000	64.361381 
4657.000000	64.350700 
4656.000000	64.353132 
4655.000000	64.367938 
4654.000000	64.393186 
4653.000000	64.426350 
4652.000000	64.465308 
4651.000000	64.508390 
4650.000000	64.554190 
4649.000000	64.601445 
4648.000000	64.648079 
4647.000000	64.691710 
4646.000000	64.729571 
4645.000000	64.759206 
4644.000000	64.779257 
4643.000000	64.789438 
4642.000000	64.791202 
4641.000000	64.786529 
4640.000000	64.777851 
4639.000000	64.766788 
4638.000000	64.754009 
4637.000000	64.738869 
4636.000000	64.720082 
4635.000000	64.696073 
4634.000000	64.666128 
4633.000000	64.630389 
4632.000000	64.589977 
4631.000000	64.546823 
4630.000000	64.503097 
4629.000000	64.460587 
4628.000000	64.420700 
4627.000000	64.384341 
4626.000000	64.352321 
4625.000000	64.325213 
4624.000000	64.304184 
4623.000000	64.290213 
4622.000000	64.284467 
4621.000000	64.287972 
4620.000000	64.301037 
4619.000000	64.322352 
4618.000000	64.349460 
4617.000000	64.378547 
4616.000000	64.405727 
4615.000000	64.427232 
4614.000000	64.440894 
4613.000000	64.446282 
4612.000000	64.445304 
4611.000000	64.441466 
4610.000000	64.439368 
4609.000000	64.443445 
4608.000000	64.457249 
4607.000000	64.482760 
4606.000000	64.520192 
4605.000000	64.568161 
4604.000000	64.624428 
4603.000000	64.686155 
4602.000000	64.750218 
4601.000000	64.812874 
4600.000000	64.870405 
4599.000000	64.918637 
4598.000000	64.952993 
4597.000000	64.969325 
4596.000000	64.964580 
4595.000000	64.938092 
4594.000000	64.892005 
4593.000000	64.831781 
4592.000000	64.766120 
4591.000000	64.705491 
4590.000000	64.660501 
4589.000000	64.639568 
4588.000000	64.647388 
4587.000000	64.683508 
4586.000000	64.742708 
4585.000000	64.815640 
4584.000000	64.890742 
4583.000000	64.957380 
4582.000000	65.007805 
4581.000000	65.038919 
4580.000000	65.051841 
4579.000000	65.051722 
4578.000000	65.045619 
4577.000000	65.040397 
4576.000000	65.040802 
4575.000000	65.048503 
4574.000000	65.061712 
4573.000000	65.076708 
4572.000000	65.088748 
4571.000000	65.094184 
4570.000000	65.091252 
4569.000000	65.080881 
4568.000000	65.066123 
4567.000000	65.051054 
4566.000000	65.039491 
4565.000000	65.034270 
4564.000000	65.035963 
4563.000000	65.042972 
4562.000000	65.051484 
4561.000000	65.057897 
4560.000000	65.058279 
4559.000000	65.049672 
4558.000000	65.030431 
4557.000000	65.000414 
4556.000000	64.961290 
4555.000000	64.916396 
4554.000000	64.869809 
4553.000000	64.825558 
4552.000000	64.787888 
4551.000000	64.760875 
4550.000000	64.747428 
4549.000000	64.749073 
4548.000000	64.766025 
4547.000000	64.797234 
4546.000000	64.840316 
4545.000000	64.892554 
4544.000000	64.950013 
4543.000000	65.009593 
4542.000000	65.068411 
4541.000000	65.125823 
4540.000000	65.182733 
4539.000000	65.242147 
4538.000000	65.308308 
4537.000000	65.385079 
4536.000000	65.475177 
4535.000000	65.577340 
4534.000000	65.687489 
4533.000000	65.796113 
4532.000000	65.891194 
4531.000000	65.958333 
4530.000000	65.985131 
4529.000000	65.962266 
4528.000000	65.886354 
4527.000000	65.761137 
4526.000000	65.597748 
4525.000000	65.413594 
4524.000000	65.229821 
4523.000000	65.068101 
4522.000000	64.947199 
4521.000000	64.880323 
4520.000000	64.873313 
4519.000000	64.923596 
4518.000000	65.021419 
4517.000000	65.151834 
4516.000000	65.297889 
4515.000000	65.442276 
4514.000000	65.570878 
4513.000000	65.673780 
4512.000000	65.746593 
4511.000000	65.789055 
4510.000000	65.804648 
4509.000000	65.798616 
4508.000000	65.777111 
4507.000000	65.746259 
4506.000000	65.711545 
4505.000000	65.678477 
4504.000000	65.651202 
4503.000000	65.634131 
4502.000000	65.629434 
4501.000000	65.637540 
4500.000000	65.655827 
4499.000000	65.679240 
4498.000000	65.701174 
4497.000000	65.714740 
4496.000000	65.714359 
4495.000000	65.696859 
4494.000000	65.661668 
4493.000000	65.611171 
4492.000000	65.549993 
4491.000000	65.484547 
4490.000000	65.421056 
4489.000000	65.365719 
4488.000000	65.323400 
4487.000000	65.298199 
4486.000000	65.293169 
4485.000000	65.310311 
4484.000000	65.349292 
4483.000000	65.408444 
4482.000000	65.483808 
4481.000000	65.570306 
4480.000000	65.660905 
4479.000000	65.749025 
4478.000000	65.829014 
4477.000000	65.897488 
4476.000000	65.953850 
4475.000000	65.998673 
4474.000000	66.032600 
4473.000000	66.055393 
4472.000000	66.065955 
4471.000000	66.061735 
4470.000000	66.039800 
4469.000000	65.998601 
4468.000000	65.939068 
4467.000000	65.865421 
4466.000000	65.784883 
4465.000000	65.706443 
4464.000000	65.638995 
4463.000000	65.589094 
4462.000000	65.559792 
4461.000000	65.549683 
4460.000000	65.554165 
4459.000000	65.566706 
4458.000000	65.581274 
4457.000000	65.593576 
4456.000000	65.602755 
4455.000000	65.609860 
4454.000000	65.619111 
4453.000000	65.634036 
4452.000000	65.659499 
4451.000000	65.699768 
4450.000000	65.758490 
4449.000000	65.837574 
4448.000000	65.936470 
4447.000000	66.051864 
4446.000000	66.177058 
4445.000000	66.302752 
4444.000000	66.417789 
4443.000000	66.511178 
4442.000000	66.574144 
4441.000000	66.601848 
4440.000000	66.594386 
4439.000000	66.556668 
4438.000000	66.497874 
4437.000000	66.429066 
4436.000000	66.361355 
4435.000000	66.303420 
4434.000000	66.260576 
4433.000000	66.234040 
4432.000000	66.222953 
4431.000000	66.223907 
4430.000000	66.233277 
4429.000000	66.246390 
4428.000000	66.258001 
4427.000000	66.263127 
4426.000000	66.255211 
4425.000000	66.231131 
4424.000000	66.192054 
4423.000000	66.144013 
4422.000000	66.096210 
4421.000000	66.060352 
4420.000000	66.048526 
4419.000000	66.067910 
4418.000000	66.117763 
4417.000000	66.193175 
4416.000000	66.286516 
4415.000000	66.385102 
4414.000000	66.473150 
4413.000000	66.540646 
4412.000000	66.583323 
4411.000000	66.594958 
4410.000000	66.569352 
4409.000000	66.508293 
4408.000000	66.417670 
4407.000000	66.300153 
4406.000000	66.158962 
4405.000000	66.004705 
4404.000000	65.848731 
4403.000000	65.704560 
4402.000000	65.580868 
4401.000000	65.478062 
4400.000000	65.388727 
4399.000000	65.305829 
4398.000000	65.216112 
4397.000000	65.100455 
4396.000000	64.942717 
4395.000000	64.740419 
4394.000000	64.492273 
4393.000000	64.199185 
4392.000000	63.857626 
4391.000000	63.460350 
4390.000000	62.989997 
4389.000000	62.421083 
4388.000000	61.727023 
4387.000000	60.883331 
4386.000000	59.866070 
4385.000000	58.655834 
4384.000000	57.246327 
4383.000000	55.648469 
4382.000000	53.887462 
4381.000000	52.013826 
4380.000000	50.093865 
4379.000000	48.225951 
4378.000000	46.506166 
4377.000000	45.060610 
4376.000000	43.994426 
4375.000000	43.431401 
4374.000000	43.475341 
4373.000000	44.213414 
4372.000000	45.680904 
4371.000000	47.839260 
4370.000000	50.548577 
4369.000000	53.580284 
4368.000000	56.626915 
4367.000000	59.372377 
4366.000000	61.540484 
4365.000000	62.959456 
4364.000000	63.592123 
4363.000000	63.528490 
4362.000000	62.957644 
4361.000000	62.124562 
4360.000000	61.276030 
4359.000000	60.627436 
4358.000000	60.320758 
4357.000000	60.436511 
4356.000000	60.972166 
4355.000000	61.853098 
4354.000000	62.947797 
4353.000000	64.096331 
4352.000000	65.147566 
4351.000000	65.978288 
4350.000000	66.525936 
4349.000000	66.794276 
4348.000000	66.844344 
4347.000000	66.763329 
4346.000000	66.644334 
4345.000000	66.562795 
4344.000000	66.556859 
4343.000000	66.631078 
4342.000000	66.754746 
4341.000000	66.886377 
4340.000000	66.981434 
4339.000000	67.016458 
4338.000000	66.982054 
4337.000000	66.883659 
4336.000000	66.744112 
4335.000000	66.596889 
4334.000000	66.466617 
4333.000000	66.362786 
4332.000000	66.287064 
4331.000000	66.233491 
4330.000000	66.194009 
4329.000000	66.161656 
4328.000000	66.132164 
4327.000000	66.105556 
4326.000000	66.084122 
4325.000000	66.072034 
4324.000000	66.072297 
4323.000000	66.086363 
4322.000000	66.110348 
4321.000000	66.138315 
4320.000000	66.166973 
4319.000000	66.192603 
4318.000000	66.209816 
4317.000000	66.214442 
4316.000000	66.204714 
4315.000000	66.180896 
4314.000000	66.145348 
4313.000000	66.101837 
4312.000000	66.054749 
4311.000000	66.008901 
4310.000000	65.968751 
4309.000000	65.936994 
4308.000000	65.914416 
4307.000000	65.899062 
4306.000000	65.887475 
4305.000000	65.876173 
4304.000000	65.862989 
4303.000000	65.848875 
4302.000000	65.837192 
4301.000000	65.832424 
4300.000000	65.838384 
4299.000000	65.856361 
4298.000000	65.884375 
4297.000000	65.916895 
4296.000000	65.946483 
4295.000000	65.965247 
4294.000000	65.967488 
4293.000000	65.951323 
4292.000000	65.919232 
4291.000000	65.877413 
4290.000000	65.834450 
4289.000000	65.798735 
4288.000000	65.776896 
4287.000000	65.771889 
4286.000000	65.783643 
4285.000000	65.809559 
4284.000000	65.845632 
4283.000000	65.887904 
4282.000000	65.932703 
4281.000000	65.976905 
4280.000000	66.017270 
4279.000000	66.050291 
4278.000000	66.072249 
4277.000000	66.079378 
4276.000000	66.069030 
4275.000000	66.040277 
4274.000000	65.994644 
4273.000000	65.935850 
4272.000000	65.870046 
4271.000000	65.803861 
4270.000000	65.743231 
4269.000000	65.692114 
4268.000000	65.652084 
4267.000000	65.622329 
4266.000000	65.600490 
4265.000000	65.583539 
4264.000000	65.568947 
4263.000000	65.555453 
4262.000000	65.543007 
4261.000000	65.532374 
4260.000000	65.523862 
4259.000000	65.517425 
4258.000000	65.512061 
4257.000000	65.505862 
4256.000000	65.496444 
4255.000000	65.481233 
4254.000000	65.458369 
4253.000000	65.426921 
4252.000000	65.387368 
4251.000000	65.341973 
4250.000000	65.294623 
4249.000000	65.250229 
4248.000000	65.214443 
4247.000000	65.192580 
4246.000000	65.189194 
4245.000000	65.207099 
4244.000000	65.247321 
4243.000000	65.308570 
4242.000000	65.386891 
4241.000000	65.476584 
4240.000000	65.569806 
4239.000000	65.657758 
4238.000000	65.731239 
4237.000000	65.782260 
4236.000000	65.804529 
4235.000000	65.794897 
4234.000000	65.753388 
4233.000000	65.683746 
4232.000000	65.592741 
4231.000000	65.489673 
4230.000000	65.384626 
4229.000000	65.287256 
4228.000000	65.205407 
4227.000000	65.144467 
4226.000000	65.106439 
4225.000000	65.090537 
4224.000000	65.094089 
4223.000000	65.113425 
4222.000000	65.144729 
4221.000000	65.184497 
4220.000000	65.228748 
4219.000000	65.273642 
4218.000000	65.315032 
4217.000000	65.349268 
4216.000000	65.372967 
4215.000000	65.383672 
4214.000000	65.380978 
4213.000000	65.365529 
4212.000000	65.339827 
4211.000000	65.306639 
4210.000000	65.268778 
4209.000000	65.228152 
4208.000000	65.186405 
4207.000000	65.143632 
4206.000000	65.099215 
4205.000000	65.051507 
4204.000000	64.999222 
4203.000000	64.940667 
4202.000000	64.874863 
4201.000000	64.801383 
4200.000000	64.721131 
4199.000000	64.636898 
4198.000000	64.553952 
4197.000000	64.480137 
4196.000000	64.425396 
4195.000000	64.400625 
4194.000000	64.415478 
4193.000000	64.475464 
4192.000000	64.580154 
4191.000000	64.721965 
4190.000000	64.886808 
4189.000000	65.056157 
4188.000000	65.209984 
4187.000000	65.330815 
4186.000000	65.405917 
4185.000000	65.429854 
4184.000000	65.403819 
4183.000000	65.335536 
4182.000000	65.236210 
4181.000000	65.118360 
4180.000000	64.993190 
4179.000000	64.870142 
4178.000000	64.755606 
4177.000000	64.653873 
4176.000000	64.567565 
4175.000000	64.499139 
4174.000000	64.450049 
4173.000000	64.421224 
4172.000000	64.412403 
4171.000000	64.422130 
4170.000000	64.447736 
4169.000000	64.485931 
4168.000000	64.533257 
4167.000000	64.586758 
4166.000000	64.643859 
4165.000000	64.702582 
4164.000000	64.761114 
4163.000000	64.817547 
4162.000000	64.869785 
4161.000000	64.915156 
4160.000000	64.950895 
4159.000000	64.974188 
