PE IR       SPECTRUM    SPECTRUM    ASCII       PEDS        1.60        
  -1
C-4C8C~1.ASC
17/03/27
23:15:06.00
17/03/27
23:15:06.00
tln
$C-4040-8_t0107$<tbV0>[-5.2,10.4,8.0,0.0,27,1,0]
370.000000
64









2002,4.07    
MIRTGS : RIGHTBACK : INTERNAL 2
MIR : ON : INTERNAL 2
OPTKBR

0.200000
8
8.000000
FILLER
RATIO
SPECTRUM
UNLOCKED 256

DOUBLE
64
COMBINED
1
0
0


1.000000
RATIO


1
0
TRUE
51149
0
LEFT NOT FITTED RIGHT NOT FITTED 0
NONE
NONE
15600
12.000000
4.427000
51148
TRUE
1 0 8 72 0 0 0 0 

15798.010000






#HDR
-1
-1
#GR
CM-1
%T
0.00002384185791015625
0.0
5000.000000
-1.000000
4631
8
102.853679
40.889978
#DATA
5000.000000	65.464043  
4999.000000	65.336966  
4998.000000	65.169954  
4997.000000	64.979982  
4996.000000	64.788103  
4995.000000	64.616036  
4994.000000	64.482808  
4993.000000	64.401221  
4992.000000	64.376831  
4991.000000	64.407825  
4990.000000	64.485859  
4989.000000	64.598035  
4988.000000	64.728927  
4987.000000	64.862561  
4986.000000	64.984560  
4985.000000	65.082907  
4984.000000	65.149998  
4983.000000	65.182566  
4982.000000	65.182423  
4981.000000	65.155196  
4980.000000	65.108919  
4979.000000	65.051531  
4978.000000	64.990568  
4977.000000	64.930510  
4976.000000	64.873266  
4975.000000	64.817094  
4974.000000	64.758253  
4973.000000	64.691829  
4972.000000	64.613723  
4971.000000	64.522671  
4970.000000	64.420008  
4969.000000	64.311981  
4968.000000	64.207816  
4967.000000	64.120054  
4966.000000	64.060735  
4965.000000	64.040207  
4964.000000	64.064073  
4963.000000	64.131784  
4962.000000	64.236187  
4961.000000	64.364385  
4960.000000	64.499592  
4959.000000	64.624834  
4958.000000	64.725422  
4957.000000	64.793395  
4956.000000	64.828467  
4955.000000	64.837527  
4954.000000	64.831948  
4953.000000	64.824604  
4952.000000	64.825391  
4951.000000	64.839148  
4950.000000	64.863657  
4949.000000	64.891290  
4948.000000	64.910769  
4947.000000	64.912676  
4946.000000	64.891004  
4945.000000	64.845490  
4944.000000	64.780998  
4943.000000	64.707183  
4942.000000	64.634418  
4941.000000	64.570617  
4940.000000	64.519166  
4939.000000	64.478611  
4938.000000	64.443206  
4937.000000	64.405655  
4936.000000	64.359593  
4935.000000	64.302325  
4934.000000	64.235496  
4933.000000	64.164757  
4932.000000	64.097881  
4931.000000	64.042210  
4930.000000	64.003300  
4929.000000	63.983416  
4928.000000	63.981223  
4927.000000	63.992524  
4926.000000	64.012432  
4925.000000	64.037132  
4924.000000	64.064431  
4923.000000	64.094710  
4922.000000	64.129614  
4921.000000	64.172196  
4920.000000	64.225006  
4919.000000	64.289593  
4918.000000	64.365434  
4917.000000	64.449954  
4916.000000	64.539504  
4915.000000	64.628601  
4914.000000	64.711713  
4913.000000	64.782524  
4912.000000	64.835309  
4911.000000	64.865350  
4910.000000	64.869976  
4909.000000	64.849019  
4908.000000	64.805650  
4907.000000	64.745426  
4906.000000	64.675951  
4905.000000	64.605522  
4904.000000	64.542388  
4903.000000	64.492249  
4902.000000	64.457750  
4901.000000	64.438724  
4900.000000	64.433240  
4899.000000	64.438080  
4898.000000	64.450812  
4897.000000	64.470696  
4896.000000	64.499449  
4895.000000	64.540386  
4894.000000	64.597463  
4893.000000	64.672851  
4892.000000	64.765405  
4891.000000	64.870595  
4890.000000	64.979124  
4889.000000	65.078926  
4888.000000	65.156149  
4887.000000	65.198755  
4886.000000	65.197849  
4885.000000	65.149784  
4884.000000	65.057659  
4883.000000	64.931368  
4882.000000	64.786505  
4881.000000	64.641284  
4880.000000	64.514994  
4879.000000	64.424657  
4878.000000	64.382743  
4877.000000	64.395260  
4876.000000	64.461088  
4875.000000	64.572501  
4874.000000	64.716649  
4873.000000	64.877748  
4872.000000	65.039062  
4871.000000	65.185570  
4870.000000	65.305614  
4869.000000	65.392255  
4868.000000	65.443491  
4867.000000	65.461111  
4866.000000	65.450215  
4865.000000	65.416407  
4864.000000	65.365719  
4863.000000	65.301823  
4862.000000	65.228271  
4861.000000	65.146446  
4860.000000	65.058207  
4859.000000	64.965200  
4858.000000	64.871096  
4857.000000	64.780116  
4856.000000	64.697027  
4855.000000	64.626121  
4854.000000	64.570021  
4853.000000	64.529800  
4852.000000	64.504408  
4851.000000	64.492106  
4850.000000	64.490771  
4849.000000	64.499258  
4848.000000	64.517569  
4847.000000	64.546680  
4846.000000	64.587569  
4845.000000	64.640307  
4844.000000	64.702796  
4843.000000	64.769649  
4842.000000	64.833211  
4841.000000	64.885210  
4840.000000	64.918851  
4839.000000	64.930129  
4838.000000	64.920234  
4837.000000	64.895462  
4836.000000	64.866685  
4835.000000	64.846372  
4834.000000	64.846181  
4833.000000	64.874458  
4832.000000	64.933991  
4831.000000	65.021681  
4830.000000	65.128803  
4829.000000	65.243411  
4828.000000	65.352392  
4827.000000	65.445041  
4826.000000	65.513634  
4825.000000	65.554666  
4824.000000	65.568351  
4823.000000	65.558028  
4822.000000	65.527725  
4821.000000	65.481257  
4820.000000	65.421891  
4819.000000	65.352606  
4818.000000	65.276789  
4817.000000	65.198945  
4816.000000	65.125536  
4815.000000	65.064024  
4814.000000	65.021634  
4813.000000	65.003323  
4812.000000	65.010356  
4811.000000	65.039062  
4810.000000	65.081071  
4809.000000	65.124773  
4808.000000	65.157079  
4807.000000	65.167021  
4806.000000	65.147709  
4805.000000	65.098524  
4804.000000	65.024662  
4803.000000	64.936852  
4802.000000	64.848232  
4801.000000	64.772295  
4800.000000	64.719605  
4799.000000	64.696431  
4798.000000	64.704012  
4797.000000	64.738273  
4796.000000	64.791202  
4795.000000	64.852833  
4794.000000	64.913606  
4793.000000	64.965510  
4792.000000	65.003967  
4791.000000	65.028452  
4790.000000	65.042233  
4789.000000	65.051531  
4788.000000	65.063595  
4787.000000	65.084600  
4786.000000	65.117549  
4785.000000	65.162229  
4784.000000	65.214347  
4783.000000	65.267348  
4782.000000	65.313625  
4781.000000	65.347123  
4780.000000	65.364670  
4779.000000	65.367197  
4778.000000	65.359091  
4777.000000	65.346908  
4776.000000	65.337252  
4775.000000	65.335369  
4774.000000	65.342879  
4773.000000	65.357637  
4772.000000	65.374469  
4771.000000	65.386915  
4770.000000	65.389466  
4769.000000	65.379405  
4768.000000	65.357494  
4767.000000	65.327954  
4766.000000	65.297269  
4765.000000	65.272307  
4764.000000	65.258860  
4763.000000	65.260004  
4762.000000	65.275430  
4761.000000	65.301585  
4760.000000	65.333271  
4759.000000	65.364480  
4758.000000	65.390348  
4757.000000	65.407514  
4756.000000	65.415096  
4755.000000	65.413475  
4754.000000	65.404558  
4753.000000	65.389633  
4752.000000	65.369296  
4751.000000	65.342664  
4750.000000	65.307855  
4749.000000	65.262818  
4748.000000	65.206789  
4747.000000	65.140533  
4746.000000	65.067100  
4745.000000	64.991259  
4744.000000	64.918780  
4743.000000	64.855313  
4742.000000	64.805197  
4741.000000	64.771246  
4740.000000	64.754176  
4739.000000	64.752721  
4738.000000	64.763855  
4737.000000	64.783263  
4736.000000	64.806485  
4735.000000	64.829087  
4734.000000	64.848065  
4733.000000	64.861655  
4732.000000	64.870595  
4731.000000	64.877629  
4730.000000	64.886999  
4729.000000	64.903807  
4728.000000	64.932012  
4727.000000	64.973807  
4726.000000	65.027523  
4725.000000	65.087938  
4724.000000	65.146565  
4723.000000	65.193819  
4722.000000	65.221166  
4721.000000	65.223550  
4720.000000	65.200614  
4719.000000	65.157723  
4718.000000	65.103363  
4717.000000	65.047407  
4716.000000	64.998078  
4715.000000	64.960384  
4714.000000	64.935374  
4713.000000	64.920592  
4712.000000	64.912247  
4711.000000	64.906907  
4710.000000	64.903402  
4709.000000	64.903306  
4708.000000	64.909934  
4707.000000	64.927291  
4706.000000	64.957976  
4705.000000	65.002107  
4704.000000	65.056109  
4703.000000	65.113711  
4702.000000	65.167307  
4701.000000	65.210103  
4700.000000	65.238332  
4699.000000	65.251541  
4698.000000	65.252661  
4697.000000	65.246701  
4696.000000	65.238976  
4695.000000	65.233492  
4694.000000	65.231943  
4693.000000	65.233302  
4692.000000	65.234875  
4691.000000	65.232944  
4690.000000	65.224790  
4689.000000	65.209078  
4688.000000	65.186572  
4687.000000	65.159392  
4686.000000	65.130162  
4685.000000	65.101051  
4684.000000	65.073060  
4683.000000	65.045332  
4682.000000	65.015888  
4681.000000	64.982700  
4680.000000	64.945435  
4679.000000	64.906024  
4678.000000	64.869523  
4677.000000	64.842939  
4676.000000	64.834022  
4675.000000	64.848971  
4674.000000	64.890813  
4673.000000	64.957737  
4672.000000	65.043449  
4671.000000	65.138125  
4670.000000	65.230274  
4669.000000	65.308976  
4668.000000	65.366244  
4667.000000	65.397953  
4666.000000	65.404605  
4665.000000	65.390586  
4664.000000	65.362811  
4663.000000	65.328860  
4662.000000	65.295791  
4661.000000	65.268969  
4660.000000	65.251731  
4659.000000	65.245580  
4658.000000	65.250492  
4657.000000	65.265464  
4656.000000	65.288949  
4655.000000	65.319418  
4654.000000	65.354728  
4653.000000	65.392851  
4652.000000	65.431880  
4651.000000	65.470385  
4650.000000	65.507221  
4649.000000	65.541529  
4648.000000	65.572118  
4647.000000	65.597844  
4646.000000	65.617513  
4645.000000	65.630292  
4644.000000	65.635943  
4643.000000	65.635156  
4642.000000	65.629792  
4641.000000	65.622282  
4640.000000	65.615797  
4639.000000	65.612673  
4638.000000	65.614008  
4637.000000	65.619015  
4636.000000	65.625977  
4635.000000	65.631651  
4634.000000	65.632367  
4633.000000	65.624761  
4632.000000	65.606498  
4631.000000	65.576410  
4630.000000	65.534639  
4629.000000	65.481853  
4628.000000	65.419411  
4627.000000	65.348768  
4626.000000	65.272569  
4625.000000	65.194535  
4624.000000	65.120220  
4623.000000	65.056729  
4622.000000	65.011882  
4621.000000	64.992713  
4620.000000	65.003895  
4619.000000	65.045738  
4618.000000	65.113568  
4617.000000	65.198063  
4616.000000	65.286827  
4615.000000	65.366363  
4614.000000	65.424609  
4613.000000	65.453100  
4612.000000	65.448474  
4611.000000	65.412902  
4610.000000	65.352940  
4609.000000	65.277791  
4608.000000	65.197205  
4607.000000	65.119719  
4606.000000	65.051198  
4605.000000	64.994525  
4604.000000	64.950156  
4603.000000	64.917302  
4602.000000	64.895224  
4601.000000	64.884495  
4600.000000	64.886140  
4599.000000	64.901781  
4598.000000	64.932227  
4597.000000	64.977145  
4596.000000	65.033411  
4595.000000	65.095996  
4594.000000	65.157938  
4593.000000	65.212631  
4592.000000	65.254998  
4591.000000	65.283036  
4590.000000	65.297937  
4589.000000	65.303850  
4588.000000	65.307021  
4587.000000	65.313482  
4586.000000	65.327668  
4585.000000	65.350866  
4584.000000	65.381169  
4583.000000	65.414047  
4582.000000	65.443897  
4581.000000	65.465021  
4580.000000	65.473532  
4579.000000	65.466690  
4578.000000	65.443348  
4577.000000	65.403342  
4576.000000	65.347218  
4575.000000	65.275645  
4574.000000	65.189862  
4573.000000	65.091872  
4572.000000	64.985203  
4571.000000	64.875626  
4570.000000	64.771127  
4569.000000	64.679694  
4568.000000	64.609456  
4567.000000	64.567279  
4566.000000	64.557790  
4565.000000	64.580893  
4564.000000	64.632964  
4563.000000	64.706563  
4562.000000	64.792513  
4561.000000	64.880371  
4560.000000	64.961028  
4559.000000	65.027117  
4558.000000	65.074872  
4557.000000	65.103769  
4556.000000	65.116739  
4555.000000	65.118479  
4554.000000	65.115070  
4553.000000	65.112495  
4552.000000	65.115165  
4551.000000	65.124511  
4550.000000	65.139031  
4549.000000	65.153956  
4548.000000	65.161895  
4547.000000	65.153431  
4546.000000	65.119194  
4545.000000	65.050816  
4544.000000	64.942336  
4543.000000	64.792323  
4542.000000	64.603877  
4541.000000	64.386534  
4540.000000	64.154458  
4539.000000	63.926839  
4538.000000	63.724184  
4537.000000	63.567018  
4536.000000	63.471460  
4535.000000	63.447833  
4534.000000	63.497400  
4533.000000	63.613414  
4532.000000	63.780999  
4531.000000	63.980555  
4530.000000	64.189505  
4529.000000	64.387512  
4528.000000	64.558553  
4527.000000	64.692926  
4526.000000	64.786887  
4525.000000	64.842319  
4524.000000	64.864373  
4523.000000	64.859628  
4522.000000	64.833855  
4521.000000	64.791417  
4520.000000	64.734482  
4519.000000	64.665031  
4518.000000	64.584946  
4517.000000	64.497518  
4516.000000	64.407086  
4515.000000	64.319682  
4514.000000	64.241838  
4513.000000	64.178514  
4512.000000	64.133048  
4511.000000	64.106035  
4510.000000	64.096117  
4509.000000	64.099311  
4508.000000	64.111089  
4507.000000	64.127635  
4506.000000	64.146280  
4505.000000	64.164972  
4504.000000	64.182639  
4503.000000	64.198493  
4502.000000	64.211416  
4501.000000	64.219689  
4500.000000	64.220905  
4499.000000	64.212512  
4498.000000	64.193177  
4497.000000	64.163446  
4496.000000	64.125561  
4495.000000	64.083003  
4494.000000	64.040470  
4493.000000	64.002943  
4492.000000	63.974070  
4491.000000	63.955807  
4490.000000	63.948559  
4489.000000	63.951611  
4488.000000	63.963270  
4487.000000	63.981962  
4486.000000	64.006567  
4485.000000	64.036512  
4484.000000	64.071273  
4483.000000	64.110326  
4482.000000	64.151716  
4481.000000	64.193224  
4480.000000	64.232087  
4479.000000	64.266133  
4478.000000	64.294004  
4477.000000	64.316225  
4476.000000	64.335179  
4475.000000	64.354562  
4474.000000	64.378428  
4473.000000	64.409446  
4472.000000	64.447999  
4471.000000	64.491868  
4470.000000	64.536619  
4469.000000	64.576268  
4468.000000	64.604496  
4467.000000	64.615368  
4466.000000	64.604306  
4465.000000	64.568924  
4464.000000	64.509248  
4463.000000	64.427256  
4462.000000	64.326715  
4461.000000	64.213109  
4460.000000	64.093065  
4459.000000	63.973379  
4458.000000	63.861298  
4457.000000	63.763236  
4456.000000	63.685727  
4455.000000	63.635063  
4454.000000	63.616275  
4453.000000	63.632011  
4452.000000	63.680386  
4451.000000	63.754415  
4450.000000	63.841915  
4449.000000	63.926482  
4448.000000	63.991665  
4447.000000	64.024305  
4446.000000	64.017105  
4445.000000	63.969850  
4444.000000	63.889980  
4443.000000	63.791131  
4442.000000	63.689064  
4441.000000	63.598585  
4440.000000	63.532805  
4439.000000	63.500833  
4438.000000	63.507008  
4437.000000	63.549947  
4436.000000	63.624310  
4435.000000	63.720059  
4434.000000	63.823676  
4433.000000	63.919878  
4432.000000	63.993310  
4431.000000	64.031982  
4430.000000	64.026737  
4429.000000	63.976979  
4428.000000	63.887190  
4427.000000	63.770794  
4426.000000	63.658452  
4425.000000	63.576507  
4424.000000	63.531255  
4423.000000	63.519644  
4422.000000	63.538312  
4421.000000	63.570785  
4420.000000	63.588047  
4419.000000	63.568162  
4418.000000	63.506579  
4417.000000	63.398456  
4416.000000	63.239979  
4415.000000	63.029980  
4414.000000	62.770295  
4413.000000	62.482380  
4412.000000	62.200856  
4411.000000	61.957669  
4410.000000	61.773133  
4409.000000	61.660552  
4408.000000	61.614036  
4407.000000	61.596965  
4406.000000	61.562514  
4405.000000	61.447715  
4404.000000	61.232304  
4403.000000	60.901451  
4402.000000	60.540151  
4401.000000	60.312557  
4400.000000	60.466647  
4399.000000	61.268091  
4398.000000	62.941932  
4397.000000	65.572309  
4396.000000	69.107365  
4395.000000	73.310804  
4394.000000	77.893686  
4393.000000	82.575035  
4392.000000	87.126421  
4391.000000	91.413688  
4390.000000	95.264244  
4389.000000	98.451924  
4388.000000	100.642061 
4387.000000	101.447272 
4386.000000	100.584626 
4385.000000	97.952914  
4384.000000	93.793106  
4383.000000	88.606381  
4382.000000	83.045458  
4381.000000	77.759456  
4380.000000	73.212599  
4379.000000	69.644474  
4378.000000	67.087364  
4377.000000	65.404558  
4376.000000	64.438152  
4375.000000	64.011478  
4374.000000	63.968539  
4373.000000	64.194464  
4372.000000	64.524960  
4371.000000	64.853453  
4370.000000	65.081477  
4369.000000	65.177893  
4368.000000	65.154910  
4367.000000	65.064001  
4366.000000	64.966845  
4365.000000	64.905095  
4364.000000	64.874172  
4363.000000	64.854311  
4362.000000	64.819836  
4361.000000	64.745759  
4360.000000	64.618706  
4359.000000	64.443206  
4358.000000	64.240550  
4357.000000	64.028453  
4356.000000	63.822484  
4355.000000	63.635730  
4354.000000	63.477516  
4353.000000	63.362860  
4352.000000	63.304710  
4351.000000	63.297224  
4350.000000	63.327765  
4349.000000	63.392710  
4348.000000	63.486361  
4347.000000	63.588142  
4346.000000	63.678836  
4345.000000	63.748860  
4344.000000	63.793373  
4343.000000	63.809180  
4342.000000	63.798809  
4341.000000	63.767457  
4340.000000	63.724517  
4339.000000	63.681793  
4338.000000	63.650870  
4337.000000	63.640904  
4336.000000	63.656735  
4335.000000	63.698220  
4334.000000	63.760662  
4333.000000	63.836264  
4332.000000	63.915610  
4331.000000	63.990092  
4330.000000	64.054131  
4329.000000	64.105772  
4328.000000	64.145612  
4327.000000	64.176464  
4326.000000	64.201736  
4325.000000	64.224338  
4324.000000	64.245486  
4323.000000	64.264631  
4322.000000	64.281487  
4321.000000	64.294862  
4320.000000	64.304399  
4319.000000	64.309620  
4318.000000	64.311122  
4317.000000	64.309048  
4316.000000	64.303255  
4315.000000	64.292669  
4314.000000	64.275288  
4313.000000	64.249253  
4312.000000	64.214062  
4311.000000	64.171075  
4310.000000	64.123725  
4309.000000	64.077377  
4308.000000	64.038419  
4307.000000	64.013147  
4306.000000	64.006328  
4305.000000	64.020013  
4304.000000	64.052891  
4303.000000	64.100718  
4302.000000	64.156484  
4301.000000	64.211845  
4300.000000	64.258122  
4299.000000	64.287590  
4298.000000	64.295315  
4297.000000	64.279508  
4296.000000	64.242482  
4295.000000	64.190196  
4294.000000	64.131259  
4293.000000	64.075303  
4292.000000	64.030814  
4291.000000	64.004588  
4290.000000	63.998866  
4289.000000	64.011716  
4288.000000	64.037013  
4287.000000	64.066147  
4286.000000	64.090514  
4285.000000	64.103722  
4284.000000	64.103579  
4283.000000	64.092206  
4282.000000	64.076137  
4281.000000	64.064168  
4280.000000	64.065122  
4279.000000	64.085507  
4278.000000	64.127850  
4277.000000	64.190220  
4276.000000	64.266920  
4275.000000	64.350223  
4274.000000	64.432001  
4273.000000	64.506316  
4272.000000	64.569902  
4271.000000	64.623618  
4270.000000	64.671087  
4269.000000	64.718079  
4268.000000	64.770007  
4267.000000	64.830493  
4266.000000	64.901041  
4265.000000	64.979219  
4264.000000	65.060639  
4263.000000	65.137648  
4262.000000	65.202212  
4261.000000	65.245771  
4260.000000	65.262341  
4259.000000	65.248298  
4258.000000	65.203952  
4257.000000	65.133309  
4256.000000	65.043830  
4255.000000	64.945363  
4254.000000	64.848685  
4253.000000	64.763951  
4252.000000	64.699149  
4251.000000	64.659142  
4250.000000	64.645004  
4249.000000	64.654374  
4248.000000	64.681649  
4247.000000	64.719176  
4246.000000	64.758610  
4245.000000	64.791536  
4244.000000	64.811491  
4243.000000	64.814591  
4242.000000	64.800238  
4241.000000	64.770126  
4240.000000	64.728379  
4239.000000	64.680409  
4238.000000	64.631962  
4237.000000	64.588165  
4236.000000	64.552569  
4235.000000	64.526772  
4234.000000	64.510464  
4233.000000	64.501833  
4232.000000	64.498138  
4231.000000	64.497017  
4230.000000	64.496660  
4229.000000	64.496040  
4228.000000	64.495682  
4227.000000	64.497256  
4226.000000	64.503264  
4225.000000	64.516258  
4224.000000	64.538192  
4223.000000	64.569759  
4222.000000	64.610266  
4221.000000	64.657402  
4220.000000	64.706897  
4219.000000	64.753460  
4218.000000	64.792060  
4217.000000	64.819145  
4216.000000	64.832401  
4215.000000	64.832758  
4214.000000	64.824342  
4213.000000	64.813804  
4212.000000	64.808797  
4211.000000	64.816093  
4210.000000	64.840722  
4209.000000	64.883160  
4208.000000	64.939403  
4207.000000	65.000915  
4206.000000	65.056872  
4205.000000	65.096330  
4204.000000	65.111064  
4203.000000	65.097379  
4202.000000	65.056800  
4201.000000	64.996004  
4200.000000	64.925217  
4199.000000	64.855003  
4198.000000	64.794158  
4197.000000	64.747881  
4196.000000	64.717984  
4195.000000	64.702773  
4194.000000	64.700007  
