PE IR       SPECTRUM    SPECTRUM    ASCII       PEDS        1.60        
  -1
C-9DEF~1.ASC
17/03/27
21:35:42.00
17/03/27
21:35:42.00
tln
$C-4040-8_t0087$<tbV0>[-10.4,5.2,8.0,0.0,27,1,0]
370.000000
64









2002,4.07    
MIRTGS : RIGHTBACK : INTERNAL 2
MIR : ON : INTERNAL 2
OPTKBR

0.200000
8
8.000000
FILLER
RATIO
SPECTRUM
UNLOCKED 256

DOUBLE
64
COMBINED
1
0
0


1.000000
RATIO


1
0
TRUE
51149
0
LEFT NOT FITTED RIGHT NOT FITTED 0
NONE
NONE
15600
12.000000
4.427000
51148
TRUE
1 0 8 72 0 0 0 0 

15798.010000






#HDR
-1
-1
#GR
CM-1
%T
0.00002384185791015625
0.0
5000.000000
-1.000000
4631
8
92.189478
32.326531
#DATA
5000.000000	65.467619 
4999.000000	65.415763 
4998.000000	65.372705 
4997.000000	65.340876 
4996.000000	65.316772 
4995.000000	65.293860 
4994.000000	65.263533 
4993.000000	65.219140 
4992.000000	65.156602 
4991.000000	65.075564 
4990.000000	64.979887 
4989.000000	64.876627 
4988.000000	64.774441 
4987.000000	64.681529 
4986.000000	64.603114 
4985.000000	64.540243 
4984.000000	64.489483 
4983.000000	64.444422 
4982.000000	64.397406 
4981.000000	64.342713 
4980.000000	64.278960 
4979.000000	64.211487 
4978.000000	64.150643 
4977.000000	64.111018 
4976.000000	64.107537 
4975.000000	64.152455 
4974.000000	64.249563 
4973.000000	64.394521 
4972.000000	64.575004 
4971.000000	64.773631 
4970.000000	64.970827 
4969.000000	65.149736 
4968.000000	65.298771 
4967.000000	65.413022 
4966.000000	65.494370 
4965.000000	65.548253 
4964.000000	65.581154 
4963.000000	65.597534 
4962.000000	65.599179 
4961.000000	65.584659 
4960.000000	65.551543 
4959.000000	65.498971 
4958.000000	65.430402 
4957.000000	65.353941 
4956.000000	65.281534 
4955.000000	65.226840 
4954.000000	65.201497 
4953.000000	65.211248 
4952.000000	65.253353 
4951.000000	65.316963 
4950.000000	65.384888 
4949.000000	65.437412 
4948.000000	65.457296 
4947.000000	65.433740 
4946.000000	65.365409 
4945.000000	65.260028 
4944.000000	65.132808 
4943.000000	65.001702 
4942.000000	64.883947 
4941.000000	64.791989 
4940.000000	64.731335 
4939.000000	64.700007 
4938.000000	64.690375 
4937.000000	64.693164 
4936.000000	64.699149 
4935.000000	64.701867 
4934.000000	64.698791 
4933.000000	64.690876 
4932.000000	64.681458 
4931.000000	64.673829 
4930.000000	64.670491 
4929.000000	64.672207 
4928.000000	64.678239 
4927.000000	64.686894 
4926.000000	64.697313 
4925.000000	64.710092 
4924.000000	64.727425 
4923.000000	64.752435 
4922.000000	64.787578 
4921.000000	64.833760 
4920.000000	64.889001 
4919.000000	64.948964 
4918.000000	65.007781 
4917.000000	65.059256 
4916.000000	65.098595 
4915.000000	65.123319 
4914.000000	65.133047 
4913.000000	65.130352 
4912.000000	65.119743 
4911.000000	65.107297 
4910.000000	65.099048 
4909.000000	65.100336 
4908.000000	65.115618 
4907.000000	65.145921 
4906.000000	65.189218 
4905.000000	65.239286 
4904.000000	65.287017 
4903.000000	65.321111 
4902.000000	65.330314 
4901.000000	65.305948 
4900.000000	65.244054 
4899.000000	65.147113 
4898.000000	65.023851 
4897.000000	64.888072 
4896.000000	64.755797 
4895.000000	64.641475 
4894.000000	64.555692 
4893.000000	64.502620 
4892.000000	64.480996 
4891.000000	64.485239 
4890.000000	64.508056 
4889.000000	64.542603 
4888.000000	64.583921 
4887.000000	64.629149 
4886.000000	64.676737 
4885.000000	64.724254 
4884.000000	64.768528 
4883.000000	64.804363 
4882.000000	64.826488 
4881.000000	64.830183 
4880.000000	64.814019 
4879.000000	64.780855 
4878.000000	64.737749 
4877.000000	64.694833 
4876.000000	64.661860 
4875.000000	64.646029 
4874.000000	64.649271 
4873.000000	64.668059 
4872.000000	64.694929 
4871.000000	64.721131 
4870.000000	64.739894 
4869.000000	64.748430 
4868.000000	64.748430 
4867.000000	64.745593 
4866.000000	64.747238 
4865.000000	64.760160 
4864.000000	64.786863 
4863.000000	64.825820 
4862.000000	64.871859 
4861.000000	64.917707 
4860.000000	64.956426 
4859.000000	64.982914 
4858.000000	64.996337 
4857.000000	64.998865 
4856.000000	64.994859 
4855.000000	64.988923 
4854.000000	64.983940 
4853.000000	64.980244 
4852.000000	64.975595 
4851.000000	64.966034 
4850.000000	64.947748 
4849.000000	64.918017 
4848.000000	64.876723 
4847.000000	64.825963 
4846.000000	64.770078 
4845.000000	64.714431 
4844.000000	64.665079 
4843.000000	64.627432 
4842.000000	64.606237 
4841.000000	64.605116 
4840.000000	64.626407 
4839.000000	64.670968 
4838.000000	64.737629 
4837.000000	64.822578 
4836.000000	64.919686 
4835.000000	65.020108 
4834.000000	65.114784 
4833.000000	65.195178 
4832.000000	65.255832 
4831.000000	65.295243 
4830.000000	65.316390 
4829.000000	65.326237 
4828.000000	65.333127 
4827.000000	65.344929 
4826.000000	65.366005 
4825.000000	65.396666 
4824.000000	65.432190 
4823.000000	65.464615 
4822.000000	65.484952 
4821.000000	65.485930 
4820.000000	65.464282 
4819.000000	65.422058 
4818.000000	65.366077 
4817.000000	65.306758 
4816.000000	65.255236 
4815.000000	65.221023 
4814.000000	65.210294 
4813.000000	65.224480 
4812.000000	65.261077 
4811.000000	65.313839 
4810.000000	65.374588 
4809.000000	65.434575 
4808.000000	65.486168 
4807.000000	65.523743 
4806.000000	65.544080 
4805.000000	65.546512 
4804.000000	65.532183 
4803.000000	65.503811 
4802.000000	65.465378 
4801.000000	65.420913 
4800.000000	65.374541 
4799.000000	65.329480 
4798.000000	65.288090 
4797.000000	65.251350 
4796.000000	65.219378 
4795.000000	65.191364 
4794.000000	65.166234 
4793.000000	65.142846 
4792.000000	65.120530 
4791.000000	65.098929 
4790.000000	65.078234 
4789.000000	65.058445 
4788.000000	65.040016 
4787.000000	65.023708 
4786.000000	65.011000 
4785.000000	65.003633 
4784.000000	65.003490 
4783.000000	65.012073 
4782.000000	65.030384 
4781.000000	65.058231 
4780.000000	65.094423 
4779.000000	65.136289 
4778.000000	65.180706 
4777.000000	65.224337 
4776.000000	65.264391 
4775.000000	65.298914 
4774.000000	65.327262 
4773.000000	65.350103 
4772.000000	65.368795 
4771.000000	65.384697 
4770.000000	65.398907 
4769.000000	65.412020 
4768.000000	65.423870 
4767.000000	65.433669 
4766.000000	65.440440 
4765.000000	65.442895 
4764.000000	65.439367 
4763.000000	65.427899 
4762.000000	65.406441 
4761.000000	65.373396 
4760.000000	65.327763 
4759.000000	65.270352 
4758.000000	65.203905 
4757.000000	65.134000 
4756.000000	65.067648 
4755.000000	65.013480 
4754.000000	64.979243 
4753.000000	64.971375 
4752.000000	64.993190 
4751.000000	65.044403 
4750.000000	65.120625 
4749.000000	65.214276 
4748.000000	65.315866 
4747.000000	65.415263 
4746.000000	65.503144 
4745.000000	65.571856 
4744.000000	65.616154 
4743.000000	65.633249 
4742.000000	65.622830 
4741.000000	65.586566 
4740.000000	65.527939 
4739.000000	65.452146 
4738.000000	65.365982 
4737.000000	65.277719 
4736.000000	65.196275 
4735.000000	65.130519 
4734.000000	65.087652 
4733.000000	65.072464 
4732.000000	65.085887 
4731.000000	65.124464 
4730.000000	65.180897 
4729.000000	65.244841 
4728.000000	65.305447 
4727.000000	65.352463 
4726.000000	65.379118 
4725.000000	65.382194 
4724.000000	65.363502 
4723.000000	65.328288 
4722.000000	65.284895 
4721.000000	65.242338 
4720.000000	65.209197 
4719.000000	65.191817 
4718.000000	65.193891 
4717.000000	65.216255 
4716.000000	65.256786 
4715.000000	65.311145 
4714.000000	65.373325 
4713.000000	65.436625 
4712.000000	65.494012 
4711.000000	65.538907 
4710.000000	65.565395 
4709.000000	65.569257 
4708.000000	65.548801 
4707.000000	65.505409 
4706.000000	65.443348 
4705.000000	65.369319 
4704.000000	65.292453 
4703.000000	65.221714 
4702.000000	65.164399 
4701.000000	65.124607 
4700.000000	65.103006 
4699.000000	65.096974 
4698.000000	65.101361 
4697.000000	65.110397 
4696.000000	65.118718 
4695.000000	65.123081 
4694.000000	65.122961 
4693.000000	65.119957 
4692.000000	65.116453 
4691.000000	65.115237 
4690.000000	65.118575 
4689.000000	65.127468 
4688.000000	65.141510 
4687.000000	65.159630 
4686.000000	65.180516 
4685.000000	65.203332 
4684.000000	65.227985 
4683.000000	65.254926 
4682.000000	65.284776 
4681.000000	65.317392 
4680.000000	65.351986 
4679.000000	65.387439 
4678.000000	65.422606 
4677.000000	65.456700 
4676.000000	65.489554 
4675.000000	65.522170 
4674.000000	65.556001 
4673.000000	65.593028 
4672.000000	65.633821 
4671.000000	65.677666 
4670.000000	65.720868 
4669.000000	65.758538 
4668.000000	65.783286 
4667.000000	65.787434 
4666.000000	65.764164 
4665.000000	65.709757 
4664.000000	65.625071 
4663.000000	65.516066 
4662.000000	65.393900 
4661.000000	65.273094 
4660.000000	65.169167 
4659.000000	65.095567 
4658.000000	65.060949 
4657.000000	65.067362 
4656.000000	65.109086 
4655.000000	65.173816 
4654.000000	65.244889 
4653.000000	65.305018 
4652.000000	65.339732 
4651.000000	65.340709 
4650.000000	65.306282 
4649.000000	65.242195 
4648.000000	65.159296 
4647.000000	65.071320 
4646.000000	64.990949 
4645.000000	64.927768 
4644.000000	64.887094 
4643.000000	64.869260 
4642.000000	64.870882 
4641.000000	64.886236 
4640.000000	64.909410 
4639.000000	64.935541 
4638.000000	64.961242 
4637.000000	64.985489 
4636.000000	65.008521 
4635.000000	65.031647 
4634.000000	65.055942 
4633.000000	65.082597 
4632.000000	65.112352 
4631.000000	65.145850 
4630.000000	65.183281 
4629.000000	65.224051 
4628.000000	65.266323 
4627.000000	65.307140 
4626.000000	65.342593 
4625.000000	65.368127 
4624.000000	65.379405 
4623.000000	65.373468 
4622.000000	65.349483 
4621.000000	65.309548 
4620.000000	65.258169 
4619.000000	65.201902 
4618.000000	65.147733 
4617.000000	65.102028 
4616.000000	65.069031 
4615.000000	65.050625 
4614.000000	65.045738 
4613.000000	65.050578 
4612.000000	65.059947 
4611.000000	65.068459 
4610.000000	65.071725 
4609.000000	65.067100 
4608.000000	65.053772 
4607.000000	65.032553 
4606.000000	65.005493 
4605.000000	64.975047 
4604.000000	64.943313 
4603.000000	64.911437 
4602.000000	64.880132 
4601.000000	64.849805 
4600.000000	64.820384 
4599.000000	64.791965 
4598.000000	64.765095 
4597.000000	64.741039 
4596.000000	64.720749 
4595.000000	64.705562 
4594.000000	64.696550 
4593.000000	64.694476 
4592.000000	64.699459 
4591.000000	64.710831 
4590.000000	64.727139 
4589.000000	64.746427 
4588.000000	64.766597 
4587.000000	64.785456 
4586.000000	64.800858 
4585.000000	64.811396 
4584.000000	64.817118 
4583.000000	64.818644 
4582.000000	64.816904 
4581.000000	64.812731 
4580.000000	64.806699 
4579.000000	64.798021 
4578.000000	64.784550 
4577.000000	64.763140 
4576.000000	64.730477 
4575.000000	64.684319 
4574.000000	64.624524 
4573.000000	64.553904 
4572.000000	64.477872 
4571.000000	64.403271 
4570.000000	64.336848 
4569.000000	64.283967 
4568.000000	64.247703 
4567.000000	64.227724 
4566.000000	64.221644 
4565.000000	64.224624 
4564.000000	64.232873 
4563.000000	64.243769 
4562.000000	64.258432 
4561.000000	64.279603 
4560.000000	64.312934 
4559.000000	64.364218 
4558.000000	64.438080 
4557.000000	64.535236 
4556.000000	64.652013 
4555.000000	64.780378 
4554.000000	64.908123 
4553.000000	65.021300 
4552.000000	65.106463 
4551.000000	65.153837 
4550.000000	65.158939 
4549.000000	65.124201 
4548.000000	65.059137 
4547.000000	64.978599 
4546.000000	64.900875 
4545.000000	64.843058 
4544.000000	64.818167 
4543.000000	64.830851 
4542.000000	64.878344 
4541.000000	64.948773 
4540.000000	65.024614 
4539.000000	65.085959 
4538.000000	65.115714 
4537.000000	65.102982 
4536.000000	65.045285 
4535.000000	64.948940 
4534.000000	64.827513 
4533.000000	64.697718 
4532.000000	64.575695 
4531.000000	64.472675 
4530.000000	64.393210 
4529.000000	64.334774 
4528.000000	64.290165 
4527.000000	64.249491 
4526.000000	64.203953 
4525.000000	64.148879 
4524.000000	64.085292 
4523.000000	64.018607 
4522.000000	63.957166 
4521.000000	63.910388 
4520.000000	63.886284 
4519.000000	63.889122 
4518.000000	63.919067 
4517.000000	63.972449 
4516.000000	64.043021 
4515.000000	64.123678 
4514.000000	64.207887 
4513.000000	64.289951 
4512.000000	64.366126 
4511.000000	64.433670 
4510.000000	64.491510 
4509.000000	64.539718 
4508.000000	64.578866 
4507.000000	64.610171 
4506.000000	64.633989 
4505.000000	64.650797 
4504.000000	64.659190 
4503.000000	64.657688 
4502.000000	64.642906 
4501.000000	64.610671 
4500.000000	64.557313 
4499.000000	64.481854 
4498.000000	64.386200 
4497.000000	64.276170 
4496.000000	64.161252 
4495.000000	64.053702 
4494.000000	63.966560 
4493.000000	63.911175 
4492.000000	63.894867 
4491.000000	63.918995 
4490.000000	63.978910 
4489.000000	64.064288 
4488.000000	64.161205 
4487.000000	64.254236 
4486.000000	64.328908 
4485.000000	64.374160 
4484.000000	64.383006 
4483.000000	64.354062 
4482.000000	64.290547 
4481.000000	64.200782 
4480.000000	64.095330 
4479.000000	63.987135 
4478.000000	63.889670 
4477.000000	63.815069 
4476.000000	63.773202 
4475.000000	63.769125 
4474.000000	63.802981 
4473.000000	63.868641 
4472.000000	63.954949 
4471.000000	64.047145 
4470.000000	64.129638 
4469.000000	64.188528 
4468.000000	64.214372 
4467.000000	64.203405 
4466.000000	64.158082 
4465.000000	64.086508 
4464.000000	64.000582 
4463.000000	63.913679 
4462.000000	63.837933 
4461.000000	63.782930 
4460.000000	63.753771 
4459.000000	63.750910 
4458.000000	63.770532 
4457.000000	63.805866 
4456.000000	63.849186 
4455.000000	63.893795 
4454.000000	63.935089 
4453.000000	63.970398 
4452.000000	63.999271 
4451.000000	64.021730 
4450.000000	64.038276 
4449.000000	64.049196 
4448.000000	64.053726 
4447.000000	64.050078 
4446.000000	64.036536 
4445.000000	64.012765 
4444.000000	63.979744 
4443.000000	63.940334 
4442.000000	63.898348 
4441.000000	63.857698 
4440.000000	63.821840 
4439.000000	63.793015 
4438.000000	63.770818 
4437.000000	63.753008 
4436.000000	63.737559 
4435.000000	63.722848 
4434.000000	63.708806 
4433.000000	63.695907 
4432.000000	63.683533 
4431.000000	63.670921 
4430.000000	63.654637 
4429.000000	63.632845 
4428.000000	63.605570 
4427.000000	63.576626 
4426.000000	63.553071 
4425.000000	63.544511 
4424.000000	63.561010 
4423.000000	63.609766 
4422.000000	63.692903 
4421.000000	63.805317 
4420.000000	63.933134 
4419.000000	64.061450 
4418.000000	64.180731 
4417.000000	64.273452 
4416.000000	64.314889 
4415.000000	64.292931 
4414.000000	64.209938 
4413.000000	64.069008 
4412.000000	63.877224 
4411.000000	63.648581 
4410.000000	63.402175 
4409.000000	63.169264 
4408.000000	62.982177 
4407.000000	62.859177 
4406.000000	62.804841 
4405.000000	62.813115 
4404.000000	62.866067 
4403.000000	62.945175 
4402.000000	63.026022 
4401.000000	63.085818 
4400.000000	63.102412 
4399.000000	63.036203 
4398.000000	62.871956 
4397.000000	62.618660 
4396.000000	62.330818 
4395.000000	62.095189 
4394.000000	62.028622 
4393.000000	62.238478 
4392.000000	62.842512 
4391.000000	63.923001 
4390.000000	65.612363 
4389.000000	68.042898 
4388.000000	71.324563 
4387.000000	75.456309 
4386.000000	80.171799 
4385.000000	84.954428 
4384.000000	89.038825 
4383.000000	91.631293 
4382.000000	92.189478 
4381.000000	90.552401 
4380.000000	87.138438 
4379.000000	82.719969 
4378.000000	78.204202 
4377.000000	74.374198 
4376.000000	71.606326 
4375.000000	69.904470 
4374.000000	68.997144 
4373.000000	68.462014 
4372.000000	68.030023 
4371.000000	67.534899 
4370.000000	66.978454 
4369.000000	66.447639 
4368.000000	65.968585 
4367.000000	65.572476 
4366.000000	65.224075 
4365.000000	64.898490 
4364.000000	64.592647 
4363.000000	64.319562 
4362.000000	64.111876 
4361.000000	63.983368 
4360.000000	63.923859 
4359.000000	63.916563 
4358.000000	63.940382 
4357.000000	63.979172 
4356.000000	64.023590 
4355.000000	64.070653 
4354.000000	64.123010 
4353.000000	64.169645 
4352.000000	64.199185 
4351.000000	64.213156 
4350.000000	64.218020 
4349.000000	64.224839 
4348.000000	64.243388 
4347.000000	64.267301 
4346.000000	64.287924 
4345.000000	64.307856 
4344.000000	64.328646 
4343.000000	64.345765 
4342.000000	64.357113 
4341.000000	64.366078 
4340.000000	64.375948 
4339.000000	64.388489 
4338.000000	64.404249 
4337.000000	64.422321 
4336.000000	64.439558 
4335.000000	64.451670 
4334.000000	64.457058 
4333.000000	64.457678 
4332.000000	64.457917 
4331.000000	64.463520 
4330.000000	64.480495 
4329.000000	64.512944 
4328.000000	64.560580 
4327.000000	64.618682 
4326.000000	64.678883 
4325.000000	64.731383 
4324.000000	64.767837 
4323.000000	64.783501 
4322.000000	64.778733 
4321.000000	64.758610 
4320.000000	64.732193 
4319.000000	64.709210 
4318.000000	64.697670 
4317.000000	64.700818 
4316.000000	64.716911 
4315.000000	64.739108 
4314.000000	64.758205 
4313.000000	64.764523 
4312.000000	64.751052 
4311.000000	64.715218 
4310.000000	64.659810 
4309.000000	64.591956 
4308.000000	64.521431 
4307.000000	64.458799 
4306.000000	64.412713 
4305.000000	64.389157 
4304.000000	64.390087 
4303.000000	64.414072 
4302.000000	64.456343 
4301.000000	64.509916 
4300.000000	64.566469 
4299.000000	64.617180 
4298.000000	64.654374 
4297.000000	64.672160 
4296.000000	64.667749 
4295.000000	64.641261 
4294.000000	64.596056 
4293.000000	64.537739 
4292.000000	64.473724 
4291.000000	64.411377 
4290.000000	64.357614 
4289.000000	64.317989 
4288.000000	64.296126 
4287.000000	64.293241 
4286.000000	64.308667 
4285.000000	64.339828 
4284.000000	64.383196 
4283.000000	64.434528 
4282.000000	64.489817 
4281.000000	64.545679 
4280.000000	64.599680 
4279.000000	64.650154 
4278.000000	64.696264 
4277.000000	64.737582 
4276.000000	64.774012 
4275.000000	64.805316 
4274.000000	64.830684 
4273.000000	64.849090 
4272.000000	64.859485 
4271.000000	64.861536 
4270.000000	64.856576 
4269.000000	64.846968 
4268.000000	64.836597 
4267.000000	64.828634 
4266.000000	64.825606 
4265.000000	64.827203 
4264.000000	64.830708 
4263.000000	64.831304 
4262.000000	64.823579 
4261.000000	64.803171 
4260.000000	64.768505 
4259.000000	64.721083 
4258.000000	64.665508 
4257.000000	64.608645 
4256.000000	64.558243 
4255.000000	64.521002 
4254.000000	64.501023 
4253.000000	64.499378 
4252.000000	64.513731 
4251.000000	64.539313 
4250.000000	64.569640 
4249.000000	64.597892 
4248.000000	64.618086 
4247.000000	64.625930 
4246.000000	64.619517 
4245.000000	64.598703 
4244.000000	64.565443 
4243.000000	64.523863 
4242.000000	64.478898 
4241.000000	64.435982 
4240.000000	64.399075 
4239.000000	64.370465 
4238.000000	64.349913 
4237.000000	64.335036 
4236.000000	64.322757 
4235.000000	64.309954 
4234.000000	64.295816 
4233.000000	64.281916 
4232.000000	64.272856 
4231.000000	64.274525 
4230.000000	64.292860 
4229.000000	64.331674 
4228.000000	64.391875 
4227.000000	64.470529 
4226.000000	64.561486 
4225.000000	64.656090 
4224.000000	64.744877 
4223.000000	64.818978 
4222.000000	64.872050 
4221.000000	64.900732 
4220.000000	64.904451 
4219.000000	64.885091 
4218.000000	64.846324 
4217.000000	64.793014 
4216.000000	64.730501 
4215.000000	64.664387 
4214.000000	64.600920 
4213.000000	64.546322 
4212.000000	64.506506 
4211.000000	64.486241 
4210.000000	64.488720 
4209.000000	64.514493 
4208.000000	64.561343 
4207.000000	64.623737 
4206.000000	64.693689 
4205.000000	64.760994 
4204.000000	64.814591 
4203.000000	64.844894 
4202.000000	64.845204 
4201.000000	64.814114 
4200.000000	64.755797 
4199.000000	64.679312 
4198.000000	64.596915 
4197.000000	64.521646 
4196.000000	64.464783 
4195.000000	64.432978 
4194.000000	64.428043 
4193.000000	64.447903 
4192.000000	64.488148 
4191.000000	64.543414 
4190.000000	64.609146 
4189.000000	64.682006 
4188.000000	64.759778 
4187.000000	64.840364 
4186.000000	64.920687 
4185.000000	64.994859 
4184.000000	65.056109 
4183.000000	65.097308 
4182.000000	65.113925 
4181.000000	65.105676 
4180.000000	65.077424 
4179.000000	65.039706 
4178.000000	65.004754 
4177.000000	64.984273 
4176.000000	64.985108 
4175.000000	65.007638 
4174.000000	65.044832 
4173.000000	65.084171 
4172.000000	65.110826 
4171.000000	65.111756 
4170.000000	65.078592 
4169.000000	65.010309 
4168.000000	64.912629 
4167.000000	64.797949 
4166.000000	64.681601 
4165.000000	64.580059 
4164.000000	64.506816 
4163.000000	64.471340 
4162.000000	64.477658 
4161.000000	64.524340 
4160.000000	64.605426 
4159.000000	64.711308 
