PE IR       SPECTRUM    SPECTRUM    ASCII       PEDS        1.60        
  -1
C-9BE1~1.ASC
17/03/27
17:57:44.00
17/03/27
17:57:44.00
tln
$C-4040-8_t0043$<tbV0>[-10.4,-5.2,8.0,0.0,27,1,0]
370.000000
64









2002,4.07    
MIRTGS : RIGHTBACK : INTERNAL 2
MIR : ON : INTERNAL 2
OPTKBR

0.200000
8
8.000000
FILLER
RATIO
SPECTRUM
UNLOCKED 256

DOUBLE
64
COMBINED
1
0
0


1.000000
RATIO


1
0
TRUE
51149
0
LEFT NOT FITTED RIGHT NOT FITTED 0
NONE
NONE
15600
12.000000
4.427000
51148
TRUE
1 0 8 72 0 0 0 0 

15798.010000






#HDR
-1
-1
#GR
CM-1
%T
0.00002384185791015625
0.0
5000.000000
-1.000000
4631
8
76.087212
41.039609
#DATA
5000.000000	64.676308 
4999.000000	64.665031 
4998.000000	64.671874 
4997.000000	64.688301 
4996.000000	64.705729 
4995.000000	64.717411 
4994.000000	64.719629 
4993.000000	64.711523 
4992.000000	64.694070 
4991.000000	64.668941 
4990.000000	64.636635 
4989.000000	64.595603 
4988.000000	64.542722 
4987.000000	64.474558 
4986.000000	64.388608 
4985.000000	64.285039 
4984.000000	64.168620 
4983.000000	64.048886 
4982.000000	63.938450 
4981.000000	63.850831 
4980.000000	63.796687 
4979.000000	63.781785 
4978.000000	63.805007 
4977.000000	63.859629 
4976.000000	63.934469 
4975.000000	64.017963 
4974.000000	64.100408 
4973.000000	64.176559 
4972.000000	64.244866 
4971.000000	64.307570 
4970.000000	64.368271 
4969.000000	64.429926 
4968.000000	64.492583 
4967.000000	64.552998 
4966.000000	64.605927 
4965.000000	64.644551 
4964.000000	64.663338 
4963.000000	64.658641 
4962.000000	64.631175 
4961.000000	64.584422 
4960.000000	64.524459 
4959.000000	64.458417 
4958.000000	64.393186 
4957.000000	64.334559 
4956.000000	64.286375 
4955.000000	64.251208 
4954.000000	64.230322 
4953.000000	64.223623 
4952.000000	64.230155 
4951.000000	64.247679 
4950.000000	64.273571 
4949.000000	64.304184 
4948.000000	64.336276 
4947.000000	64.366793 
4946.000000	64.393830 
4945.000000	64.416527 
4944.000000	64.435267 
4943.000000	64.450836 
4942.000000	64.464378 
4941.000000	64.477586 
4940.000000	64.491462 
4939.000000	64.506149 
4938.000000	64.520788 
4937.000000	64.534163 
4936.000000	64.544606 
4935.000000	64.550828 
4934.000000	64.552235 
4933.000000	64.549326 
4932.000000	64.543509 
4931.000000	64.537048 
4930.000000	64.531350 
4929.000000	64.526653 
4928.000000	64.522194 
4927.000000	64.516496 
4926.000000	64.507412 
4925.000000	64.493060 
4924.000000	64.473176 
4923.000000	64.449381 
4922.000000	64.424824 
4921.000000	64.403390 
4920.000000	64.388775 
4919.000000	64.383149 
4918.000000	64.386272 
4917.000000	64.395260 
4916.000000	64.404892 
4915.000000	64.408946 
4914.000000	64.402246 
4913.000000	64.381551 
4912.000000	64.346313 
4911.000000	64.299416 
4910.000000	64.245772 
4909.000000	64.192438 
4908.000000	64.146399 
4907.000000	64.114999 
4906.000000	64.104509 
4905.000000	64.119982 
4904.000000	64.164376 
4903.000000	64.238238 
4902.000000	64.338970 
4901.000000	64.460611 
4900.000000	64.594388 
4899.000000	64.729523 
4898.000000	64.854884 
4897.000000	64.960908 
4896.000000	65.040898 
4895.000000	65.091943 
4894.000000	65.114569 
4893.000000	65.113043 
4892.000000	65.092945 
4891.000000	65.060400 
4890.000000	65.020203 
4889.000000	64.975976 
4888.000000	64.929485 
4887.000000	64.882612 
4886.000000	64.837098 
4885.000000	64.795899 
4884.000000	64.762806 
4883.000000	64.742326 
4882.000000	64.737963 
4881.000000	64.750599 
4880.000000	64.778590 
4879.000000	64.817285 
4878.000000	64.860177 
4877.000000	64.900135 
4876.000000	64.931154 
4875.000000	64.949774 
4874.000000	64.955925 
4873.000000	64.953064 
4872.000000	64.947366 
4871.000000	64.946150 
4870.000000	64.955592 
4869.000000	64.978885 
4868.000000	65.015625 
4867.000000	65.061163 
4866.000000	65.108036 
4865.000000	65.146946 
4864.000000	65.169930 
4863.000000	65.171027 
4862.000000	65.148282 
4861.000000	65.102624 
4860.000000	65.037345 
4859.000000	64.956617 
4858.000000	64.865040 
4857.000000	64.766597 
4856.000000	64.664244 
4855.000000	64.561080 
4854.000000	64.460897 
4853.000000	64.368772 
4852.000000	64.290761 
4851.000000	64.233160 
4850.000000	64.201402 
4849.000000	64.198350 
4848.000000	64.223265 
4847.000000	64.271450 
4846.000000	64.335036 
4845.000000	64.404892 
4844.000000	64.472603 
4843.000000	64.531755 
4842.000000	64.579248 
4841.000000	64.614868 
4840.000000	64.641118 
4839.000000	64.661264 
4838.000000	64.678835 
4837.000000	64.696788 
4836.000000	64.717197 
4835.000000	64.741730 
4834.000000	64.771151 
4833.000000	64.806127 
4832.000000	64.846491 
4831.000000	64.891624 
4830.000000	64.939832 
4829.000000	64.988446 
4828.000000	65.034151 
4827.000000	65.073823 
4826.000000	65.104985 
4825.000000	65.126395 
4824.000000	65.138554 
4823.000000	65.143847 
4822.000000	65.145397 
4821.000000	65.146207 
4820.000000	65.148305 
4819.000000	65.152072 
4818.000000	65.156126 
4817.000000	65.157794 
4816.000000	65.154266 
4815.000000	65.143299 
4814.000000	65.124106 
4813.000000	65.097546 
4812.000000	65.065670 
4811.000000	65.031456 
4810.000000	64.998459 
4809.000000	64.970016 
4808.000000	64.948129 
4807.000000	64.933586 
4806.000000	64.926028 
4805.000000	64.924407 
4804.000000	64.927172 
4803.000000	64.932847 
4802.000000	64.940357 
4801.000000	64.948797 
4800.000000	64.957356 
4799.000000	64.964556 
4798.000000	64.968109 
4797.000000	64.964866 
4796.000000	64.951562 
4795.000000	64.925861 
4794.000000	64.887022 
4793.000000	64.836931 
4792.000000	64.780211 
4791.000000	64.723920 
4790.000000	64.675974 
4789.000000	64.643669 
4788.000000	64.631271 
4787.000000	64.638876 
4786.000000	64.661908 
4785.000000	64.691567 
4784.000000	64.717435 
4783.000000	64.729428 
4782.000000	64.721250 
4781.000000	64.691066 
4780.000000	64.643311 
4779.000000	64.586472 
4778.000000	64.532542 
4777.000000	64.493203 
4776.000000	64.478397 
4775.000000	64.493751 
4774.000000	64.540100 
4773.000000	64.613771 
4772.000000	64.707326 
4771.000000	64.811515 
4770.000000	64.916300 
4769.000000	65.012884 
4768.000000	65.094089 
4767.000000	65.155029 
4766.000000	65.193367 
4765.000000	65.208983 
4764.000000	65.203714 
4763.000000	65.180659 
4762.000000	65.144467 
4761.000000	65.100145 
4760.000000	65.052986 
4759.000000	65.007257 
4758.000000	64.966368 
4757.000000	64.932298 
4756.000000	64.905524 
4755.000000	64.885663 
4754.000000	64.871835 
4753.000000	64.863467 
4752.000000	64.860486 
4751.000000	64.863705 
4750.000000	64.873957 
4749.000000	64.892005 
4748.000000	64.917325 
4747.000000	64.948081 
4746.000000	64.980745 
4745.000000	65.011024 
4744.000000	65.034461 
4743.000000	65.048074 
4742.000000	65.050864 
4741.000000	65.044832 
4740.000000	65.034651 
4739.000000	65.025925 
4738.000000	65.023732 
4737.000000	65.031123 
4736.000000	65.047836 
4735.000000	65.070009 
4734.000000	65.090870 
4733.000000	65.102958 
4732.000000	65.100169 
4731.000000	65.079784 
4730.000000	65.043449 
4729.000000	64.996886 
4728.000000	64.948844 
4727.000000	64.908862 
4726.000000	64.884996 
4725.000000	64.881801 
4724.000000	64.899420 
4723.000000	64.933609 
4722.000000	64.977073 
4721.000000	65.021681 
4720.000000	65.059900 
4719.000000	65.086555 
4718.000000	65.099430 
4717.000000	65.099263 
4716.000000	65.088820 
4715.000000	65.071654 
4714.000000	65.051341 
4713.000000	65.030527 
4712.000000	65.011000 
4711.000000	64.993381 
4710.000000	64.977550 
4709.000000	64.962983 
4708.000000	64.949083 
4707.000000	64.935970 
4706.000000	64.924216 
4705.000000	64.915275 
4704.000000	64.910817 
4703.000000	64.912462 
4702.000000	64.920997 
4701.000000	64.935851 
4700.000000	64.955115 
4699.000000	64.975023 
4698.000000	64.991164 
4697.000000	64.998888 
4696.000000	64.994430 
4695.000000	64.975905 
4694.000000	64.943742 
4693.000000	64.900946 
4692.000000	64.852809 
4691.000000	64.805793 
4690.000000	64.766287 
4689.000000	64.739632 
4688.000000	64.728999 
4687.000000	64.734935 
4686.000000	64.755439 
4685.000000	64.786314 
4684.000000	64.822220 
4683.000000	64.857363 
4682.000000	64.886593 
4681.000000	64.905929 
4680.000000	64.913225 
4679.000000	64.908099 
4678.000000	64.892053 
4677.000000	64.868187 
4676.000000	64.840245 
4675.000000	64.812064 
4674.000000	64.786601 
4673.000000	64.765810 
4672.000000	64.750099 
4671.000000	64.738535 
4670.000000	64.729404 
4669.000000	64.720582 
4668.000000	64.711022 
4667.000000	64.700627 
4666.000000	64.691495 
4665.000000	64.686775 
4664.000000	64.690685 
4663.000000	64.706778 
4662.000000	64.737033 
4661.000000	64.780640 
4660.000000	64.833307 
4659.000000	64.887571 
4658.000000	64.934015 
4657.000000	64.963269 
4656.000000	64.968228 
4655.000000	64.945936 
4654.000000	64.898490 
4653.000000	64.832758 
4652.000000	64.759659 
4651.000000	64.691329 
4650.000000	64.638519 
4649.000000	64.608216 
4648.000000	64.602661 
4647.000000	64.618563 
4646.000000	64.648866 
4645.000000	64.684510 
4644.000000	64.716339 
4643.000000	64.738154 
4642.000000	64.747381 
4641.000000	64.746141 
4640.000000	64.739179 
4639.000000	64.733409 
4638.000000	64.735102 
4637.000000	64.748597 
4636.000000	64.775061 
4635.000000	64.812278 
4634.000000	64.855480 
4633.000000	64.898180 
4632.000000	64.933609 
4631.000000	64.956188 
4630.000000	64.962530 
4629.000000	64.951896 
4628.000000	64.926075 
4627.000000	64.888548 
4626.000000	64.843797 
4625.000000	64.796209 
4624.000000	64.749789 
4623.000000	64.707469 
4622.000000	64.671874 
4621.000000	64.645099 
4620.000000	64.629435 
4619.000000	64.627194 
4618.000000	64.640522 
4617.000000	64.670443 
4616.000000	64.716768 
4615.000000	64.776825 
4614.000000	64.846134 
4613.000000	64.918446 
4612.000000	64.987039 
4611.000000	65.045499 
4610.000000	65.089607 
4609.000000	65.118145 
4608.000000	65.132761 
4607.000000	65.137505 
4606.000000	65.136718 
4605.000000	65.134119 
4604.000000	65.131473 
4603.000000	65.128493 
4602.000000	65.123605 
4601.000000	65.114784 
4600.000000	65.101051 
4599.000000	65.082836 
4598.000000	65.062069 
4597.000000	65.041542 
4596.000000	65.023827 
4595.000000	65.010666 
4594.000000	65.002107 
4593.000000	64.997124 
4592.000000	64.993977 
4591.000000	64.990973 
4590.000000	64.987492 
4589.000000	64.983773 
4588.000000	64.981126 
4587.000000	64.980578 
4586.000000	64.982032 
4585.000000	64.984202 
4584.000000	64.984130 
4583.000000	64.978861 
4582.000000	64.966344 
4581.000000	64.946699 
4580.000000	64.922547 
4579.000000	64.898657 
4578.000000	64.881086 
4577.000000	64.875030 
4576.000000	64.883351 
4575.000000	64.906287 
4574.000000	64.941382 
4573.000000	64.983940 
4572.000000	65.028166 
4571.000000	65.068745 
4570.000000	65.101695 
4569.000000	65.124440 
4568.000000	65.136218 
4567.000000	65.136981 
4566.000000	65.127944 
4565.000000	65.110540 
4564.000000	65.087461 
4563.000000	65.061759 
4562.000000	65.037679 
4561.000000	65.020775 
4560.000000	65.016412 
4559.000000	65.028953 
4558.000000	65.060114 
4557.000000	65.108203 
4556.000000	65.168285 
4555.000000	65.233063 
4554.000000	65.294170 
4553.000000	65.343976 
4552.000000	65.376567 
4551.000000	65.388464 
4550.000000	65.378975 
4549.000000	65.349841 
4548.000000	65.303897 
4547.000000	65.244269 
4546.000000	65.173602 
4545.000000	65.094017 
4544.000000	65.007615 
4543.000000	64.917445 
4542.000000	64.827728 
4541.000000	64.745116 
4540.000000	64.678382 
4539.000000	64.637541 
4538.000000	64.630913 
4537.000000	64.663553 
4536.000000	64.735794 
4535.000000	64.841461 
4534.000000	64.968037 
4533.000000	65.098500 
4532.000000	65.213799 
4531.000000	65.297508 
4530.000000	65.338325 
4529.000000	65.334057 
4528.000000	65.291500 
4527.000000	65.225744 
4526.000000	65.156269 
4525.000000	65.102195 
4524.000000	65.077590 
4523.000000	65.088105 
4522.000000	65.129804 
4521.000000	65.191149 
4520.000000	65.255928 
4519.000000	65.308380 
4518.000000	65.336346 
4517.000000	65.333628 
4516.000000	65.300583 
4515.000000	65.242958 
4514.000000	65.169405 
4513.000000	65.088033 
4512.000000	65.005135 
4511.000000	64.923906 
4510.000000	64.845275 
4509.000000	64.769339 
4508.000000	64.696383 
4507.000000	64.629077 
4506.000000	64.571738 
4505.000000	64.529728 
4504.000000	64.508008 
4503.000000	64.508581 
4502.000000	64.530491 
4501.000000	64.569020 
4500.000000	64.616513 
4499.000000	64.663648 
4498.000000	64.701604 
4497.000000	64.723896 
4496.000000	64.727449 
4495.000000	64.713001 
4494.000000	64.684891 
4493.000000	64.650130 
4492.000000	64.616990 
4491.000000	64.593076 
4490.000000	64.584112 
4489.000000	64.592313 
4488.000000	64.616799 
4487.000000	64.653110 
4486.000000	64.694619 
4485.000000	64.733457 
4484.000000	64.762616 
4483.000000	64.777255 
4482.000000	64.775347 
4481.000000	64.758539 
4480.000000	64.731717 
4479.000000	64.701867 
4478.000000	64.675831 
4477.000000	64.659285 
4476.000000	64.655542 
4475.000000	64.664745 
4474.000000	64.684271 
4473.000000	64.709210 
4472.000000	64.734172 
4471.000000	64.753890 
4470.000000	64.764547 
4469.000000	64.764118 
4468.000000	64.752745 
4467.000000	64.732360 
4466.000000	64.706707 
4465.000000	64.679932 
4464.000000	64.656710 
4463.000000	64.642071 
4462.000000	64.640474 
4461.000000	64.655423 
4460.000000	64.688134 
4459.000000	64.737176 
4458.000000	64.798188 
4457.000000	64.864158 
4456.000000	64.927268 
4455.000000	64.979958 
4454.000000	65.016794 
4453.000000	65.035676 
4452.000000	65.037608 
4451.000000	65.026307 
4450.000000	65.006613 
4449.000000	64.983248 
4448.000000	64.960002 
4447.000000	64.939260 
4446.000000	64.922165 
4445.000000	64.909267 
4444.000000	64.901208 
4443.000000	64.898991 
4442.000000	64.903736 
4441.000000	64.915895 
4440.000000	64.934182 
4439.000000	64.955306 
4438.000000	64.973711 
4437.000000	64.982891 
4436.000000	64.976692 
4435.000000	64.951634 
4434.000000	64.908671 
4433.000000	64.853358 
4432.000000	64.794659 
4431.000000	64.743351 
4430.000000	64.709377 
4429.000000	64.699983 
4428.000000	64.717960 
4427.000000	64.761066 
4426.000000	64.823436 
4425.000000	64.895415 
4424.000000	64.966130 
4423.000000	65.024876 
4422.000000	65.062975 
4421.000000	65.075564 
4420.000000	65.062141 
4419.000000	65.026450 
4418.000000	64.975857 
4417.000000	64.917492 
4416.000000	64.856934 
4415.000000	64.797210 
4414.000000	64.739418 
4413.000000	64.686822 
4412.000000	64.645290 
4411.000000	64.622330 
4410.000000	64.625978 
4409.000000	64.660811 
4408.000000	64.727711 
4407.000000	64.822053 
4406.000000	64.935398 
4405.000000	65.055298 
4404.000000	65.170097 
4403.000000	65.271615 
4402.000000	65.356659 
4401.000000	65.428495 
4400.000000	65.492558 
4399.000000	65.553522 
4398.000000	65.612840 
4397.000000	65.664029 
4396.000000	65.700769 
4395.000000	65.719008 
4394.000000	65.723133 
4393.000000	65.725946 
4392.000000	65.749573 
4391.000000	65.822649 
4390.000000	65.953207 
4389.000000	66.123485 
4388.000000	66.285037 
4387.000000	66.371464 
4386.000000	66.323113 
4385.000000	66.109633 
4384.000000	65.739154 
4383.000000	65.265345 
4382.000000	64.787960 
4381.000000	64.423584 
4380.000000	64.270830 
4379.000000	64.382338 
4378.000000	64.751482 
4377.000000	65.308332 
4376.000000	65.934729 
4375.000000	66.496729 
4374.000000	66.876125 
4373.000000	67.006635 
4372.000000	66.882419 
4371.000000	66.572451 
4370.000000	66.185331 
4369.000000	65.868878 
4368.000000	65.760707 
4367.000000	65.984535 
4366.000000	66.621303 
4365.000000	67.695212 
4364.000000	69.169020 
4363.000000	70.919370 
4362.000000	72.750282 
4361.000000	74.403882 
4360.000000	75.602149 
4359.000000	76.087212 
4358.000000	75.675535 
4357.000000	74.303746 
4356.000000	72.050142 
4355.000000	69.130587 
4354.000000	65.862011 
4353.000000	62.612199 
4352.000000	59.729552 
4351.000000	57.483553 
4350.000000	56.027460 
4349.000000	55.381417 
4348.000000	55.459094 
4347.000000	56.102204 
4346.000000	57.130789 
4345.000000	58.370518 
4344.000000	59.690880 
4343.000000	60.991716 
4342.000000	62.215423 
4341.000000	63.300991 
4340.000000	64.212012 
4339.000000	64.914608 
4338.000000	65.397524 
4337.000000	65.670847 
4336.000000	65.766930 
4335.000000	65.736460 
4334.000000	65.637898 
4333.000000	65.526390 
4332.000000	65.444254 
4331.000000	65.412855 
4330.000000	65.432977 
4329.000000	65.486431 
4328.000000	65.549039 
4327.000000	65.595674 
4326.000000	65.612077 
4325.000000	65.595102 
4324.000000	65.547013 
4323.000000	65.477180 
4322.000000	65.400934 
4321.000000	65.333151 
4320.000000	65.275740 
4319.000000	65.227198 
4318.000000	65.190482 
4317.000000	65.166759 
4316.000000	65.156960 
4315.000000	65.160083 
4314.000000	65.170335 
4313.000000	65.183329 
4312.000000	65.198254 
4311.000000	65.214443 
4310.000000	65.229988 
4309.000000	65.245509 
4308.000000	65.263915 
4307.000000	65.285706 
4306.000000	65.308570 
4305.000000	65.330338 
4304.000000	65.348839 
4303.000000	65.362596 
4302.000000	65.370750 
4301.000000	65.373420 
4300.000000	65.371084 
4299.000000	65.364694 
4298.000000	65.354919 
4297.000000	65.342211 
4296.000000	65.326237 
4295.000000	65.306591 
4294.000000	65.282344 
4293.000000	65.252852 
4292.000000	65.217709 
4291.000000	65.177106 
4290.000000	65.132188 
4289.000000	65.084600 
4288.000000	65.036892 
4287.000000	64.992141 
4286.000000	64.953947 
4285.000000	64.925479 
4284.000000	64.909887 
4283.000000	64.909482 
4282.000000	64.925670 
4281.000000	64.958333 
4280.000000	65.005373 
4279.000000	65.062451 
4278.000000	65.122747 
4277.000000	65.177822 
4276.000000	65.218400 
4275.000000	65.236449 
4274.000000	65.227150 
4273.000000	65.190243 
4272.000000	65.130782 
4271.000000	65.058112 
4270.000000	64.984226 
4269.000000	64.920949 
4268.000000	64.877700 
4267.000000	64.858961 
4266.000000	64.863538 
4265.000000	64.885163 
4264.000000	64.914488 
4263.000000	64.941930 
4262.000000	64.959692 
4261.000000	64.964461 
4260.000000	64.957857 
4259.000000	64.945459 
4258.000000	64.934539 
4257.000000	64.932060 
4256.000000	64.942193 
4255.000000	64.965367 
4254.000000	64.998078 
4253.000000	65.034103 
4252.000000	65.066051 
4251.000000	65.086865 
4250.000000	65.091824 
4249.000000	65.079069 
4248.000000	65.050292 
4247.000000	65.010428 
4246.000000	64.966535 
4245.000000	64.926195 
4244.000000	64.895772 
4243.000000	64.879417 
4242.000000	64.878368 
4241.000000	64.890623 
4240.000000	64.912271 
4239.000000	64.938402 
4238.000000	64.965009 
4237.000000	64.990162 
4236.000000	65.014266 
4235.000000	65.039372 
4234.000000	65.068197 
4233.000000	65.102767 
4232.000000	65.142774 
4231.000000	65.185403 
4230.000000	65.225028 
4229.000000	65.254569 
4228.000000	65.267848 
4227.000000	65.261530 
4226.000000	65.236425 
4225.000000	65.197706 
4224.000000	65.153956 
4223.000000	65.114808 
4222.000000	65.088438 
4221.000000	65.079140 
4220.000000	65.086126 
4219.000000	65.103650 
4218.000000	65.122938 
4217.000000	65.134620 
4216.000000	65.131211 
4215.000000	65.109682 
4214.000000	65.072226 
4213.000000	65.026164 
4212.000000	64.981532 
4211.000000	64.948606 
4210.000000	64.934897 
4209.000000	64.942884 
4208.000000	64.969730 
4207.000000	65.007615 
4206.000000	65.046119 
4205.000000	65.074515 
4204.000000	65.084719 
4203.000000	65.072846 
4202.000000	65.040016 
4201.000000	64.991259 
4200.000000	64.933824 
4199.000000	64.875340 
4198.000000	64.822149 
4197.000000	64.778184 
4196.000000	64.745306 
4195.000000	64.724087 
4194.000000	64.714956 
4193.000000	64.719581 
4192.000000	64.740514 
4191.000000	64.780521 
4190.000000	64.840674 
4189.000000	64.918994 
4188.000000	65.009427 
4187.000000	65.101170 
4186.000000	65.181279 
4185.000000	65.237188 
4184.000000	65.259957 
4183.000000	65.246844 
4182.000000	65.202331 
4181.000000	65.137004 
4180.000000	65.065789 
4179.000000	65.004658 
4178.000000	64.966750 
4177.000000	64.959549 
4176.000000	64.984130 
4175.000000	65.035843 
4174.000000	65.106177 
4173.000000	65.185189 
4172.000000	65.264034 
4171.000000	65.336465 
4170.000000	65.399408 
4169.000000	65.451717 
4168.000000	65.493178 
4167.000000	65.522575 
4166.000000	65.537023 
4165.000000	65.531563 
4164.000000	65.501213 
4163.000000	65.441823 
4162.000000	65.352749 
4161.000000	65.237665 
4160.000000	65.104746 
4159.000000	64.966392 
