PE IR       SPECTRUM    SPECTRUM    ASCII       PEDS        1.60        
  -1
C-99EE~1.ASC
17/03/27
14:54:02.00
17/03/27
14:54:02.00
tln
$C-4040-8_t0005$<tbV0>[2.6,-13.0,8.0,0.0,27,1,0]
370.000000
64









2002,4.07    
MIRTGS : RIGHTBACK : INTERNAL 2
MIR : ON : INTERNAL 2
OPTKBR

0.200000
8
8.000000
FILLER
RATIO
SPECTRUM
UNLOCKED 256

DOUBLE
64
COMBINED
1
0
0


1.000000
RATIO


1
0
TRUE
51149
0
LEFT NOT FITTED RIGHT NOT FITTED 0
NONE
NONE
15600
12.000000
4.427000
51148
TRUE
1 0 8 72 0 0 0 0 

15798.010000






#HDR
-1
-1
#GR
CM-1
%T
0.00002384185791015625
0.0
5000.000000
-1.000000
4631
8
70.448756
16.997003
#DATA
5000.000000	63.314175 
4999.000000	63.210892 
4998.000000	63.128805 
4997.000000	63.075876 
4996.000000	63.059353 
4995.000000	63.085055 
4994.000000	63.155245 
4993.000000	63.266134 
4992.000000	63.408398 
4991.000000	63.567996 
4990.000000	63.727283 
4989.000000	63.867020 
4988.000000	63.970184 
4987.000000	64.024543 
4986.000000	64.024972 
4985.000000	63.974237 
4984.000000	63.881063 
4983.000000	63.758039 
4982.000000	63.619351 
4981.000000	63.478374 
4980.000000	63.345575 
4979.000000	63.228535 
4978.000000	63.132047 
4977.000000	63.059926 
4976.000000	63.017153 
4975.000000	63.009691 
4974.000000	63.042879 
4973.000000	63.119292 
4972.000000	63.236689 
4971.000000	63.385558 
4970.000000	63.549160 
4969.000000	63.704633 
4968.000000	63.825631 
4967.000000	63.889074 
4966.000000	63.880419 
4965.000000	63.798046 
4964.000000	63.653612 
4963.000000	63.471412 
4962.000000	63.283562 
4961.000000	63.122367 
4960.000000	63.013672 
4959.000000	62.970876 
4958.000000	62.992739 
4957.000000	63.065505 
4956.000000	63.167095 
4955.000000	63.272404 
4954.000000	63.358592 
4953.000000	63.407349 
4952.000000	63.407206 
4951.000000	63.352990 
4950.000000	63.245987 
4949.000000	63.090467 
4948.000000	62.895154 
4947.000000	62.672376 
4946.000000	62.439036 
4945.000000	62.214517 
4944.000000	62.021064 
4943.000000	61.880731 
4942.000000	61.813402 
4941.000000	61.832261 
4940.000000	61.941742 
4939.000000	62.134838 
4938.000000	62.393665 
4937.000000	62.691068 
4936.000000	62.994503 
4935.000000	63.270354 
4934.000000	63.489341 
4933.000000	63.630485 
4932.000000	63.684868 
4931.000000	63.655948 
4930.000000	63.559126 
4929.000000	63.418149 
4928.000000	63.262152 
4927.000000	63.120055 
4926.000000	63.016486 
4925.000000	62.967610 
4924.000000	62.979269 
4923.000000	63.047170 
4922.000000	63.159346 
4921.000000	63.299846 
4920.000000	63.450837 
4919.000000	63.598036 
4918.000000	63.731789 
4917.000000	63.849377 
4916.000000	63.953018 
4915.000000	64.048719 
4914.000000	64.141821 
4913.000000	64.235758 
4912.000000	64.330887 
4911.000000	64.423632 
4910.000000	64.508867 
4909.000000	64.579844 
4908.000000	64.632058 
4907.000000	64.662289 
4906.000000	64.670681 
4905.000000	64.658474 
4904.000000	64.627790 
4903.000000	64.581203 
4902.000000	64.521574 
4901.000000	64.450883 
4900.000000	64.370107 
4899.000000	64.279818 
4898.000000	64.180254 
4897.000000	64.071631 
4896.000000	63.954973 
4895.000000	63.831806 
4894.000000	63.705587 
4893.000000	63.581538 
4892.000000	63.467383 
4891.000000	63.371992 
4890.000000	63.304448 
4889.000000	63.271450 
4888.000000	63.275933 
4887.000000	63.315391 
4886.000000	63.381934 
4885.000000	63.461565 
4884.000000	63.539052 
4883.000000	63.600230 
4882.000000	63.635945 
4881.000000	63.642907 
4880.000000	63.625359 
4879.000000	63.593268 
4878.000000	63.558769 
4877.000000	63.532543 
4876.000000	63.520479 
4875.000000	63.522005 
4874.000000	63.530564 
4873.000000	63.536167 
4872.000000	63.528823 
4871.000000	63.502478 
4870.000000	63.457608 
4869.000000	63.402009 
4868.000000	63.347697 
4867.000000	63.308978 
4866.000000	63.297843 
4865.000000	63.321900 
4864.000000	63.382077 
4863.000000	63.472580 
4862.000000	63.583564 
4861.000000	63.701605 
4860.000000	63.813209 
4859.000000	63.905668 
4858.000000	63.969349 
4857.000000	63.998222 
4856.000000	63.989901 
4855.000000	63.946127 
4854.000000	63.872075 
4853.000000	63.776135 
4852.000000	63.669276 
4851.000000	63.563394 
4850.000000	63.469934 
4849.000000	63.397431 
4848.000000	63.350677 
4847.000000	63.329505 
4846.000000	63.329768 
4845.000000	63.345026 
4844.000000	63.368749 
4843.000000	63.395953 
4842.000000	63.424563 
4841.000000	63.454723 
4840.000000	63.487815 
4839.000000	63.524484 
4838.000000	63.563251 
4837.000000	63.600063 
4836.000000	63.628578 
4835.000000	63.641762 
4834.000000	63.633418 
4833.000000	63.600301 
4832.000000	63.543081 
4831.000000	63.466787 
4830.000000	63.380360 
4829.000000	63.295245 
4828.000000	63.222813 
4827.000000	63.171744 
4826.000000	63.147068 
4825.000000	63.149523 
4824.000000	63.175344 
4823.000000	63.217711 
4822.000000	63.267302 
4821.000000	63.314366 
4820.000000	63.350701 
4819.000000	63.371300 
4818.000000	63.374590 
4817.000000	63.362431 
4816.000000	63.340044 
4815.000000	63.314175 
4814.000000	63.291049 
4813.000000	63.274598 
4812.000000	63.266253 
4811.000000	63.264417 
4810.000000	63.265609 
4809.000000	63.265562 
4808.000000	63.261246 
4807.000000	63.250851 
4806.000000	63.234925 
4805.000000	63.214969 
4804.000000	63.192844 
4803.000000	63.169574 
4802.000000	63.144493 
4801.000000	63.116216 
4800.000000	63.082337 
4799.000000	63.042378 
4798.000000	62.998580 
4797.000000	62.956762 
4796.000000	62.925648 
4795.000000	62.914967 
4794.000000	62.933111 
4793.000000	62.984204 
4792.000000	63.066625 
4791.000000	63.173556 
4790.000000	63.294219 
4789.000000	63.416075 
4788.000000	63.527488 
4787.000000	63.620352 
4786.000000	63.691020 
4785.000000	63.740468 
4784.000000	63.772845 
4783.000000	63.793396 
4782.000000	63.806247 
4781.000000	63.814401 
4780.000000	63.817858 
4779.000000	63.814997 
4778.000000	63.802480 
4777.000000	63.778686 
4776.000000	63.742661 
4775.000000	63.695502 
4774.000000	63.639569 
4773.000000	63.578200 
4772.000000	63.514900 
4771.000000	63.452744 
4770.000000	63.393926 
4769.000000	63.339519 
4768.000000	63.289141 
4767.000000	63.241457 
4766.000000	63.194227 
4765.000000	63.145518 
4764.000000	63.094449 
4763.000000	63.042116 
4762.000000	62.990832 
4761.000000	62.944769 
4760.000000	62.908792 
4759.000000	62.888574 
4758.000000	62.887644 
4757.000000	62.908482 
4756.000000	62.951445 
4755.000000	63.015413 
4754.000000	63.096952 
4753.000000	63.191103 
4752.000000	63.292026 
4751.000000	63.392901 
4750.000000	63.486623 
4749.000000	63.565993 
4748.000000	63.624262 
4747.000000	63.656353 
4746.000000	63.659858 
4745.000000	63.635826 
4744.000000	63.589000 
4743.000000	63.527607 
4742.000000	63.462376 
4741.000000	63.403248 
4740.000000	63.357353 
4739.000000	63.327598 
4738.000000	63.312220 
4737.000000	63.304996 
4736.000000	63.297414 
4735.000000	63.281321 
4734.000000	63.251543 
4733.000000	63.207101 
4732.000000	63.151907 
4731.000000	63.093137 
4730.000000	63.040065 
4729.000000	63.000583 
4728.000000	62.980079 
4727.000000	62.979412 
4726.000000	62.995672 
4725.000000	63.023209 
4724.000000	63.055229 
4723.000000	63.085746 
4722.000000	63.111114 
4721.000000	63.130569 
4720.000000	63.145923 
4719.000000	63.159728 
4718.000000	63.175368 
4717.000000	63.195490 
4716.000000	63.221621 
4715.000000	63.253498 
4714.000000	63.289594 
4713.000000	63.327670 
4712.000000	63.365268 
4711.000000	63.400125 
4710.000000	63.430356 
4709.000000	63.454294 
4708.000000	63.470888 
4707.000000	63.479518 
4706.000000	63.479876 
4705.000000	63.472127 
4704.000000	63.457250 
4703.000000	63.437080 
4702.000000	63.414597 
4701.000000	63.393259 
4700.000000	63.376855 
4699.000000	63.368582 
4698.000000	63.370585 
4697.000000	63.383078 
4696.000000	63.404417 
4695.000000	63.430833 
4694.000000	63.457465 
4693.000000	63.478970 
4692.000000	63.490557 
4691.000000	63.489222 
4690.000000	63.474225 
4689.000000	63.447451 
4688.000000	63.413000 
4687.000000	63.376164 
4686.000000	63.342165 
4685.000000	63.315272 
4684.000000	63.298010 
4683.000000	63.290858 
4682.000000	63.292288 
4681.000000	63.299489 
4680.000000	63.309144 
4679.000000	63.318157 
4678.000000	63.324189 
4677.000000	63.325810 
4676.000000	63.322401 
4675.000000	63.313841 
4674.000000	63.300228 
4673.000000	63.281512 
4672.000000	63.257598 
4671.000000	63.228321 
4670.000000	63.194346 
4669.000000	63.157153 
4668.000000	63.119959 
4667.000000	63.086962 
4666.000000	63.063597 
4665.000000	63.055062 
4664.000000	63.065814 
4663.000000	63.098049 
4662.000000	63.151454 
4661.000000	63.222622 
4660.000000	63.305544 
4659.000000	63.392567 
4658.000000	63.475775 
4657.000000	63.548564 
4656.000000	63.606476 
4655.000000	63.647818 
4654.000000	63.673806 
4653.000000	63.687705 
4652.000000	63.693523 
4651.000000	63.694810 
4650.000000	63.694262 
4649.000000	63.692736 
4648.000000	63.690257 
4647.000000	63.685798 
4646.000000	63.678979 
4645.000000	63.669824 
4644.000000	63.659381 
4643.000000	63.649177 
4642.000000	63.641238 
4641.000000	63.637042 
4640.000000	63.637018 
4639.000000	63.640904 
4638.000000	63.647675 
4637.000000	63.656520 
4636.000000	63.667035 
4635.000000	63.679790 
4634.000000	63.695979 
4633.000000	63.717222 
4632.000000	63.744902 
4631.000000	63.779115 
4630.000000	63.818192 
4629.000000	63.859200 
4628.000000	63.898158 
4627.000000	63.930726 
4626.000000	63.953161 
4625.000000	63.963508 
4624.000000	63.961720 
4623.000000	63.949131 
4622.000000	63.928651 
4621.000000	63.903713 
4620.000000	63.878083 
4619.000000	63.855314 
4618.000000	63.838720 
4617.000000	63.831043 
4616.000000	63.834547 
4615.000000	63.851261 
4614.000000	63.882064 
4613.000000	63.926506 
4612.000000	63.981819 
4611.000000	64.043068 
4610.000000	64.103293 
4609.000000	64.154219 
4608.000000	64.188027 
4607.000000	64.198756 
4606.000000	64.184069 
4605.000000	64.145874 
4604.000000	64.089965 
4603.000000	64.024758 
4602.000000	63.959288 
4601.000000	63.901090 
4600.000000	63.854193 
4599.000000	63.818883 
4598.000000	63.791966 
4597.000000	63.769078 
4596.000000	63.745737 
4595.000000	63.720369 
4594.000000	63.695025 
4593.000000	63.675570 
4592.000000	63.669466 
4591.000000	63.683915 
4590.000000	63.722610 
4589.000000	63.784813 
4588.000000	63.864064 
4587.000000	63.950181 
4586.000000	64.031553 
4585.000000	64.097666 
4584.000000	64.142060 
4583.000000	64.162826 
4582.000000	64.162755 
4581.000000	64.147400 
4580.000000	64.123439 
4579.000000	64.096522 
4578.000000	64.070105 
4577.000000	64.045166 
4576.000000	64.020609 
4575.000000	63.994336 
4574.000000	63.964462 
4573.000000	63.929963 
4572.000000	63.891339 
4571.000000	63.849878 
4570.000000	63.807797 
4569.000000	63.767218 
4568.000000	63.730311 
4567.000000	63.698363 
4566.000000	63.672280 
4565.000000	63.653016 
4564.000000	63.641357 
4563.000000	63.637995 
4562.000000	63.643217 
4561.000000	63.656330 
4560.000000	63.675808 
4559.000000	63.698625 
4558.000000	63.721513 
4557.000000	63.741207 
4556.000000	63.755989 
4555.000000	63.766074 
4554.000000	63.773345 
4553.000000	63.780808 
4552.000000	63.791060 
4551.000000	63.805437 
4550.000000	63.822579 
4549.000000	63.838648 
4548.000000	63.848209 
4547.000000	63.845944 
4546.000000	63.828468 
4545.000000	63.795900 
4544.000000	63.752484 
4543.000000	63.706040 
4542.000000	63.665914 
4541.000000	63.640856 
4540.000000	63.636350 
4539.000000	63.653802 
4538.000000	63.689756 
4537.000000	63.737988 
4536.000000	63.791131 
4535.000000	63.842773 
4534.000000	63.889765 
4533.000000	63.931393 
4532.000000	63.968324 
4531.000000	64.001369 
4530.000000	64.029932 
4529.000000	64.052104 
4528.000000	64.064574 
4527.000000	64.064049 
4526.000000	64.048719 
4525.000000	64.018511 
4524.000000	63.975667 
4523.000000	63.923788 
4522.000000	63.867282 
4521.000000	63.810634 
4520.000000	63.757443 
4519.000000	63.709902 
4518.000000	63.668417 
4517.000000	63.631486 
4516.000000	63.596796 
4515.000000	63.561177 
4514.000000	63.523125 
4513.000000	63.483071 
4512.000000	63.444662 
4511.000000	63.413572 
4510.000000	63.396859 
4509.000000	63.399457 
4508.000000	63.424563 
4507.000000	63.471341 
4506.000000	63.536214 
4505.000000	63.613486 
4504.000000	63.696265 
4503.000000	63.777899 
4502.000000	63.852334 
4501.000000	63.914632 
4500.000000	63.961172 
4499.000000	63.989520 
4498.000000	63.998150 
4497.000000	63.986444 
4496.000000	63.955521 
4495.000000	63.908243 
4494.000000	63.849663 
4493.000000	63.785839 
4492.000000	63.723778 
4491.000000	63.669300 
4490.000000	63.624024 
4489.000000	63.587021 
4488.000000	63.554143 
4487.000000	63.522934 
4486.000000	63.494467 
4485.000000	63.474583 
4484.000000	63.476300 
4483.000000	63.512301 
4482.000000	63.587975 
4481.000000	63.700604 
4480.000000	63.837742 
4479.000000	63.980340 
4478.000000	64.104890 
4477.000000	64.193034 
4476.000000	64.237689 
4475.000000	64.242744 
4474.000000	64.222073 
4473.000000	64.193916 
4472.000000	64.174795 
4471.000000	64.176130 
4470.000000	64.201879 
4469.000000	64.246225 
4468.000000	64.296340 
4467.000000	64.341378 
4466.000000	64.375281 
4465.000000	64.395833 
4464.000000	64.406085 
4463.000000	64.410448 
4462.000000	64.417219 
4461.000000	64.429116 
4460.000000	64.453887 
4459.000000	64.501523 
4458.000000	64.591813 
4457.000000	64.749860 
4456.000000	65.004777 
4455.000000	65.381312 
4454.000000	65.892148 
4453.000000	66.529583 
4452.000000	67.262840 
4451.000000	68.041253 
4450.000000	68.799209 
4449.000000	69.469833 
4448.000000	69.992280 
4447.000000	70.326304 
4446.000000	70.448756 
4445.000000	70.358276 
4444.000000	70.063662 
4443.000000	69.582247 
4442.000000	68.932151 
4441.000000	68.133687 
4440.000000	67.216873 
4439.000000	66.223764 
4438.000000	65.212011 
4437.000000	64.249253 
4436.000000	63.406419 
4435.000000	62.746238 
4434.000000	62.301874 
4433.000000	62.080073 
4432.000000	62.059640 
4431.000000	62.201499 
4430.000000	62.447977 
4429.000000	62.744092 
4428.000000	63.042664 
4427.000000	63.312792 
4426.000000	63.535046 
4425.000000	63.701605 
4424.000000	63.805460 
4423.000000	63.841295 
4422.000000	63.803219 
4421.000000	63.684248 
4420.000000	63.479971 
4419.000000	63.190889 
4418.000000	62.828087 
4417.000000	62.405490 
4416.000000	61.939740 
4415.000000	61.447715 
4414.000000	60.944986 
4413.000000	60.443329 
4412.000000	59.947896 
4411.000000	59.466981 
4410.000000	59.003281 
4409.000000	58.548474 
4408.000000	58.082032 
4407.000000	57.575488 
4406.000000	57.001805 
4405.000000	56.330370 
4404.000000	55.557584 
4403.000000	54.702329 
4402.000000	53.830051 
4401.000000	53.033280 
4400.000000	52.432990 
4399.000000	52.143526 
4398.000000	52.255821 
4397.000000	52.805304 
4396.000000	53.764915 
4395.000000	55.035853 
4394.000000	56.478214 
4393.000000	57.933735 
4392.000000	59.263253 
4391.000000	60.369491 
4390.000000	61.213231 
4389.000000	61.809921 
4388.000000	62.217593 
4387.000000	62.512898 
4386.000000	62.769985 
4385.000000	63.039016 
4384.000000	63.347625 
4383.000000	63.693046 
4382.000000	64.055228 
4381.000000	64.400863 
4380.000000	64.707446 
4379.000000	64.960432 
4378.000000	65.158176 
4377.000000	65.307116 
4376.000000	65.419745 
4375.000000	65.506625 
4374.000000	65.572547 
4373.000000	65.614628 
4372.000000	65.629839 
4371.000000	65.610623 
4370.000000	65.552353 
4369.000000	65.452384 
4368.000000	65.314912 
4367.000000	65.148520 
4366.000000	64.967036 
4365.000000	64.785575 
4364.000000	64.617681 
4363.000000	64.476799 
4362.000000	64.375352 
4361.000000	64.317035 
4360.000000	64.296698 
4359.000000	64.306473 
4358.000000	64.337229 
4357.000000	64.375209 
4356.000000	64.406871 
4355.000000	64.422440 
4354.000000	64.418125 
4353.000000	64.394593 
4352.000000	64.357423 
4351.000000	64.315581 
4350.000000	64.278268 
4349.000000	64.251160 
4348.000000	64.235949 
4347.000000	64.231300 
4346.000000	64.231991 
4345.000000	64.231348 
4344.000000	64.222478 
4343.000000	64.200997 
4342.000000	64.165353 
4341.000000	64.117169 
4340.000000	64.060640 
4339.000000	64.001154 
4338.000000	63.944077 
4337.000000	63.893604 
4336.000000	63.851737 
4335.000000	63.818383 
4334.000000	63.792109 
4333.000000	63.771486 
4332.000000	63.755154 
4331.000000	63.742899 
4330.000000	63.735723 
4329.000000	63.736128 
4328.000000	63.746666 
4327.000000	63.769412 
4326.000000	63.804984 
4325.000000	63.851618 
4324.000000	63.905143 
4323.000000	63.959169 
4322.000000	64.006280 
4321.000000	64.038991 
4320.000000	64.051556 
4319.000000	64.040637 
4318.000000	64.006519 
4317.000000	63.952445 
4316.000000	63.884186 
4315.000000	63.808846 
4314.000000	63.733792 
4313.000000	63.665151 
4312.000000	63.607192 
4311.000000	63.561940 
4310.000000	63.529801 
4309.000000	63.509225 
4308.000000	63.497662 
4307.000000	63.492083 
4306.000000	63.489842 
4305.000000	63.488531 
4304.000000	63.486576 
4303.000000	63.483023 
4302.000000	63.478016 
4301.000000	63.472604 
4300.000000	63.468694 
4299.000000	63.468384 
4298.000000	63.473296 
4297.000000	63.484406 
4296.000000	63.500905 
4295.000000	63.520359 
4294.000000	63.538718 
4293.000000	63.550925 
4292.000000	63.552331 
4291.000000	63.539505 
4290.000000	63.512229 
4289.000000	63.473749 
4288.000000	63.430857 
4287.000000	63.392162 
4286.000000	63.366866 
4285.000000	63.362503 
4284.000000	63.383340 
4283.000000	63.429164 
4282.000000	63.495516 
4281.000000	63.574552 
4280.000000	63.656902 
4279.000000	63.733482 
4278.000000	63.796806 
4277.000000	63.842034 
4276.000000	63.866901 
4275.000000	63.871788 
4274.000000	63.858699 
4273.000000	63.831090 
4272.000000	63.793063 
4271.000000	63.749313 
4270.000000	63.705182 
4269.000000	63.665628 
4268.000000	63.636159 
4267.000000	63.620281 
4266.000000	63.619685 
4265.000000	63.632440 
4264.000000	63.653516 
4263.000000	63.675141 
4262.000000	63.688421 
4261.000000	63.685321 
4260.000000	63.660120 
4259.000000	63.611674 
4258.000000	63.543558 
4257.000000	63.463616 
4256.000000	63.381910 
4255.000000	63.308739 
4254.000000	63.252520 
4253.000000	63.217973 
4252.000000	63.205456 
4251.000000	63.211202 
4250.000000	63.228988 
4249.000000	63.251304 
4248.000000	63.272023 
4247.000000	63.287329 
4246.000000	63.296985 
4245.000000	63.303089 
4244.000000	63.309884 
4243.000000	63.322019 
4242.000000	63.343048 
4241.000000	63.374948 
4240.000000	63.416552 
4239.000000	63.464403 
4238.000000	63.512182 
4237.000000	63.553380 
4236.000000	63.580965 
4235.000000	63.588857 
4234.000000	63.572883 
4233.000000	63.531637 
4232.000000	63.466978 
4231.000000	63.384151 
4230.000000	63.291263 
4229.000000	63.198041 
4228.000000	63.114786 
4227.000000	63.050746 
4226.000000	63.012742 
4225.000000	63.004088 
4224.000000	63.024020 
4223.000000	63.067817 
4222.000000	63.127779 
4221.000000	63.194918 
4220.000000	63.260245 
4219.000000	63.316917 
4218.000000	63.360166 
4217.000000	63.388872 
4216.000000	63.404726 
4215.000000	63.412022 
4214.000000	63.416004 
4213.000000	63.421750 
4212.000000	63.433980 
4211.000000	63.454794 
4210.000000	63.484573 
4209.000000	63.520145 
4208.000000	63.556218 
4207.000000	63.585591 
4206.000000	63.600802 
4205.000000	63.596272 
4204.000000	63.569974 
4203.000000	63.524174 
4202.000000	63.465023 
4201.000000	63.401961 
4200.000000	63.345432 
4199.000000	63.304471 
4198.000000	63.284373 
4197.000000	63.284921 
4196.000000	63.300442 
4195.000000	63.321709 
4194.000000	63.338160 
4193.000000	63.340926 
4192.000000	63.325071 
4191.000000	63.290667 
4190.000000	63.242459 
4189.000000	63.187599 
4188.000000	63.133955 
4187.000000	63.086891 
4186.000000	63.049077 
4185.000000	63.020515 
4184.000000	62.998867 
4183.000000	62.981843 
4182.000000	62.966537 
4181.000000	62.951111 
4180.000000	62.933635 
4179.000000	62.912154 
4178.000000	62.883996 
4177.000000	62.845635 
4176.000000	62.793827 
4175.000000	62.726449 
4174.000000	62.644457 
4173.000000	62.552523 
4172.000000	62.459135 
4171.000000	62.375497 
4170.000000	62.312674 
4169.000000	62.279391 
4168.000000	62.279701 
4167.000000	62.312555 
4166.000000	62.371516 
4165.000000	62.446737 
4164.000000	62.527537 
4163.000000	62.604475 
4162.000000	62.670588 
4161.000000	62.722277 
4160.000000	62.758660 
4159.000000	62.781190 
