PE IR       SPECTRUM    SPECTRUM    ASCII       PEDS        1.60        
  -1
C-99E0~1.ASC
17/03/27
15:12:29.00
17/03/27
15:12:29.00
tln
$C-4040-8_t0009$<tbV0>[-7.8,-13.0,8.0,0.0,27,1,0]
370.000000
64









2002,4.07    
MIRTGS : RIGHTBACK : INTERNAL 2
MIR : ON : INTERNAL 2
OPTKBR

0.200000
8
8.000000
FILLER
RATIO
SPECTRUM
UNLOCKED 256

DOUBLE
64
COMBINED
1
0
0


1.000000
RATIO


1
0
TRUE
51149
0
LEFT NOT FITTED RIGHT NOT FITTED 0
NONE
NONE
15600
12.000000
4.427000
51148
TRUE
1 0 8 72 0 0 0 0 

15798.010000






#HDR
-1
-1
#GR
CM-1
%T
0.00002384185791015625
0.0
5000.000000
-1.000000
4631
8
80.561900
22.225761
#DATA
5000.000000	63.954734 
4999.000000	63.940834 
4998.000000	63.932633 
4997.000000	63.934278 
4996.000000	63.949751 
4995.000000	63.982391 
4994.000000	64.032793 
4993.000000	64.097166 
4992.000000	64.168643 
4991.000000	64.239168 
4990.000000	64.300036 
4989.000000	64.344048 
4988.000000	64.366459 
4987.000000	64.365863 
4986.000000	64.344167 
4985.000000	64.306235 
4984.000000	64.257574 
4983.000000	64.202952 
4982.000000	64.145922 
4981.000000	64.088463 
4980.000000	64.030051 
4979.000000	63.969349 
4978.000000	63.905167 
4977.000000	63.838982 
4976.000000	63.776922 
4975.000000	63.728642 
4974.000000	63.705539 
4973.000000	63.716769 
4972.000000	63.766527 
4971.000000	63.850164 
4970.000000	63.954067 
4969.000000	64.056801 
4968.000000	64.132761 
4967.000000	64.158868 
4966.000000	64.120244 
4965.000000	64.014959 
4964.000000	63.854670 
4963.000000	63.663315 
4962.000000	63.471770 
4961.000000	63.310861 
4960.000000	63.204050 
4959.000000	63.163518 
4958.000000	63.187694 
4957.000000	63.264608 
4956.000000	63.375186 
4955.000000	63.498830 
4954.000000	63.617014 
4953.000000	63.713622 
4952.000000	63.776254 
4951.000000	63.794612 
4950.000000	63.761830 
4949.000000	63.673019 
4948.000000	63.528704 
4947.000000	63.336563 
4946.000000	63.112807 
4945.000000	62.880349 
4944.000000	62.667107 
4943.000000	62.502169 
4942.000000	62.409996 
4941.000000	62.404942 
4940.000000	62.488818 
4939.000000	62.649750 
4938.000000	62.864971 
4937.000000	63.104891 
4936.000000	63.339066 
4935.000000	63.540959 
4934.000000	63.692808 
4933.000000	63.786625 
4932.000000	63.824677 
4931.000000	63.816452 
4930.000000	63.776731 
4929.000000	63.721752 
4928.000000	63.667392 
4927.000000	63.626527 
4926.000000	63.608312 
4925.000000	63.617348 
4924.000000	63.653898 
4923.000000	63.715147 
4922.000000	63.796234 
4921.000000	63.892531 
4920.000000	63.998937 
4919.000000	64.112830 
4918.000000	64.233183 
4917.000000	64.361023 
4916.000000	64.498090 
4915.000000	64.644718 
4914.000000	64.797854 
4913.000000	64.950561 
4912.000000	65.093755 
4911.000000	65.216422 
4910.000000	65.308928 
4909.000000	65.363979 
4908.000000	65.380263 
4907.000000	65.359878 
4906.000000	65.308785 
4905.000000	65.233135 
4904.000000	65.138363 
4903.000000	65.028882 
4902.000000	64.908838 
4901.000000	64.782190 
4900.000000	64.653658 
4899.000000	64.530110 
4898.000000	64.419841 
4897.000000	64.330935 
4896.000000	64.269900 
4895.000000	64.239215 
4894.000000	64.237189 
4893.000000	64.256405 
4892.000000	64.287328 
4891.000000	64.319992 
4890.000000	64.347696 
4889.000000	64.367127 
4888.000000	64.380502 
4887.000000	64.393782 
4886.000000	64.414906 
4885.000000	64.449477 
4884.000000	64.500045 
4883.000000	64.564752 
4882.000000	64.637255 
4881.000000	64.708304 
4880.000000	64.767408 
4879.000000	64.806127 
4878.000000	64.818549 
4877.000000	64.803194 
4876.000000	64.761924 
4875.000000	64.699506 
4874.000000	64.622759 
4873.000000	64.539098 
4872.000000	64.455318 
4871.000000	64.376711 
4870.000000	64.308190 
4869.000000	64.253354 
4868.000000	64.213895 
4867.000000	64.189720 
4866.000000	64.179539 
4865.000000	64.180898 
4864.000000	64.190220 
4863.000000	64.203739 
4862.000000	64.217543 
4861.000000	64.228630 
4860.000000	64.234805 
4859.000000	64.235019 
4858.000000	64.228320 
4857.000000	64.214801 
4856.000000	64.195561 
4855.000000	64.172577 
4854.000000	64.148283 
4853.000000	64.125704 
4852.000000	64.108204 
4851.000000	64.098834 
4850.000000	64.099931 
4849.000000	64.112877 
4848.000000	64.137935 
4847.000000	64.174032 
4846.000000	64.219307 
4845.000000	64.271640 
4844.000000	64.329242 
4843.000000	64.391231 
4842.000000	64.457201 
4841.000000	64.526724 
4840.000000	64.598178 
4839.000000	64.669346 
4838.000000	64.735674 
4837.000000	64.791202 
4836.000000	64.828348 
4835.000000	64.840602 
4834.000000	64.822649 
4833.000000	64.772725 
4832.000000	64.692783 
4831.000000	64.589142 
4830.000000	64.471578 
4829.000000	64.352297 
4828.000000	64.243531 
4827.000000	64.155626 
4826.000000	64.095330 
4825.000000	64.065074 
4824.000000	64.062619 
4823.000000	64.082002 
4822.000000	64.114809 
4821.000000	64.152073 
4820.000000	64.186072 
4819.000000	64.211964 
4818.000000	64.227914 
4817.000000	64.235186 
4816.000000	64.237380 
4815.000000	64.239096 
4814.000000	64.244556 
4813.000000	64.256191 
4812.000000	64.274573 
4811.000000	64.297652 
4810.000000	64.322042 
4809.000000	64.343142 
4808.000000	64.356827 
4807.000000	64.359474 
4806.000000	64.349460 
4805.000000	64.326333 
4804.000000	64.290714 
4803.000000	64.244127 
4802.000000	64.188599 
4801.000000	64.126801 
4800.000000	64.061689 
4799.000000	63.997101 
4798.000000	63.937592 
4797.000000	63.888788 
4796.000000	63.856744 
4795.000000	63.847327 
4794.000000	63.864779 
4793.000000	63.911008 
4792.000000	63.984608 
4791.000000	64.080548 
4790.000000	64.191055 
4789.000000	64.306473 
4788.000000	64.417266 
4787.000000	64.515781 
4786.000000	64.597177 
4785.000000	64.660215 
4784.000000	64.705944 
4783.000000	64.736962 
4782.000000	64.755129 
4781.000000	64.761590 
4780.000000	64.754986 
4779.000000	64.733052 
4778.000000	64.692831 
4777.000000	64.633464 
4776.000000	64.556336 
4775.000000	64.466500 
4774.000000	64.371418 
4773.000000	64.280366 
4772.000000	64.201760 
4771.000000	64.141678 
4770.000000	64.102578 
4769.000000	64.083075 
4768.000000	64.079284 
4767.000000	64.086222 
4766.000000	64.099669 
4765.000000	64.117288 
4764.000000	64.139199 
4763.000000	64.167165 
4762.000000	64.203047 
4761.000000	64.247322 
4760.000000	64.298415 
4759.000000	64.352440 
4758.000000	64.403605 
4757.000000	64.445662 
4756.000000	64.474296 
4755.000000	64.487719 
4754.000000	64.487791 
4753.000000	64.479064 
4752.000000	64.467859 
4751.000000	64.460015 
4750.000000	64.460039 
4749.000000	64.468860 
4748.000000	64.483952 
4747.000000	64.499831 
4746.000000	64.510512 
4745.000000	64.510321 
4744.000000	64.495801 
4743.000000	64.466452 
4742.000000	64.425086 
4741.000000	64.376497 
4740.000000	64.326524 
4739.000000	64.280509 
4738.000000	64.242219 
4737.000000	64.213228 
4736.000000	64.193081 
4735.000000	64.180016 
4734.000000	64.172005 
4733.000000	64.167714 
4732.000000	64.167237 
4731.000000	64.171314 
4730.000000	64.181971 
4729.000000	64.201068 
4728.000000	64.230775 
4727.000000	64.271044 
4726.000000	64.321351 
4725.000000	64.380335 
4724.000000	64.445924 
4723.000000	64.515852 
4722.000000	64.587235 
4721.000000	64.657115 
4720.000000	64.721632 
4719.000000	64.776659 
4718.000000	64.817357 
4717.000000	64.838814 
4716.000000	64.837050 
4715.000000	64.810490 
4714.000000	64.760375 
4713.000000	64.691162 
4712.000000	64.610767 
4711.000000	64.529418 
4710.000000	64.458012 
4709.000000	64.405846 
4708.000000	64.379525 
4707.000000	64.380884 
4706.000000	64.406919 
4705.000000	64.449763 
4704.000000	64.498353 
4703.000000	64.540362 
4702.000000	64.565181 
4701.000000	64.565634 
4700.000000	64.538574 
4699.000000	64.486169 
4698.000000	64.414548 
4697.000000	64.333224 
4696.000000	64.252185 
4695.000000	64.181280 
4694.000000	64.128327 
4693.000000	64.098525 
4692.000000	64.093732 
4691.000000	64.113211 
4690.000000	64.154338 
4689.000000	64.213109 
4688.000000	64.284753 
4687.000000	64.364624 
4686.000000	64.448332 
4685.000000	64.532065 
4684.000000	64.612054 
4683.000000	64.684844 
4682.000000	64.746308 
4681.000000	64.792799 
4680.000000	64.820361 
4679.000000	64.825153 
4678.000000	64.803910 
4677.000000	64.755654 
4676.000000	64.681839 
4675.000000	64.587140 
4674.000000	64.478993 
4673.000000	64.367532 
4672.000000	64.263558 
4671.000000	64.177107 
4670.000000	64.115452 
4669.000000	64.081668 
4668.000000	64.074659 
4667.000000	64.089226 
4666.000000	64.118218 
4665.000000	64.153575 
4664.000000	64.188742 
4663.000000	64.219307 
4662.000000	64.244174 
4661.000000	64.264559 
4660.000000	64.283442 
4659.000000	64.303684 
4658.000000	64.327335 
4657.000000	64.354348 
4656.000000	64.383339 
4655.000000	64.411783 
4654.000000	64.436793 
4653.000000	64.455842 
4652.000000	64.467763 
4651.000000	64.472603 
4650.000000	64.471554 
4649.000000	64.466381 
4648.000000	64.459109 
4647.000000	64.451336 
4646.000000	64.444470 
4645.000000	64.438867 
4644.000000	64.434695 
4643.000000	64.431428 
4642.000000	64.428639 
4641.000000	64.425730 
4640.000000	64.421963 
4639.000000	64.417147 
4638.000000	64.411425 
4637.000000	64.405918 
4636.000000	64.402341 
4635.000000	64.402794 
4634.000000	64.409136 
4633.000000	64.422369 
4632.000000	64.441895 
4631.000000	64.465093 
4630.000000	64.487862 
4629.000000	64.505362 
4628.000000	64.513349 
4627.000000	64.509630 
4626.000000	64.494562 
4625.000000	64.471530 
4624.000000	64.445781 
4623.000000	64.423131 
4622.000000	64.407968 
4621.000000	64.402222 
4620.000000	64.404010 
4619.000000	64.408326 
4618.000000	64.407968 
4617.000000	64.396071 
4616.000000	64.367723 
4615.000000	64.321756 
4614.000000	64.261102 
4613.000000	64.192128 
4612.000000	64.123272 
4611.000000	64.062666 
4610.000000	64.016723 
4609.000000	63.988304 
4608.000000	63.977289 
4607.000000	63.980889 
4606.000000	63.995170 
4605.000000	64.016532 
4604.000000	64.042472 
4603.000000	64.071941 
4602.000000	64.105153 
4601.000000	64.142727 
4600.000000	64.183998 
4599.000000	64.226484 
4598.000000	64.265894 
4597.000000	64.296531 
4596.000000	64.312911 
4595.000000	64.310526 
4594.000000	64.287376 
4593.000000	64.244103 
4592.000000	64.184832 
4591.000000	64.115715 
4590.000000	64.043474 
4589.000000	63.975000 
4588.000000	63.915872 
4587.000000	63.871002 
4586.000000	63.843941 
4585.000000	63.837409 
4584.000000	63.853096 
4583.000000	63.891243 
4582.000000	63.950324 
4581.000000	64.025974 
4580.000000	64.110779 
4579.000000	64.194464 
4578.000000	64.265108 
4577.000000	64.311122 
4576.000000	64.323568 
4575.000000	64.297890 
4574.000000	64.235258 
4573.000000	64.142727 
4572.000000	64.032530 
4571.000000	63.920187 
4570.000000	63.821864 
4569.000000	63.751363 
4568.000000	63.717770 
4567.000000	63.724589 
4566.000000	63.769173 
4565.000000	63.843727 
4564.000000	63.936948 
4563.000000	64.036607 
4562.000000	64.130854 
4561.000000	64.210033 
4560.000000	64.267134 
4559.000000	64.297771 
4558.000000	64.300537 
4557.000000	64.276170 
4556.000000	64.227914 
4555.000000	64.160823 
4554.000000	64.081954 
4553.000000	63.999962 
4552.000000	63.924336 
4551.000000	63.864088 
4550.000000	63.826084 
4549.000000	63.813757 
4548.000000	63.825726 
4547.000000	63.855910 
4546.000000	63.894152 
4545.000000	63.928699 
4544.000000	63.948535 
4543.000000	63.946247 
4542.000000	63.919711 
4541.000000	63.872289 
4540.000000	63.810920 
4539.000000	63.744759 
4538.000000	63.682842 
4537.000000	63.632130 
4536.000000	63.596153 
4535.000000	63.574671 
4534.000000	63.565063 
4533.000000	63.562941 
4532.000000	63.563847 
4531.000000	63.564038 
4530.000000	63.560700 
4529.000000	63.553714 
4528.000000	63.545036 
4527.000000	63.538074 
4526.000000	63.536095 
4525.000000	63.541626 
4524.000000	63.555598 
4523.000000	63.576602 
4522.000000	63.601517 
4521.000000	63.626551 
4520.000000	63.648629 
4519.000000	63.666439 
4518.000000	63.681125 
4517.000000	63.695287 
4516.000000	63.713145 
4515.000000	63.738369 
4514.000000	63.773941 
4513.000000	63.821482 
4512.000000	63.880205 
4511.000000	63.948202 
4510.000000	64.021015 
4509.000000	64.092397 
4508.000000	64.154958 
4507.000000	64.201974 
4506.000000	64.227604 
4505.000000	64.228820 
4504.000000	64.204716 
4503.000000	64.157700 
4502.000000	64.091277 
4501.000000	64.009666 
4500.000000	63.916611 
4499.000000	63.815641 
4498.000000	63.709783 
4497.000000	63.602161 
4496.000000	63.496875 
4495.000000	63.399314 
4494.000000	63.316035 
4493.000000	63.253521 
4492.000000	63.216853 
4491.000000	63.208341 
4490.000000	63.224387 
4489.000000	63.257956 
4488.000000	63.298249 
4487.000000	63.336300 
4486.000000	63.367080 
4485.000000	63.391518 
4484.000000	63.418650 
4483.000000	63.459134 
4482.000000	63.518571 
4481.000000	63.596463 
4480.000000	63.685250 
4479.000000	63.771581 
4478.000000	63.838696 
4477.000000	63.873624 
4476.000000	63.872814 
4475.000000	63.841080 
4474.000000	63.791227 
4473.000000	63.738775 
4472.000000	63.697361 
4471.000000	63.676261 
4470.000000	63.678860 
4469.000000	63.701510 
4468.000000	63.735866 
4467.000000	63.777184 
4466.000000	63.825488 
4465.000000	63.883280 
4464.000000	63.955473 
4463.000000	64.044189 
4462.000000	64.151763 
4461.000000	64.271759 
4460.000000	64.401984 
4459.000000	64.544057 
4458.000000	64.712262 
4457.000000	64.929366 
4456.000000	65.225291 
4455.000000	65.628743 
4454.000000	66.155910 
4453.000000	66.800999 
4452.000000	67.532014 
4451.000000	68.295383 
4450.000000	69.021177 
4449.000000	69.640111 
4448.000000	70.090818 
4447.000000	70.335578 
4446.000000	70.358443 
4445.000000	70.169830 
4444.000000	69.789862 
4443.000000	69.244265 
4442.000000	68.556642 
4441.000000	67.748999 
4440.000000	66.847157 
4439.000000	65.884733 
4438.000000	64.911699 
4437.000000	63.989496 
4436.000000	63.183259 
4435.000000	62.550330 
4434.000000	62.122535 
4433.000000	61.904382 
4432.000000	61.868691 
4431.000000	61.967086 
4430.000000	62.135076 
4429.000000	62.311530 
4428.000000	62.443423 
4427.000000	62.501502 
4426.000000	62.473940 
4425.000000	62.374210 
4424.000000	62.226629 
4423.000000	62.066316 
4422.000000	61.928558 
4421.000000	61.839747 
4420.000000	61.808681 
4419.000000	61.834430 
4418.000000	61.911177 
4417.000000	62.023234 
4416.000000	62.149930 
4415.000000	62.271976 
4414.000000	62.375164 
4413.000000	62.452960 
4412.000000	62.505984 
4411.000000	62.539505 
4410.000000	62.559890 
4409.000000	62.568569 
4408.000000	62.563800 
4407.000000	62.539458 
4406.000000	62.492537 
4405.000000	62.429189 
4404.000000	62.365674 
4403.000000	62.325978 
4402.000000	62.338733 
4401.000000	62.422490 
4400.000000	62.595176 
4399.000000	62.849617 
4398.000000	63.192749 
4397.000000	63.635230 
4396.000000	64.219117 
4395.000000	64.999651 
4394.000000	66.050958 
4393.000000	67.440199 
4392.000000	69.196557 
4391.000000	71.287202 
4390.000000	73.592686 
4389.000000	75.914359 
4388.000000	78.000187 
4387.000000	79.591584 
4386.000000	80.482697 
4385.000000	80.561900 
4384.000000	79.851293 
4383.000000	78.489875 
4382.000000	76.707530 
4381.000000	74.760699 
4380.000000	72.888207 
4379.000000	71.253299 
4378.000000	69.937348 
4377.000000	68.927907 
4376.000000	68.163728 
4375.000000	67.552185 
4374.000000	67.014956 
4373.000000	66.504096 
4372.000000	66.003513 
4371.000000	65.534973 
4370.000000	65.126609 
4369.000000	64.811205 
4368.000000	64.589953 
4367.000000	64.453768 
4366.000000	64.378118 
4365.000000	64.337992 
4364.000000	64.313244 
4363.000000	64.297533 
4362.000000	64.298868 
4361.000000	64.324617 
4360.000000	64.375805 
4359.000000	64.447975 
4358.000000	64.529752 
4357.000000	64.602041 
4356.000000	64.644002 
4355.000000	64.643907 
4354.000000	64.600038 
4353.000000	64.520001 
4352.000000	64.419412 
4351.000000	64.314222 
4350.000000	64.219498 
4349.000000	64.151144 
4348.000000	64.118242 
4347.000000	64.117217 
4346.000000	64.138078 
4345.000000	64.173579 
4344.000000	64.214158 
4343.000000	64.249873 
4342.000000	64.271855 
4341.000000	64.273548 
4340.000000	64.250087 
4339.000000	64.197444 
4338.000000	64.116239 
4337.000000	64.012026 
4336.000000	63.894653 
4335.000000	63.776779 
4334.000000	63.673114 
4333.000000	63.597488 
4332.000000	63.560700 
4331.000000	63.568019 
4330.000000	63.618159 
4329.000000	63.702845 
4328.000000	63.808155 
4327.000000	63.916707 
4326.000000	64.010834 
4325.000000	64.075589 
4324.000000	64.100909 
4323.000000	64.083337 
4322.000000	64.025497 
4321.000000	63.935565 
4320.000000	63.824605 
4319.000000	63.704800 
4318.000000	63.588356 
4317.000000	63.484668 
4316.000000	63.400006 
4315.000000	63.336658 
4314.000000	63.294482 
4313.000000	63.270568 
4312.000000	63.260746 
4311.000000	63.260054 
4310.000000	63.263916 
4309.000000	63.268709 
4308.000000	63.271880 
4307.000000	63.272476 
4306.000000	63.270711 
4305.000000	63.267469 
4304.000000	63.264083 
4303.000000	63.262009 
4302.000000	63.262867 
4301.000000	63.267803 
4300.000000	63.277935 
4299.000000	63.294148 
4298.000000	63.317227 
4297.000000	63.347578 
4296.000000	63.385057 
4295.000000	63.428163 
4294.000000	63.474535 
4293.000000	63.521289 
4292.000000	63.565278 
4291.000000	63.603401 
4290.000000	63.633561 
4289.000000	63.655114 
4288.000000	63.669180 
4287.000000	63.678765 
4286.000000	63.687753 
4285.000000	63.699746 
4284.000000	63.717484 
4283.000000	63.742256 
4282.000000	63.773202 
4281.000000	63.807725 
4280.000000	63.842082 
4279.000000	63.872504 
4278.000000	63.896036 
4277.000000	63.911342 
4276.000000	63.918757 
4275.000000	63.920187 
4274.000000	63.918471 
4273.000000	63.916325 
4272.000000	63.915824 
4271.000000	63.917040 
4270.000000	63.918423 
4269.000000	63.916611 
4268.000000	63.907885 
4267.000000	63.888859 
4266.000000	63.857984 
4265.000000	63.816070 
4264.000000	63.766288 
4263.000000	63.713598 
4262.000000	63.663744 
4261.000000	63.622045 
4260.000000	63.592076 
4259.000000	63.575625 
4258.000000	63.572621 
4257.000000	63.581562 
4256.000000	63.599753 
4255.000000	63.624358 
4254.000000	63.652849 
4253.000000	63.682866 
4252.000000	63.712263 
4251.000000	63.739085 
4250.000000	63.761782 
4249.000000	63.778924 
4248.000000	63.789582 
4247.000000	63.794136 
4246.000000	63.793921 
4245.000000	63.791441 
4244.000000	63.789486 
4243.000000	63.790416 
4242.000000	63.795852 
4241.000000	63.806247 
4240.000000	63.821005 
4239.000000	63.838982 
4238.000000	63.858890 
4237.000000	63.880276 
4236.000000	63.902974 
4235.000000	63.927006 
4234.000000	63.951778 
4233.000000	63.975834 
4232.000000	63.996410 
4231.000000	64.009737 
4230.000000	64.011979 
4229.000000	64.000630 
4228.000000	63.975119 
4227.000000	63.937473 
4226.000000	63.892340 
4225.000000	63.845944 
4224.000000	63.804674 
4223.000000	63.773655 
4222.000000	63.755083 
4221.000000	63.748025 
4220.000000	63.749289 
4219.000000	63.754749 
4218.000000	63.760352 
4217.000000	63.763856 
4216.000000	63.765478 
4215.000000	63.768124 
4214.000000	63.775372 
4213.000000	63.791036 
4212.000000	63.817501 
4211.000000	63.854885 
4210.000000	63.900566 
4209.000000	63.949346 
4208.000000	63.994669 
4207.000000	64.030075 
4206.000000	64.050865 
4205.000000	64.055442 
4204.000000	64.045929 
4203.000000	64.027285 
4202.000000	64.005923 
4201.000000	63.987851 
4200.000000	63.977169 
4199.000000	63.974690 
4198.000000	63.977789 
4197.000000	63.981628 
4196.000000	63.980412 
4195.000000	63.969588 
4194.000000	63.946747 
4193.000000	63.911843 
4192.000000	63.867068 
4191.000000	63.816308 
4190.000000	63.763833 
4189.000000	63.712215 
4188.000000	63.663053 
4187.000000	63.616728 
4186.000000	63.573932 
4185.000000	63.536286 
4184.000000	63.506507 
4183.000000	63.488960 
4182.000000	63.487315 
4181.000000	63.503217 
4180.000000	63.534879 
4179.000000	63.576269 
4178.000000	63.618469 
4177.000000	63.651371 
4176.000000	63.665890 
4175.000000	63.656377 
4174.000000	63.621282 
4173.000000	63.563871 
4172.000000	63.490676 
4171.000000	63.410615 
4170.000000	63.333225 
4169.000000	63.267755 
4168.000000	63.221907 
4167.000000	63.201594 
4166.000000	63.210844 
4165.000000	63.251590 
4164.000000	63.323402 
4163.000000	63.423705 
4162.000000	63.546895 
4161.000000	63.685417 
4160.000000	63.829517 
4159.000000	63.968992 
