PE IR       SPECTRUM    SPECTRUM    ASCII       PEDS        1.60        
  -1
C-1EE0~1.ASC
17/03/27
22:37:33.00
17/03/27
22:37:33.00
tln
$C-4040-8_t0099$<tbV0>[-13.0,7.8,8.0,0.0,27,1,0]
370.000000
64









2002,4.07    
MIRTGS : RIGHTBACK : INTERNAL 2
MIR : ON : INTERNAL 2
OPTKBR

0.200000
8
8.000000
FILLER
RATIO
SPECTRUM
UNLOCKED 256

DOUBLE
64
COMBINED
1
0
0


1.000000
RATIO


1
0
TRUE
51149
0
LEFT NOT FITTED RIGHT NOT FITTED 0
NONE
NONE
15600
12.000000
4.427000
51148
TRUE
1 0 8 72 0 0 0 0 

15798.010000






#HDR
-1
-1
#GR
CM-1
%T
0.00002384185791015625
0.0
5000.000000
-1.000000
4631
8
174.467921
49.062871
#DATA
5000.000000	65.201997  
4999.000000	65.226554  
4998.000000	65.226292  
4997.000000	65.201997  
4996.000000	65.155339  
4995.000000	65.089702  
4994.000000	65.009522  
4993.000000	64.921498  
4992.000000	64.832592  
4991.000000	64.749860  
4990.000000	64.679098  
4989.000000	64.624738  
4988.000000	64.588284  
4987.000000	64.568090  
4986.000000	64.560246  
4985.000000	64.559316  
4984.000000	64.561510  
4983.000000	64.565300  
4982.000000	64.572644  
4981.000000	64.587354  
4980.000000	64.613580  
4979.000000	64.653086  
4978.000000	64.703035  
4977.000000	64.755606  
4976.000000	64.798903  
4975.000000	64.820575  
4974.000000	64.809989  
4973.000000	64.763522  
4972.000000	64.686918  
4971.000000	64.595079  
4970.000000	64.508485  
4969.000000	64.449048  
4968.000000	64.434766  
4967.000000	64.474987  
4966.000000	64.567399  
4965.000000	64.698958  
4964.000000	64.849281  
4963.000000	64.995288  
4962.000000	65.117025  
4961.000000	65.200734  
4960.000000	65.240812  
4959.000000	65.239739  
4958.000000	65.205907  
4957.000000	65.150785  
4956.000000	65.085411  
4955.000000	65.019798  
4954.000000	64.961099  
4953.000000	64.913773  
4952.000000	64.878845  
4951.000000	64.856314  
4950.000000	64.843797  
4949.000000	64.836907  
4948.000000	64.829158  
4947.000000	64.812707  
4946.000000	64.779806  
4945.000000	64.723873  
4944.000000	64.642143  
4943.000000	64.536547  
4942.000000	64.414262  
4941.000000	64.286804  
4940.000000	64.167594  
4939.000000	64.068818  
4938.000000	63.999295  
4937.000000	63.962483  
4936.000000	63.956475  
4935.000000	63.973951  
4934.000000	64.006209  
4933.000000	64.045381  
4932.000000	64.086532  
4931.000000	64.128112  
4930.000000	64.172554  
4929.000000	64.224576  
4928.000000	64.288949  
4927.000000	64.368295  
4926.000000	64.461731  
4925.000000	64.564847  
4924.000000	64.671540  
4923.000000	64.775085  
4922.000000	64.869976  
4921.000000	64.952588  
4920.000000	65.023207  
4919.000000	65.083765  
4918.000000	65.136456  
4917.000000	65.181922  
4916.000000	65.220308  
4915.000000	65.248417  
4914.000000	65.261363  
4913.000000	65.252304  
4912.000000	65.216565  
4911.000000	65.150618  
4910.000000	65.054392  
4909.000000	64.931154  
4908.000000	64.787864  
4907.000000	64.634966  
4906.000000	64.485049  
4905.000000	64.352178  
4904.000000	64.249253  
4903.000000	64.187550  
4902.000000	64.174532  
4901.000000	64.211463  
4900.000000	64.293217  
4899.000000	64.408636  
4898.000000	64.543509  
4897.000000	64.680457  
4896.000000	64.804744  
4895.000000	64.907193  
4894.000000	64.987421  
4893.000000	65.052199  
4892.000000	65.114951  
4891.000000	65.191936  
4890.000000	65.296816  
4889.000000	65.436935  
4888.000000	65.608882  
4887.000000	65.800046  
4886.000000	65.988469  
4885.000000	66.149568  
4884.000000	66.259551  
4883.000000	66.302704  
4882.000000	66.273450  
4881.000000	66.178798  
4880.000000	66.034936  
4879.000000	65.863680  
4878.000000	65.687298  
4877.000000	65.524458  
4876.000000	65.386366  
4875.000000	65.275859  
4874.000000	65.188884  
4873.000000	65.117287  
4872.000000	65.051174  
4871.000000	64.982509  
4870.000000	64.906263  
4869.000000	64.822769  
4868.000000	64.736771  
4867.000000	64.656949  
4866.000000	64.591789  
4865.000000	64.548492  
4864.000000	64.531040  
4863.000000	64.538812  
4862.000000	64.565825  
4861.000000	64.602565  
4860.000000	64.637780  
4859.000000	64.661812  
4858.000000	64.667606  
4857.000000	64.654064  
4856.000000	64.625620  
4855.000000	64.591574  
4854.000000	64.562773  
4853.000000	64.549207  
4852.000000	64.557266  
4851.000000	64.587378  
4850.000000	64.634180  
4849.000000	64.688134  
4848.000000	64.738011  
4847.000000	64.774823  
4846.000000	64.793848  
4845.000000	64.794301  
4844.000000	64.779138  
4843.000000	64.753651  
4842.000000	64.723515  
4841.000000	64.692258  
4840.000000	64.661097  
4839.000000	64.629650  
4838.000000	64.596962  
4837.000000	64.562749  
4836.000000	64.528560  
4835.000000	64.499020  
4834.000000	64.479994  
4833.000000	64.476871  
4832.000000	64.492797  
4831.000000	64.527153  
4830.000000	64.575099  
4829.000000	64.628005  
4828.000000	64.675521  
4827.000000	64.708161  
4826.000000	64.719438  
4825.000000	64.707565  
4824.000000	64.675664  
4823.000000	64.630961  
4822.000000	64.583015  
4821.000000	64.541220  
4820.000000	64.512991  
4819.000000	64.502215  
4818.000000	64.508867  
4817.000000	64.529776  
4816.000000	64.559793  
4815.000000	64.593720  
4814.000000	64.627742  
4813.000000	64.660811  
4812.000000	64.693522  
4811.000000	64.728784  
4810.000000	64.769506  
4809.000000	64.818429  
4808.000000	64.876198  
4807.000000	64.941573  
4806.000000	65.011548  
4805.000000	65.081954  
4804.000000	65.148735  
4803.000000	65.208053  
4802.000000	65.257406  
4801.000000	65.295362  
4800.000000	65.321969  
4799.000000	65.337681  
4798.000000	65.343618  
4797.000000	65.340971  
4796.000000	65.331029  
4795.000000	65.315556  
4794.000000	65.296792  
4793.000000	65.277600  
4792.000000	65.261101  
4791.000000	65.250062  
4790.000000	65.246248  
4789.000000	65.250253  
4788.000000	65.260720  
4787.000000	65.274572  
4786.000000	65.287327  
4785.000000	65.294003  
4784.000000	65.290141  
4783.000000	65.272951  
4782.000000	65.242052  
4781.000000	65.198898  
4780.000000	65.147542  
4779.000000	65.093660  
4778.000000	65.043926  
4777.000000	65.004277  
4776.000000	64.979076  
4775.000000	64.970779  
4774.000000	64.978766  
4773.000000	64.999771  
4772.000000	65.028572  
4771.000000	65.059113  
4770.000000	65.085387  
4769.000000	65.102529  
4768.000000	65.107774  
4767.000000	65.101003  
4766.000000	65.084791  
4765.000000	65.063619  
4764.000000	65.042853  
4763.000000	65.027546  
4762.000000	65.021634  
4761.000000	65.026664  
4760.000000	65.041708  
4759.000000	65.063142  
4758.000000	65.085816  
4757.000000	65.103840  
4756.000000	65.111780  
4755.000000	65.106058  
4754.000000	65.085625  
4753.000000	65.052652  
4752.000000	65.011930  
4751.000000	64.969873  
4750.000000	64.933204  
4749.000000	64.907169  
4748.000000	64.894485  
4747.000000	64.894604  
4746.000000	64.904093  
4745.000000	64.917778  
4744.000000	64.929962  
4743.000000	64.936947  
4742.000000	64.937782  
4741.000000	64.935159  
4740.000000	64.934444  
4739.000000	64.942121  
4738.000000	64.963841  
4737.000000	65.002465  
4736.000000	65.056920  
4735.000000	65.121769  
4734.000000	65.188717  
4733.000000	65.248918  
4732.000000	65.295124  
4731.000000	65.323877  
4730.000000	65.335774  
4729.000000	65.335440  
4728.000000	65.329051  
4727.000000	65.322828  
4726.000000	65.320324  
4725.000000	65.321755  
4724.000000	65.323805  
4723.000000	65.321111  
4722.000000	65.308237  
4721.000000	65.282034  
4720.000000	65.243411  
4719.000000	65.197849  
4718.000000	65.154337  
4717.000000	65.123105  
4716.000000	65.113067  
4715.000000	65.129137  
4714.000000	65.170454  
4713.000000	65.230131  
4712.000000	65.296554  
4711.000000	65.355801  
4710.000000	65.394806  
4709.000000	65.404200  
4708.000000	65.380144  
4707.000000	65.325093  
4706.000000	65.247130  
4705.000000	65.157771  
4704.000000	65.069532  
4703.000000	64.993333  
4702.000000	64.936637  
4701.000000	64.902329  
4700.000000	64.889073  
4699.000000	64.892292  
4698.000000	64.906120  
4697.000000	64.925241  
4696.000000	64.945483  
4695.000000	64.965105  
4694.000000	64.983844  
4693.000000	65.002989  
4692.000000	65.023589  
4691.000000	65.046429  
4690.000000	65.071177  
4689.000000	65.096735  
4688.000000	65.121388  
4687.000000	65.142989  
4686.000000	65.159511  
4685.000000	65.169477  
4684.000000	65.172529  
4683.000000	65.169548  
4682.000000	65.162301  
4681.000000	65.153312  
4680.000000	65.144944  
4679.000000	65.139245  
4678.000000	65.137267  
4677.000000	65.138959  
4676.000000	65.143251  
4675.000000	65.148520  
4674.000000	65.153074  
4673.000000	65.156078  
4672.000000	65.157413  
4671.000000	65.157103  
4670.000000	65.155553  
4669.000000	65.153193  
4668.000000	65.150308  
4667.000000	65.146374  
4666.000000	65.140962  
4665.000000	65.133786  
4664.000000	65.125679  
4663.000000	65.118908  
4662.000000	65.116524  
4661.000000	65.121889  
4660.000000	65.137076  
4659.000000	65.161991  
4658.000000	65.193486  
4657.000000	65.225911  
4656.000000	65.252757  
4655.000000	65.268111  
4654.000000	65.268373  
4653.000000	65.253520  
4652.000000	65.227341  
4651.000000	65.196919  
4650.000000	65.170192  
4649.000000	65.154695  
4648.000000	65.155792  
4647.000000	65.175771  
4646.000000	65.213298  
4645.000000	65.264034  
4644.000000	65.322470  
4643.000000	65.382337  
4642.000000	65.438151  
4641.000000	65.485548  
4640.000000	65.521764  
4639.000000	65.545630  
4638.000000	65.556883  
4637.000000	65.556883  
4636.000000	65.548014  
4635.000000	65.533757  
4634.000000	65.518116  
4633.000000	65.504813  
4632.000000	65.496373  
4631.000000	65.493321  
4630.000000	65.493845  
4629.000000	65.493941  
4628.000000	65.488004  
4627.000000	65.470576  
4626.000000	65.437340  
4625.000000	65.386366  
4624.000000	65.318393  
4623.000000	65.236854  
4622.000000	65.146923  
4621.000000	65.054631  
4620.000000	64.965867  
4619.000000	64.884901  
4618.000000	64.814662  
4617.000000	64.756584  
4616.000000	64.711284  
4615.000000	64.678907  
4614.000000	64.659714  
4613.000000	64.653992  
4612.000000	64.661574  
4611.000000	64.680838  
4610.000000	64.708971  
4609.000000	64.741349  
4608.000000	64.772605  
4607.000000	64.796853  
4606.000000	64.810156  
4605.000000	64.811420  
4604.000000	64.802885  
4603.000000	64.789724  
4602.000000	64.778995  
4601.000000	64.777374  
4600.000000	64.789748  
4599.000000	64.817285  
4598.000000	64.857053  
4597.000000	64.902400  
4596.000000	64.945149  
4595.000000	64.977025  
4594.000000	64.991855  
4593.000000	64.986944  
4592.000000	64.964032  
4591.000000	64.928603  
4590.000000	64.887690  
4589.000000	64.849138  
4588.000000	64.819574  
4587.000000	64.803099  
4586.000000	64.801096  
4585.000000	64.811754  
4584.000000	64.831638  
4583.000000	64.855194  
4582.000000	64.876675  
4581.000000	64.890336  
4580.000000	64.891743  
4579.000000	64.878249  
4578.000000	64.849448  
4577.000000	64.807248  
4576.000000	64.755439  
4575.000000	64.699578  
4574.000000	64.645981  
4573.000000	64.600157  
4572.000000	64.566230  
4571.000000	64.546751  
4570.000000	64.542555  
4569.000000	64.552474  
4568.000000	64.574408  
4567.000000	64.606523  
4566.000000	64.647006  
4565.000000	64.693474  
4564.000000	64.742898  
4563.000000	64.791440  
4562.000000	64.834117  
4561.000000	64.864706  
4560.000000	64.877724  
4559.000000	64.869141  
4558.000000	64.838790  
4557.000000	64.791226  
4556.000000	64.734721  
4555.000000	64.679741  
4554.000000	64.636468  
4553.000000	64.612960  
4552.000000	64.611291  
4551.000000	64.626979  
4550.000000	64.649868  
4549.000000	64.666652  
4548.000000	64.664316  
4547.000000	64.633011  
4546.000000	64.569258  
4545.000000	64.475679  
4544.000000	64.360046  
4543.000000	64.232206  
4542.000000	64.101386  
4541.000000	63.973617  
4540.000000	63.850784  
4539.000000	63.731622  
4538.000000	63.612914  
4537.000000	63.492989  
4536.000000	63.373160  
4535.000000	63.260054  
4534.000000	63.162374  
4533.000000	63.092565  
4532.000000	63.061881  
4531.000000	63.079714  
4530.000000	63.148474  
4529.000000	63.265538  
4528.000000	63.421964  
4527.000000	63.604831  
4526.000000	63.798689  
4525.000000	63.988447  
4524.000000	64.160799  
4523.000000	64.305663  
4522.000000	64.416503  
4521.000000	64.489912  
4520.000000	64.525008  
4519.000000	64.524030  
4518.000000	64.491009  
4517.000000	64.432525  
4516.000000	64.355540  
4515.000000	64.269375  
4514.000000	64.181947  
4513.000000	64.100098  
4512.000000	64.026975  
4511.000000	63.963699  
4510.000000	63.907909  
4509.000000	63.855099  
4508.000000	63.800120  
4507.000000	63.739490  
4506.000000	63.672375  
4505.000000	63.600873  
4504.000000	63.529968  
4503.000000	63.465642  
4502.000000	63.413691  
4501.000000	63.377428  
4500.000000	63.357424  
4499.000000	63.350892  
4498.000000	63.353729  
4497.000000	63.362002  
4496.000000	63.372826  
4495.000000	63.385009  
4494.000000	63.399600  
4493.000000	63.418889  
4492.000000	63.444161  
4491.000000	63.475131  
4490.000000	63.510060  
4489.000000	63.545703  
4488.000000	63.578748  
4487.000000	63.605880  
4486.000000	63.625192  
4485.000000	63.635897  
4484.000000	63.639187  
4483.000000	63.636946  
4482.000000	63.631200  
4481.000000	63.623332  
4480.000000	63.614392  
4479.000000	63.604283  
4478.000000	63.592147  
4477.000000	63.576817  
4476.000000	63.557982  
4475.000000	63.536071  
4474.000000	63.512516  
4473.000000	63.489317  
4472.000000	63.468575  
4471.000000	63.451671  
4470.000000	63.438916  
4469.000000	63.429427  
4468.000000	63.421607  
4467.000000	63.413262  
4466.000000	63.402867  
4465.000000	63.389635  
4464.000000	63.374495  
4463.000000	63.360214  
4462.000000	63.350701  
4461.000000	63.349890  
4460.000000	63.360261  
4459.000000	63.382029  
4458.000000	63.412809  
4457.000000	63.447237  
4456.000000	63.479018  
4455.000000	63.502955  
4454.000000	63.515782  
4453.000000	63.517236  
4452.000000	63.509106  
4451.000000	63.494801  
4450.000000	63.477158  
4449.000000	63.456988  
4448.000000	63.433694  
4447.000000	63.405871  
4446.000000	63.372492  
4445.000000	63.334250  
4444.000000	63.293218  
4443.000000	63.252687  
4442.000000	63.216686  
4441.000000	63.188862  
4440.000000	63.171982  
4439.000000	63.166618  
4438.000000	63.172125  
4437.000000	63.185572  
4436.000000	63.200974  
4435.000000	63.210964  
4434.000000	63.208150  
4433.000000	63.187551  
4432.000000	63.148927  
4431.000000	63.095712  
4430.000000	63.036298  
4429.000000	62.978577  
4428.000000	62.927818  
4427.000000	62.883782  
4426.000000	62.841296  
4425.000000	62.791609  
4424.000000	62.720775  
4423.000000	62.622284  
4422.000000	62.508654  
4421.000000	62.393283  
4420.000000	62.275314  
4419.000000	62.171268  
4418.000000	62.121033  
4417.000000	62.139773  
4416.000000	62.211441  
4415.000000	62.317490  
4414.000000	62.438464  
4413.000000	62.568759  
4412.000000	62.717247  
4411.000000	62.869191  
4410.000000	63.001561  
4409.000000	63.110589  
4408.000000	63.202476  
4407.000000	63.304185  
4406.000000	63.436031  
4405.000000	63.598203  
4404.000000	63.771033  
4403.000000	63.863968  
4402.000000	63.810181  
4401.000000	63.612985  
4400.000000	63.348817  
4399.000000	63.174295  
4398.000000	63.273477  
4397.000000	63.717770  
4396.000000	64.612412  
4395.000000	65.942168  
4394.000000	67.932057  
4393.000000	71.023821  
4392.000000	75.810408  
4391.000000	82.895755  
4390.000000	92.347908  
4389.000000	103.548145 
4388.000000	115.038204 
4387.000000	124.809885 
4386.000000	130.955576 
4385.000000	132.130408 
4384.000000	128.158974 
4383.000000	119.954752 
4382.000000	109.189510 
4381.000000	97.829270  
4380.000000	87.455463  
4379.000000	79.054427  
4378.000000	72.969341  
4377.000000	68.937611  
4376.000000	66.592788  
4375.000000	65.417885  
4374.000000	65.007162  
4373.000000	65.066838  
4372.000000	65.277600  
4371.000000	65.480232  
4370.000000	65.529608  
4369.000000	65.411090  
4368.000000	65.153837  
4367.000000	64.842391  
4366.000000	64.554977  
4365.000000	64.344382  
4364.000000	64.202904  
4363.000000	64.112925  
4362.000000	64.058423  
4361.000000	64.024877  
4360.000000	64.007186  
4359.000000	64.003872  
4358.000000	64.017772  
4357.000000	64.030456  
4356.000000	64.015054  
4355.000000	63.970732  
4354.000000	63.911437  
4353.000000	63.852572  
4352.000000	63.811349  
4351.000000	63.786029  
4350.000000	63.767886  
4349.000000	63.773870  
4348.000000	63.814806  
4347.000000	63.865447  
4346.000000	63.896989  
4345.000000	63.900232  
4344.000000	63.870835  
4343.000000	63.806819  
4342.000000	63.714718  
4341.000000	63.606691  
4340.000000	63.498425  
4339.000000	63.405537  
4338.000000	63.340544  
4337.000000	63.310408  
4336.000000	63.315629  
4335.000000	63.350963  
4334.000000	63.408541  
4333.000000	63.480615  
4332.000000	63.560461  
4331.000000	63.644003  
4330.000000	63.729834  
4329.000000	63.817930  
4328.000000	63.907694  
4327.000000	63.996458  
4326.000000	64.079093  
4325.000000	64.147877  
4324.000000	64.194631  
4323.000000	64.211654  
4322.000000	64.195013  
4321.000000	64.144420  
4320.000000	64.064168  
4319.000000	63.961672  
4318.000000	63.847279  
4317.000000	63.731241  
4316.000000	63.622331  
4315.000000	63.526487  
4314.000000	63.446831  
4313.000000	63.383722  
4312.000000	63.335633  
4311.000000	63.300514  
4310.000000	63.276767  
4309.000000	63.263869  
4308.000000	63.262319  
4307.000000	63.273739  
4306.000000	63.299918  
4305.000000	63.341546  
4304.000000	63.397359  
4303.000000	63.463830  
4302.000000	63.535189  
4301.000000	63.604426  
4300.000000	63.664174  
4299.000000	63.707852  
4298.000000	63.730955  
4297.000000	63.731813  
4296.000000	63.712143  
4295.000000	63.676691  
4294.000000	63.632559  
4293.000000	63.588047  
4292.000000	63.550925  
4291.000000	63.527441  
4290.000000	63.520908  
4289.000000	63.531708  
4288.000000	63.557314  
4287.000000	63.593006  
4286.000000	63.633418  
4285.000000	63.673686  
4284.000000	63.710975  
4283.000000	63.744974  
4282.000000	63.778042  
4281.000000	63.814020  
4280.000000	63.857173  
4279.000000	63.910269  
4278.000000	63.973188  
4277.000000	64.042496  
4276.000000	64.111924  
4275.000000	64.174175  
4274.000000	64.222979  
4273.000000	64.254903  
4272.000000	64.270925  
4271.000000	64.275860  
4270.000000	64.277696  
4269.000000	64.284324  
4268.000000	64.302349  
4267.000000	64.333152  
4266.000000	64.373397  
4265.000000	64.414286  
4264.000000	64.445257  
4263.000000	64.455294  
4262.000000	64.436578  
4261.000000	64.386010  
4260.000000	64.306712  
4259.000000	64.206457  
4258.000000	64.095807  
4257.000000	63.985991  
4256.000000	63.886332  
4255.000000	63.803577  
4254.000000	63.741374  
4253.000000	63.700842  
4252.000000	63.681292  
4251.000000	63.681292  
4250.000000	63.699173  
4249.000000	63.732290  
4248.000000	63.777422  
4247.000000	63.829994  
4246.000000	63.885426  
4245.000000	63.938117  
4244.000000	63.984465  
4243.000000	64.023303  
4242.000000	64.056730  
4241.000000	64.089608  
4240.000000	64.127659  
4239.000000	64.176225  
4238.000000	64.237499  
4237.000000	64.309740  
4236.000000	64.387178  
4235.000000	64.461255  
4234.000000	64.522790  
4233.000000	64.565038  
4232.000000	64.584755  
4231.000000	64.583516  
4230.000000	64.566612  
4229.000000	64.541673  
4228.000000	64.515948  
4227.000000	64.494609  
4226.000000	64.479923  
4225.000000	64.471387  
4224.000000	64.466810  
4223.000000	64.463472  
4222.000000	64.460420  
4221.000000	64.458465  
4220.000000	64.459848  
4219.000000	64.467072  
4218.000000	64.480757  
4217.000000	64.499592  
4216.000000	64.519858  
4215.000000	64.536404  
4214.000000	64.544272  
4213.000000	64.539957  
4212.000000	64.522576  
4211.000000	64.493966  
4210.000000	64.458966  
4209.000000	64.423370  
4208.000000	64.392280  
4207.000000	64.368653  
4206.000000	64.352393  
4205.000000	64.341235  
4204.000000	64.331984  
4203.000000	64.321517  
4202.000000	64.307880  
4201.000000	64.291977  
4200.000000	64.277482  
4199.000000	64.269399  
4198.000000	64.272475  
4197.000000	64.289736  
4196.000000	64.320898  
4195.000000	64.362311  
4194.000000	64.407348  
