PE IR       SPECTRUM    SPECTRUM    ASCII       PEDS        1.60        
  -1
BZ2C70~1.ASC
17/04/10
10:27:47.00
17/04/10
10:27:47.00
tln
$BZ12041010-4_t0019$<tbV0>[-2.6,-4.6,9.0,0.0,22,1,0]
370.000000
64









2002,4.07    
MIRTGS : RIGHTBACK : INTERNAL 2
MIR : ON : INTERNAL 2
OPTKBR

0.200000
8
8.000000
FILLER
RATIO
SPECTRUM
UNLOCKED 256

DOUBLE
64
COMBINED
1
0
0


1.000000
RATIO


1
0
TRUE
51149
0
LEFT NOT FITTED RIGHT NOT FITTED 0
NONE
NONE
15600
12.000000
4.427000
51148
TRUE
1 0 8 72 0 0 0 0 

15798.010000






#HDR
-1
-1
#GR
CM-1
%T
0.00002384185791015625
0.0
5000.000000
-1.000000
4631
8
76.499700
9.356856
#DATA
5000.000000	65.103220 
4999.000000	64.981245 
4998.000000	64.838290 
4997.000000	64.693498 
4996.000000	64.562797 
4995.000000	64.457559 
4994.000000	64.381694 
4993.000000	64.333009 
4992.000000	64.304232 
4991.000000	64.286088 
4990.000000	64.270615 
4989.000000	64.253211 
4988.000000	64.233684 
4987.000000	64.215040 
4986.000000	64.202332 
4985.000000	64.199900 
4984.000000	64.210343 
4983.000000	64.233207 
4982.000000	64.265394 
4981.000000	64.301872 
4980.000000	64.338207 
4979.000000	64.371228 
4978.000000	64.399695 
4977.000000	64.423394 
4976.000000	64.443039 
4975.000000	64.458203 
4974.000000	64.466238 
4973.000000	64.461660 
4972.000000	64.438056 
4971.000000	64.389085 
4970.000000	64.310836 
4969.000000	64.204072 
4968.000000	64.074850 
4967.000000	63.935065 
4966.000000	63.800525 
4965.000000	63.688611 
4964.000000	63.613939 
4963.000000	63.586783 
4962.000000	63.610410 
4961.000000	63.681006 
4960.000000	63.787984 
4959.000000	63.916635 
4958.000000	64.050602 
4957.000000	64.174342 
4956.000000	64.275479 
4955.000000	64.346313 
4954.000000	64.384412 
4953.000000	64.391708 
4952.000000	64.373207 
4951.000000	64.336323 
4950.000000	64.288330 
4949.000000	64.235854 
4948.000000	64.182949 
4947.000000	64.132142 
4946.000000	64.083933 
4945.000000	64.038300 
4944.000000	63.995242 
4943.000000	63.955593 
4942.000000	63.921403 
4941.000000	63.895535 
4940.000000	63.881230 
4939.000000	63.880443 
4938.000000	63.893651 
4937.000000	63.918590 
4936.000000	63.951611 
4935.000000	63.987374 
4934.000000	64.021539 
4933.000000	64.051437 
4932.000000	64.077949 
4931.000000	64.104771 
4930.000000	64.138197 
4929.000000	64.185047 
4928.000000	64.250326 
4927.000000	64.335250 
4926.000000	64.436936 
4925.000000	64.547991 
4924.000000	64.658093 
4923.000000	64.755630 
4922.000000	64.830470 
4921.000000	64.875245 
4920.000000	64.887928 
4919.000000	64.870786 
4918.000000	64.829421 
4917.000000	64.771056 
4916.000000	64.704179 
4915.000000	64.635229 
4914.000000	64.568471 
4913.000000	64.504814 
4912.000000	64.444303 
4911.000000	64.385223 
4910.000000	64.326119 
4909.000000	64.266252 
4908.000000	64.206385 
4907.000000	64.148545 
4906.000000	64.095282 
4905.000000	64.049410 
4904.000000	64.012670 
4903.000000	63.986492 
4902.000000	63.971805 
4901.000000	63.968086 
4900.000000	63.973617 
4899.000000	63.987135 
4898.000000	64.008331 
4897.000000	64.036250 
4896.000000	64.070677 
4895.000000	64.112329 
4894.000000	64.163064 
4893.000000	64.224386 
4892.000000	64.297533 
4891.000000	64.383077 
4890.000000	64.479660 
4889.000000	64.584136 
4888.000000	64.690971 
4887.000000	64.792299 
4886.000000	64.879870 
4885.000000	64.947152 
4884.000000	64.990711 
4883.000000	65.010976 
4882.000000	65.012550 
4881.000000	65.004754 
4880.000000	64.996147 
4879.000000	64.993071 
4878.000000	64.995908 
4877.000000	64.999890 
4876.000000	64.992952 
4875.000000	64.959168 
4874.000000	64.883399 
4873.000000	64.756131 
4872.000000	64.576005 
4871.000000	64.351987 
4870.000000	64.102458 
4869.000000	63.852691 
4868.000000	63.628768 
4867.000000	63.454198 
4866.000000	63.344049 
4865.000000	63.304591 
4864.000000	63.331723 
4863.000000	63.414978 
4862.000000	63.538622 
4861.000000	63.687586 
4860.000000	63.849377 
4859.000000	64.016318 
4858.000000	64.181756 
4857.000000	64.342665 
4856.000000	64.495921 
4855.000000	64.639306 
4854.000000	64.768886 
4853.000000	64.882373 
4852.000000	64.979720 
4851.000000	65.064096 
4850.000000	65.141916 
4849.000000	65.220856 
4848.000000	65.308022 
4847.000000	65.405941 
4846.000000	65.511751 
4845.000000	65.618801 
4844.000000	65.718722 
4843.000000	65.802884 
4842.000000	65.865993 
4841.000000	65.910410 
4840.000000	65.943980 
4839.000000	65.980362 
4838.000000	66.030883 
4837.000000	66.100788 
4836.000000	66.184258 
4835.000000	66.267085 
4834.000000	66.326880 
4833.000000	66.338896 
4832.000000	66.283488 
4831.000000	66.153216 
4830.000000	65.955972 
4829.000000	65.714740 
4828.000000	65.463089 
4827.000000	65.237522 
4826.000000	65.069532 
4825.000000	64.979314 
4824.000000	64.968204 
4823.000000	65.018677 
4822.000000	65.095758 
4821.000000	65.155076 
4820.000000	65.148878 
4819.000000	65.037226 
4818.000000	64.794445 
4817.000000	64.417815 
4816.000000	63.926100 
4815.000000	63.361454 
4814.000000	62.781476 
4813.000000	62.252569 
4812.000000	61.837172 
4811.000000	61.584234 
4810.000000	61.519980 
4809.000000	61.644601 
4808.000000	61.930823 
4807.000000	62.332820 
4806.000000	62.793159 
4805.000000	63.255858 
4804.000000	63.672971 
4803.000000	64.012598 
4802.000000	64.258098 
4801.000000	64.407849 
4800.000000	64.469528 
4799.000000	64.454913 
4798.000000	64.374947 
4797.000000	64.239311 
4796.000000	64.058136 
4795.000000	63.841819 
4794.000000	63.603830 
4793.000000	63.362884 
4792.000000	63.142490 
4791.000000	62.965798 
4790.000000	62.852215 
4789.000000	62.812709 
4788.000000	62.848591 
4787.000000	62.949800 
4786.000000	63.098454 
4785.000000	63.273072 
4784.000000	63.452863 
4783.000000	63.618254 
4782.000000	63.756012 
4781.000000	63.858699 
4780.000000	63.926458 
4779.000000	63.962912 
4778.000000	63.976502 
4777.000000	63.977193 
4776.000000	63.975405 
4775.000000	63.981580 
4774.000000	64.002609 
4773.000000	64.041614 
4772.000000	64.097499 
4771.000000	64.167094 
4770.000000	64.243507 
4769.000000	64.317941 
4768.000000	64.381313 
4767.000000	64.426541 
4766.000000	64.450144 
4765.000000	64.453744 
4764.000000	64.444041 
4763.000000	64.431977 
4762.000000	64.431118 
4761.000000	64.454317 
4760.000000	64.511084 
4759.000000	64.604115 
4758.000000	64.729261 
4757.000000	64.874267 
4756.000000	65.021324 
4755.000000	65.149879 
4754.000000	65.240955 
4753.000000	65.281343 
4752.000000	65.267276 
4751.000000	65.204381 
4750.000000	65.106678 
4749.000000	64.992284 
4748.000000	64.879488 
4747.000000	64.782261 
4746.000000	64.708209 
4745.000000	64.657950 
4744.000000	64.627170 
4743.000000	64.609169 
4742.000000	64.598035 
4741.000000	64.590144 
4740.000000	64.585018 
4739.000000	64.583396 
4738.000000	64.585661 
4737.000000	64.590430 
4736.000000	64.594173 
4735.000000	64.590549 
4734.000000	64.572763 
4733.000000	64.536237 
4732.000000	64.480733 
4731.000000	64.411115 
4730.000000	64.336943 
4729.000000	64.269995 
4728.000000	64.222025 
4727.000000	64.200973 
4726.000000	64.210581 
4725.000000	64.249444 
4724.000000	64.312458 
4723.000000	64.391827 
4722.000000	64.479517 
4721.000000	64.568758 
4720.000000	64.654374 
4719.000000	64.732861 
4718.000000	64.801454 
4717.000000	64.857244 
4716.000000	64.897370 
4715.000000	64.919042 
4714.000000	64.919829 
4713.000000	64.898371 
4712.000000	64.855432 
4711.000000	64.794135 
4710.000000	64.719414 
4709.000000	64.637780 
4708.000000	64.556074 
4707.000000	64.481067 
4706.000000	64.418840 
4705.000000	64.374256 
4704.000000	64.351129 
4703.000000	64.351439 
4702.000000	64.375209 
4701.000000	64.420104 
4700.000000	64.480805 
4699.000000	64.549875 
4698.000000	64.618325 
4697.000000	64.677619 
4696.000000	64.720535 
4695.000000	64.743256 
4694.000000	64.745736 
4693.000000	64.731526 
4692.000000	64.707016 
4691.000000	64.678955 
4690.000000	64.653062 
4689.000000	64.631867 
4688.000000	64.614295 
4687.000000	64.596581 
4686.000000	64.574003 
4685.000000	64.542841 
4684.000000	64.501929 
4683.000000	64.453577 
4682.000000	64.403033 
4681.000000	64.357352 
4680.000000	64.323329 
4679.000000	64.304733 
4678.000000	64.301443 
4677.000000	64.309144 
4676.000000	64.320254 
4675.000000	64.326047 
4674.000000	64.319086 
4673.000000	64.295172 
4672.000000	64.254856 
4671.000000	64.202880 
4670.000000	64.147758 
4669.000000	64.098858 
4668.000000	64.065217 
4667.000000	64.053010 
4666.000000	64.064335 
4665.000000	64.096713 
4664.000000	64.143252 
4663.000000	64.194560 
4662.000000	64.240217 
4661.000000	64.271211 
4660.000000	64.282441 
4659.000000	64.273595 
4658.000000	64.250063 
4657.000000	64.221334 
4656.000000	64.198970 
4655.000000	64.193511 
4654.000000	64.211940 
4653.000000	64.255213 
4652.000000	64.317512 
4651.000000	64.387321 
4650.000000	64.449954 
4649.000000	64.491343 
4648.000000	64.501309 
4647.000000	64.476609 
4646.000000	64.421749 
4645.000000	64.348077 
4644.000000	64.270663 
4643.000000	64.204835 
4642.000000	64.162135 
4641.000000	64.148020 
4640.000000	64.161443 
4639.000000	64.195156 
4638.000000	64.238715 
4637.000000	64.280939 
4636.000000	64.313244 
4635.000000	64.330863 
4634.000000	64.333581 
4633.000000	64.325284 
4632.000000	64.311981 
4631.000000	64.299821 
4630.000000	64.292860 
4629.000000	64.292502 
4628.000000	64.296793 
4627.000000	64.302134 
4626.000000	64.304232 
4625.000000	64.299678 
4624.000000	64.286661 
4623.000000	64.266276 
4622.000000	64.241456 
4621.000000	64.215993 
4620.000000	64.193153 
4619.000000	64.174818 
4618.000000	64.160656 
4617.000000	64.148640 
4616.000000	64.135289 
4615.000000	64.117145 
4614.000000	64.091181 
4613.000000	64.055490 
4612.000000	64.009904 
4611.000000	63.956022 
4610.000000	63.896727 
4609.000000	63.834905 
4608.000000	63.773798 
4607.000000	63.716173 
4606.000000	63.665175 
4605.000000	63.624310 
4604.000000	63.597059 
4603.000000	63.586711 
4602.000000	63.596391 
4601.000000	63.628435 
4600.000000	63.683032 
4599.000000	63.757824 
4598.000000	63.847804 
4597.000000	63.945794 
4596.000000	64.042830 
4595.000000	64.129567 
4594.000000	64.197587 
4593.000000	64.241123 
4592.000000	64.257502 
4591.000000	64.248371 
4590.000000	64.219045 
4589.000000	64.177918 
4588.000000	64.135432 
4587.000000	64.101624 
4586.000000	64.084839 
4585.000000	64.089298 
4584.000000	64.115405 
4583.000000	64.158344 
4582.000000	64.209628 
4581.000000	64.258265 
4580.000000	64.293384 
4579.000000	64.306020 
4578.000000	64.291024 
4577.000000	64.247798 
4576.000000	64.180207 
4575.000000	64.095616 
4574.000000	64.003038 
4573.000000	63.911342 
4572.000000	63.827681 
4571.000000	63.756513 
4570.000000	63.699769 
4569.000000	63.656997 
4568.000000	63.627004 
4567.000000	63.608479 
4566.000000	63.601040 
4565.000000	63.604235 
4564.000000	63.618016 
4563.000000	63.641571 
4562.000000	63.673186 
4561.000000	63.708853 
4560.000000	63.744068 
4559.000000	63.774156 
4558.000000	63.795804 
4557.000000	63.807725 
4556.000000	63.810372 
4555.000000	63.805484 
4554.000000	63.795137 
4553.000000	63.781261 
4552.000000	63.764214 
4551.000000	63.742756 
4550.000000	63.715076 
4549.000000	63.679814 
4548.000000	63.637208 
4547.000000	63.589572 
4546.000000	63.542079 
4545.000000	63.501572 
4544.000000	63.474464 
4543.000000	63.465213 
4542.000000	63.475036 
4541.000000	63.501024 
4540.000000	63.536620 
4539.000000	63.573002 
4538.000000	63.601517 
4537.000000	63.615393 
4536.000000	63.610720 
4535.000000	63.587951 
4534.000000	63.550877 
4533.000000	63.506960 
4532.000000	63.465237 
4531.000000	63.435220 
4530.000000	63.424944 
4529.000000	63.439249 
4528.000000	63.478779 
4527.000000	63.540577 
4526.000000	63.618993 
4525.000000	63.707447 
4524.000000	63.799667 
4523.000000	63.891530 
4522.000000	63.980937 
4521.000000	64.066600 
4520.000000	64.147186 
4519.000000	64.220547 
4518.000000	64.283466 
4517.000000	64.331889 
4516.000000	64.361858 
4515.000000	64.371728 
4514.000000	64.362001 
4513.000000	64.336585 
4512.000000	64.301061 
4511.000000	64.261746 
4510.000000	64.224386 
4509.000000	64.192986 
4508.000000	64.169907 
4507.000000	64.156317 
4506.000000	64.152812 
4505.000000	64.157700 
4504.000000	64.171957 
4503.000000	64.201235 
4502.000000	64.251017 
4501.000000	64.322638 
4500.000000	64.417147 
4499.000000	64.535069 
4498.000000	64.671468 
4497.000000	64.816188 
4496.000000	64.957523 
4495.000000	65.084195 
4494.000000	65.188837 
4493.000000	65.268659 
4492.000000	65.325784 
4491.000000	65.364503 
4490.000000	65.388774 
4489.000000	65.398764 
4488.000000	65.395784 
4487.000000	65.376710 
4486.000000	65.332317 
4485.000000	65.254354 
4484.000000	65.130496 
4483.000000	64.964365 
4482.000000	64.778065 
4481.000000	64.617848 
4480.000000	64.535140 
4479.000000	64.594006 
4478.000000	64.849829 
4477.000000	65.347385 
4476.000000	66.097736 
4475.000000	67.093753 
4474.000000	68.308687 
4473.000000	69.690346 
4472.000000	71.165466 
4471.000000	72.626638 
4470.000000	73.945713 
4469.000000	74.981784 
4468.000000	75.612926 
4467.000000	75.774216 
4466.000000	75.481915 
4465.000000	74.852609 
4464.000000	74.075722 
4463.000000	73.387289 
4462.000000	72.994160 
4461.000000	73.039960 
4460.000000	73.538661 
4459.000000	74.381589 
4458.000000	75.340628 
4457.000000	76.137447 
4456.000000	76.499700 
4455.000000	76.241397 
4454.000000	75.297236 
4453.000000	73.745107 
4452.000000	71.774554 
4451.000000	69.632196 
4450.000000	67.567753 
4449.000000	65.768408 
4448.000000	64.348483 
4447.000000	63.342809 
4446.000000	62.723898 
4445.000000	62.433505 
4444.000000	62.394547 
4443.000000	62.537193 
4442.000000	62.789368 
4441.000000	63.087892 
4440.000000	63.388109 
4439.000000	63.666224 
4438.000000	63.913202 
4437.000000	64.130854 
4436.000000	64.324951 
4435.000000	64.497613 
4434.000000	64.639687 
4433.000000	64.733052 
4432.000000	64.758181 
4431.000000	64.698481 
4430.000000	64.556908 
4429.000000	64.347553 
4428.000000	64.094543 
4427.000000	63.826227 
4426.000000	63.569474 
4425.000000	63.345384 
4424.000000	63.166832 
4423.000000	63.038182 
4422.000000	62.958765 
4421.000000	62.921500 
4420.000000	62.913918 
4419.000000	62.927079 
4418.000000	62.959027 
4417.000000	63.006687 
4416.000000	63.063955 
4415.000000	63.126301 
4414.000000	63.189911 
4413.000000	63.249945 
4412.000000	63.301587 
4411.000000	63.341784 
4410.000000	63.369560 
4409.000000	63.387274 
4408.000000	63.399124 
4407.000000	63.409185 
4406.000000	63.420343 
4405.000000	63.434171 
4404.000000	63.450455 
4403.000000	63.467764 
4402.000000	63.484025 
4401.000000	63.497853 
4400.000000	63.509011 
4399.000000	63.518524 
4398.000000	63.528585 
4397.000000	63.541674 
4396.000000	63.560748 
4395.000000	63.588547 
4394.000000	63.626933 
4393.000000	63.676095 
4392.000000	63.735437 
4391.000000	63.803434 
4390.000000	63.877272 
4389.000000	63.952875 
4388.000000	64.024853 
4387.000000	64.087152 
4386.000000	64.134335 
4385.000000	64.162516 
4384.000000	64.170384 
4383.000000	64.159870 
4382.000000	64.136385 
4381.000000	64.107537 
4380.000000	64.082169 
4379.000000	64.067602 
4378.000000	64.068984 
4377.000000	64.086747 
4376.000000	64.117503 
4375.000000	64.153885 
4374.000000	64.186716 
4373.000000	64.207077 
4372.000000	64.208459 
4371.000000	64.188337 
4370.000000	64.148783 
4369.000000	64.095616 
4368.000000	64.036703 
4367.000000	63.979911 
4366.000000	63.931035 
4365.000000	63.892436 
4364.000000	63.862800 
4363.000000	63.837957 
4362.000000	63.812589 
4361.000000	63.782262 
4360.000000	63.745045 
4359.000000	63.702511 
4358.000000	63.659763 
4357.000000	63.623476 
4356.000000	63.600587 
4355.000000	63.595986 
4354.000000	63.611459 
4353.000000	63.644480 
4352.000000	63.689517 
4351.000000	63.739418 
4350.000000	63.787364 
4349.000000	63.828444 
4348.000000	63.860583 
4347.000000	63.884472 
4346.000000	63.902878 
4345.000000	63.918924 
4344.000000	63.935136 
4343.000000	63.952207 
4342.000000	63.969111 
4341.000000	63.983535 
4340.000000	63.992881 
4339.000000	63.995504 
4338.000000	63.991737 
4337.000000	63.984417 
4336.000000	63.977766 
4335.000000	63.976693 
4334.000000	63.985443 
4333.000000	64.006495 
4332.000000	64.039921 
4331.000000	64.083075 
4330.000000	64.131450 
4329.000000	64.179468 
4328.000000	64.221429 
4327.000000	64.252352 
4326.000000	64.269018 
4325.000000	64.270257 
4324.000000	64.257192 
4323.000000	64.232468 
4322.000000	64.200186 
4321.000000	64.164471 
4320.000000	64.129304 
4319.000000	64.097714 
4318.000000	64.071393 
4317.000000	64.051222 
4316.000000	64.037942 
4315.000000	64.032244 
4314.000000	64.034938 
4313.000000	64.046978 
4312.000000	64.068889 
4311.000000	64.100337 
4310.000000	64.139556 
4309.000000	64.183235 
4308.000000	64.226865 
4307.000000	64.265394 
4306.000000	64.294338 
4305.000000	64.310956 
4304.000000	64.314794 
4303.000000	64.307951 
4302.000000	64.294290 
4301.000000	64.278483 
4300.000000	64.264345 
4299.000000	64.253997 
4298.000000	64.247107 
4297.000000	64.241790 
4296.000000	64.235067 
4295.000000	64.223980 
4294.000000	64.206600 
4293.000000	64.182996 
4292.000000	64.155340 
4291.000000	64.127111 
4290.000000	64.102506 
4289.000000	64.085078 
4288.000000	64.077425 
4287.000000	64.080500 
4286.000000	64.093852 
4285.000000	64.115667 
4284.000000	64.143776 
4283.000000	64.176106 
4282.000000	64.211153 
4281.000000	64.247822 
4280.000000	64.285421 
4279.000000	64.323067 
4278.000000	64.359688 
4277.000000	64.393591 
4276.000000	64.422678 
4275.000000	64.444088 
4274.000000	64.455199 
4273.000000	64.453315 
4272.000000	64.436793 
4271.000000	64.404988 
4270.000000	64.358496 
4269.000000	64.299464 
4268.000000	64.231538 
4267.000000	64.159870 
4266.000000	64.089918 
4265.000000	64.027571 
4264.000000	63.978219 
4263.000000	63.946390 
4262.000000	63.934755 
4261.000000	63.944315 
4260.000000	63.973808 
4259.000000	64.020228 
4258.000000	64.078927 
4257.000000	64.144492 
4256.000000	64.211273 
4255.000000	64.273977 
4254.000000	64.328241 
4253.000000	64.370822 
4252.000000	64.399862 
4251.000000	64.415335 
4250.000000	64.418697 
4249.000000	64.412498 
4248.000000	64.399814 
4247.000000	64.384150 
4246.000000	64.368677 
4245.000000	64.356207 
4244.000000	64.348602 
4243.000000	64.347267 
4242.000000	64.352750 
4241.000000	64.365267 
4240.000000	64.384484 
4239.000000	64.409279 
4238.000000	64.438128 
4237.000000	64.469146 
4236.000000	64.500474 
4235.000000	64.529967 
4234.000000	64.556312 
4233.000000	64.579081 
4232.000000	64.598917 
4231.000000	64.617085 
4230.000000	64.635252 
4229.000000	64.654779 
4228.000000	64.675855 
4227.000000	64.697289 
4226.000000	64.716172 
4225.000000	64.728426 
4224.000000	64.730000 
4223.000000	64.718008 
4222.000000	64.691519 
4221.000000	64.652276 
4220.000000	64.604902 
4219.000000	64.556097 
4218.000000	64.513063 
4217.000000	64.482164 
4216.000000	64.467620 
4215.000000	64.470791 
4214.000000	64.489984 
4213.000000	64.521408 
4212.000000	64.560031 
4211.000000	64.601182 
4210.000000	64.641308 
4209.000000	64.678525 
4208.000000	64.712405 
4207.000000	64.743351 
4206.000000	64.771628 
4205.000000	64.796924 
4204.000000	64.817905 
4203.000000	64.832544 
4202.000000	64.838671 
4201.000000	64.834737 
4200.000000	64.820313 
4199.000000	64.796543 
4198.000000	64.766025 
4197.000000	64.731836 
4196.000000	64.696836 
4195.000000	64.663028 
4194.000000	64.631223 
4193.000000	64.601182 
4192.000000	64.572262 
4191.000000	64.543771 
4190.000000	64.515995 
4189.000000	64.490413 
4188.000000	64.469790 
4187.000000	64.457201 
4186.000000	64.455652 
4185.000000	64.466834 
4184.000000	64.490747 
4183.000000	64.525246 
4182.000000	64.566707 
4181.000000	64.610457 
4180.000000	64.651870 
4179.000000	64.686965 
4178.000000	64.713716 
4177.000000	64.732170 
4176.000000	64.744281 
4175.000000	64.753055 
4174.000000	64.762330 
4173.000000	64.775681 
4172.000000	64.795756 
4171.000000	64.823484 
4170.000000	64.857912 
4169.000000	64.896059 
4168.000000	64.933824 
4167.000000	64.966392 
4166.000000	64.989042 
4165.000000	64.997959 
4164.000000	64.991331 
4163.000000	64.969468 
4162.000000	64.934611 
4161.000000	64.890718 
4160.000000	64.843130 
4159.000000	64.797520 
