PE IR       SPECTRUM    SPECTRUM    ASCII       PEDS        1.60        
  -1
BZAC7E~1.ASC
17/04/10
11:03:01.00
17/04/10
11:03:01.00
tln
$BZ12041010-4_t0025$<tbV0>[-5.2,-2.0,9.0,0.0,22,1,0]
370.000000
64









2002,4.07    
MIRTGS : RIGHTBACK : INTERNAL 2
MIR : ON : INTERNAL 2
OPTKBR

0.200000
8
8.000000
FILLER
RATIO
SPECTRUM
UNLOCKED 256

DOUBLE
64
COMBINED
1
0
0


1.000000
RATIO


1
0
TRUE
51149
0
LEFT NOT FITTED RIGHT NOT FITTED 0
NONE
NONE
15600
12.000000
4.427000
51148
TRUE
1 0 8 72 0 0 0 0 

15798.010000






#HDR
-1
-1
#GR
CM-1
%T
0.00002384185791015625
0.0
5000.000000
-1.000000
4631
8
85.137867
28.616905
#DATA
5000.000000	60.451316 
4999.000000	60.454773 
4998.000000	60.449361 
4997.000000	60.436582 
4996.000000	60.417532 
4995.000000	60.394048 
4994.000000	60.367584 
4993.000000	60.339426 
4992.000000	60.310912 
4991.000000	60.283780 
4990.000000	60.259842 
4989.000000	60.240530 
4988.000000	60.227131 
4987.000000	60.220623 
4986.000000	60.221099 
4985.000000	60.227632 
4984.000000	60.238361 
4983.000000	60.250735 
4982.000000	60.261893 
4981.000000	60.269093 
4980.000000	60.269713 
4979.000000	60.261607 
4978.000000	60.244178 
4977.000000	60.217881 
4976.000000	60.183787 
4975.000000	60.143017 
4974.000000	60.097527 
4973.000000	60.048222 
4972.000000	59.995698 
4971.000000	59.938359 
4970.000000	59.874606 
4969.000000	59.801363 
4968.000000	59.715294 
4967.000000	59.613966 
4966.000000	59.496927 
4965.000000	59.367537 
4964.000000	59.232616 
4963.000000	59.102964 
4962.000000	58.990740 
4961.000000	58.907890 
4960.000000	58.863115 
4959.000000	58.859753 
4958.000000	58.894538 
4957.000000	58.958911 
4956.000000	59.040927 
4955.000000	59.128189 
4954.000000	59.211254 
4953.000000	59.285616 
4952.000000	59.353017 
4951.000000	59.419679 
4950.000000	59.494447 
4949.000000	59.585118 
4948.000000	59.695959 
4947.000000	59.826135 
4946.000000	59.969329 
4945.000000	60.115432 
4944.000000	60.252070 
4943.000000	60.369944 
4942.000000	60.462212 
4941.000000	60.527157 
4940.000000	60.565781 
4939.000000	60.581851 
4938.000000	60.578870 
4937.000000	60.559678 
4936.000000	60.524964 
4935.000000	60.474801 
4934.000000	60.408830 
4933.000000	60.328388 
4932.000000	60.237860 
4931.000000	60.145711 
4930.000000	60.062265 
4929.000000	59.997701 
4928.000000	59.960269 
4927.000000	59.954380 
4926.000000	59.977698 
4925.000000	60.022759 
4924.000000	60.077476 
4923.000000	60.130000 
4922.000000	60.173010 
4921.000000	60.205721 
4920.000000	60.233044 
4919.000000	60.263299 
4918.000000	60.306596 
4917.000000	60.368084 
4916.000000	60.445690 
4915.000000	60.527944 
4914.000000	60.597133 
4913.000000	60.632205 
4912.000000	60.614371 
4911.000000	60.533261 
4910.000000	60.391187 
4909.000000	60.203981 
4908.000000	59.996795 
4907.000000	59.802293 
4906.000000	59.653186 
4905.000000	59.577250 
4904.000000	59.590983 
4903.000000	59.699702 
4902.000000	59.896135 
4901.000000	60.163140 
4900.000000	60.475158 
4899.000000	60.799360 
4898.000000	61.099123 
4897.000000	61.338400 
4896.000000	61.486601 
4895.000000	61.521339 
4894.000000	61.433815 
4893.000000	61.232876 
4892.000000	60.943198 
4891.000000	60.602474 
4890.000000	60.253238 
4889.000000	59.939479 
4888.000000	59.693622 
4887.000000	59.534025 
4886.000000	59.458637 
4885.000000	59.450197 
4884.000000	59.477901 
4883.000000	59.506440 
4882.000000	59.503388 
4881.000000	59.445309 
4880.000000	59.324169 
4879.000000	59.146761 
4878.000000	58.933639 
4877.000000	58.711910 
4876.000000	58.512973 
4875.000000	58.365488 
4874.000000	58.292293 
4873.000000	58.307361 
4872.000000	58.415126 
4871.000000	58.611202 
4870.000000	58.882617 
4869.000000	59.211516 
4868.000000	59.575915 
4867.000000	59.954714 
4866.000000	60.326552 
4865.000000	60.675096 
4864.000000	60.988545 
4863.000000	61.261248 
4862.000000	61.493706 
4861.000000	61.688876 
4860.000000	61.852836 
4859.000000	61.987972 
4858.000000	62.097549 
4857.000000	62.176918 
4856.000000	62.218308 
4855.000000	62.209725 
4854.000000	62.142586 
4853.000000	62.012124 
4852.000000	61.822581 
4851.000000	61.587071 
4850.000000	61.327552 
4849.000000	61.070680 
4848.000000	60.843777 
4847.000000	60.669469 
4846.000000	60.562682 
4845.000000	60.529398 
4844.000000	60.567283 
4843.000000	60.668063 
4842.000000	60.819911 
4841.000000	61.009669 
4840.000000	61.223959 
4839.000000	61.447334 
4838.000000	61.663794 
4837.000000	61.857295 
4836.000000	62.012171 
4835.000000	62.112712 
4834.000000	62.147212 
4833.000000	62.112379 
4832.000000	62.012600 
4831.000000	61.861586 
4830.000000	61.678767 
4829.000000	61.488342 
4828.000000	61.312365 
4827.000000	61.168265 
4826.000000	61.064410 
4825.000000	61.000108 
4824.000000	60.967111 
4823.000000	60.953521 
4822.000000	60.947465 
4821.000000	60.940766 
4820.000000	60.931372 
4819.000000	60.923171 
4818.000000	60.923647 
4817.000000	60.940361 
4816.000000	60.977721 
4815.000000	61.034011 
4814.000000	61.101126 
4813.000000	61.165046 
4812.000000	61.209630 
4811.000000	61.219716 
4810.000000	61.186337 
4809.000000	61.108207 
4808.000000	60.991501 
4807.000000	60.849857 
4806.000000	60.701227 
4805.000000	60.565090 
4804.000000	60.457539 
4803.000000	60.390567 
4802.000000	60.369944 
4801.000000	60.396075 
4800.000000	60.465168 
4799.000000	60.569596 
4798.000000	60.699176 
4797.000000	60.842657 
4796.000000	60.988807 
4795.000000	61.126422 
4794.000000	61.244750 
4793.000000	61.334204 
4792.000000	61.386895 
4791.000000	61.397480 
4790.000000	61.363458 
4789.000000	61.286139 
4788.000000	61.170268 
4787.000000	61.024689 
4786.000000	60.860586 
4785.000000	60.691380 
4784.000000	60.529971 
4783.000000	60.387468 
4782.000000	60.271859 
4781.000000	60.186958 
4780.000000	60.133743 
4779.000000	60.109782 
4778.000000	60.112524 
4777.000000	60.138249 
4776.000000	60.185527 
4775.000000	60.253500 
4774.000000	60.342502 
4773.000000	60.451793 
4772.000000	60.577702 
4771.000000	60.712075 
4770.000000	60.842299 
4769.000000	60.952758 
4768.000000	61.027383 
4767.000000	61.052870 
4766.000000	61.022162 
4765.000000	60.936331 
4764.000000	60.804414 
4763.000000	60.642004 
4762.000000	60.468292 
4761.000000	60.302829 
4760.000000	60.162878 
4759.000000	60.060834 
4758.000000	60.003566 
4757.000000	59.991693 
4756.000000	60.020494 
4755.000000	60.081410 
4754.000000	60.163688 
4753.000000	60.256505 
4752.000000	60.349059 
4751.000000	60.432648 
4750.000000	60.500216 
4749.000000	60.547661 
4748.000000	60.572624 
4747.000000	60.575699 
4746.000000	60.559630 
4745.000000	60.529899 
4744.000000	60.493946 
4743.000000	60.460662 
4742.000000	60.439157 
4741.000000	60.437917 
4740.000000	60.463261 
4739.000000	60.517525 
4738.000000	60.597991 
4737.000000	60.696983 
4736.000000	60.802865 
4735.000000	60.901618 
4734.000000	60.979986 
4733.000000	61.028289 
4732.000000	61.042380 
4731.000000	61.025261 
4730.000000	60.984992 
4729.000000	60.932207 
4728.000000	60.877084 
4727.000000	60.827350 
4726.000000	60.786414 
4725.000000	60.753369 
4724.000000	60.724425 
4723.000000	60.695624 
4722.000000	60.664892 
4721.000000	60.633850 
4720.000000	60.607099 
4719.000000	60.590672 
4718.000000	60.589742 
4717.000000	60.606241 
4716.000000	60.637283 
4715.000000	60.674762 
4714.000000	60.707664 
4713.000000	60.724878 
4712.000000	60.718393 
4711.000000	60.685801 
4710.000000	60.630631 
4709.000000	60.561776 
4708.000000	60.490560 
4707.000000	60.428071 
4706.000000	60.382509 
4705.000000	60.357832 
4704.000000	60.352873 
4703.000000	60.363197 
4702.000000	60.383105 
4701.000000	60.407733 
4700.000000	60.434031 
4699.000000	60.461711 
4698.000000	60.492467 
4697.000000	60.528635 
4696.000000	60.570931 
4695.000000	60.617971 
4694.000000	60.665678 
4693.000000	60.708212 
4692.000000	60.739398 
4691.000000	60.754609 
4690.000000	60.752391 
4689.000000	60.734939 
4688.000000	60.707879 
4687.000000	60.678696 
4686.000000	60.654926 
4685.000000	60.642313 
4684.000000	60.643577 
4683.000000	60.658073 
4682.000000	60.682225 
4681.000000	60.711240 
4680.000000	60.740137 
4679.000000	60.765433 
4678.000000	60.785126 
4677.000000	60.799431 
4676.000000	60.809087 
4675.000000	60.814547 
4674.000000	60.814261 
4673.000000	60.805392 
4672.000000	60.783195 
4671.000000	60.742759 
4670.000000	60.679888 
4669.000000	60.593152 
4668.000000	60.484814 
4667.000000	60.361456 
4666.000000	60.232996 
4665.000000	60.110616 
4664.000000	60.005521 
4663.000000	59.926819 
4662.000000	59.879302 
4661.000000	59.862756 
4660.000000	59.872531 
4659.000000	59.900879 
4658.000000	59.938359 
4657.000000	59.976148 
4656.000000	60.008001 
4655.000000	60.031485 
4654.000000	60.047698 
4653.000000	60.060787 
4652.000000	60.075736 
4651.000000	60.097026 
4650.000000	60.127115 
4649.000000	60.165596 
4648.000000	60.209488 
4647.000000	60.253500 
4646.000000	60.292530 
4645.000000	60.321426 
4644.000000	60.337018 
4643.000000	60.337281 
4642.000000	60.322642 
4641.000000	60.294246 
4640.000000	60.253763 
4639.000000	60.202383 
4638.000000	60.141277 
4637.000000	60.071182 
4636.000000	59.993195 
4635.000000	59.909367 
4634.000000	59.823441 
4633.000000	59.740233 
4632.000000	59.665369 
4631.000000	59.604740 
4630.000000	59.563517 
4629.000000	59.545159 
4628.000000	59.551000 
4627.000000	59.579706 
4626.000000	59.627985 
4625.000000	59.690427 
4624.000000	59.761285 
4623.000000	59.834361 
4622.000000	59.904909 
4621.000000	59.969854 
4620.000000	60.027980 
4619.000000	60.079860 
4618.000000	60.126280 
4617.000000	60.168123 
4616.000000	60.204577 
4615.000000	60.233831 
4614.000000	60.252475 
4613.000000	60.256958 
4612.000000	60.244226 
4611.000000	60.213446 
4610.000000	60.166549 
4609.000000	60.108637 
4608.000000	60.047149 
4607.000000	59.990549 
4606.000000	59.946465 
4605.000000	59.920191 
4604.000000	59.913873 
4603.000000	59.926366 
4602.000000	59.954309 
4601.000000	59.993314 
4600.000000	60.039067 
4599.000000	60.088539 
4598.000000	60.139560 
4597.000000	60.191130 
4596.000000	60.241985 
4595.000000	60.290813 
4594.000000	60.335779 
4593.000000	60.375022 
4592.000000	60.407090 
4591.000000	60.431098 
4590.000000	60.448074 
4589.000000	60.459303 
4588.000000	60.466980 
4587.000000	60.472059 
4586.000000	60.474491 
4585.000000	60.472059 
4584.000000	60.461449 
4583.000000	60.438942 
4582.000000	60.402035 
4581.000000	60.350537 
4580.000000	60.287380 
4579.000000	60.217809 
4578.000000	60.148572 
4577.000000	60.085916 
4576.000000	60.034275 
4575.000000	59.995317 
4574.000000	59.968066 
4573.000000	59.949040 
4572.000000	59.934139 
4571.000000	59.920597 
4570.000000	59.907865 
4569.000000	59.897089 
4568.000000	59.891057 
4567.000000	59.892845 
4566.000000	59.904718 
4565.000000	59.925889 
4564.000000	59.953498 
4563.000000	59.983038 
4562.000000	60.009574 
4561.000000	60.029172 
4560.000000	60.039567 
4559.000000	60.040783 
4558.000000	60.034847 
4557.000000	60.025167 
4556.000000	60.015153 
4555.000000	60.007095 
4554.000000	60.001730 
4553.000000	59.998488 
4552.000000	59.994769 
4551.000000	59.986639 
4550.000000	59.969472 
4549.000000	59.939169 
4548.000000	59.891986 
4547.000000	59.825420 
4546.000000	59.739303 
4545.000000	59.636235 
4544.000000	59.521031 
4543.000000	59.400296 
4542.000000	59.282636 
4541.000000	59.176301 
4540.000000	59.087252 
4539.000000	59.018921 
4538.000000	58.970403 
4537.000000	58.939218 
4536.000000	58.920693 
4535.000000	58.911895 
4534.000000	58.911085 
4533.000000	58.920264 
4532.000000	58.943152 
4531.000000	58.984851 
4530.000000	59.048581 
4529.000000	59.134554 
4528.000000	59.238553 
4527.000000	59.351921 
4526.000000	59.463000 
4525.000000	59.559488 
4524.000000	59.631037 
4523.000000	59.672117 
4522.000000	59.683609 
4521.000000	59.673380 
4520.000000	59.654569 
4519.000000	59.643006 
4518.000000	59.653067 
4517.000000	59.694433 
4516.000000	59.769296 
4515.000000	59.872627 
4514.000000	59.992551 
4513.000000	60.114717 
4512.000000	60.224199 
4511.000000	60.309553 
4510.000000	60.364270 
4509.000000	60.387444 
4508.000000	60.383367 
4507.000000	60.359048 
4506.000000	60.323119 
4505.000000	60.283803 
4504.000000	60.248160 
4503.000000	60.221815 
4502.000000	60.207915 
4501.000000	60.208344 
4500.000000	60.221457 
4499.000000	60.242724 
4498.000000	60.266733 
4497.000000	60.289430 
4496.000000	60.302066 
4495.000000	60.293245 
4494.000000	60.259556 
4493.000000	60.204601 
4492.000000	60.136008 
4491.000000	60.063028 
4490.000000	59.992551 
4489.000000	59.926199 
4488.000000	59.866595 
4487.000000	59.812426 
4486.000000	59.746956 
4485.000000	59.651803 
4484.000000	59.530711 
4483.000000	59.393286 
4482.000000	59.240293 
4481.000000	59.077596 
4480.000000	58.909416 
4479.000000	58.749461 
4478.000000	58.624911 
4477.000000	58.563756 
4476.000000	58.593416 
4475.000000	58.715105 
4474.000000	58.902287 
4473.000000	59.086275 
4472.000000	59.167408 
4471.000000	59.037613 
4470.000000	58.608317 
4469.000000	57.821631 
4468.000000	56.673622 
4467.000000	55.204582 
4466.000000	53.520154 
4465.000000	51.750946 
4464.000000	50.086784 
4463.000000	48.748064 
4462.000000	48.003387 
4461.000000	48.114514 
4460.000000	49.315118 
4459.000000	51.768064 
4458.000000	55.490899 
4457.000000	60.335373 
4456.000000	65.942692 
4455.000000	71.774125 
4454.000000	77.182960 
4453.000000	81.514477 
4452.000000	84.253382 
4451.000000	85.137867 
4450.000000	84.207081 
4449.000000	81.819248 
4448.000000	78.509211 
4447.000000	74.877023 
4446.000000	71.433258 
4445.000000	68.512773 
4444.000000	66.243195 
4443.000000	64.575886 
4442.000000	63.365125 
4441.000000	62.451481 
4440.000000	61.697173 
4439.000000	61.035275 
4438.000000	60.432124 
4437.000000	59.904336 
4436.000000	59.472298 
4435.000000	59.166216 
4434.000000	58.994984 
4433.000000	58.954763 
4432.000000	59.020256 
4431.000000	59.157466 
4430.000000	59.324622 
4429.000000	59.486579 
4428.000000	59.622931 
4427.000000	59.726738 
4426.000000	59.790396 
4425.000000	59.816837 
4424.000000	59.818816 
4423.000000	59.808301 
4422.000000	59.785056 
4421.000000	59.751701 
4420.000000	59.719753 
4419.000000	59.696817 
4418.000000	59.687209 
4417.000000	59.687995 
4416.000000	59.688687 
4415.000000	59.685802 
4414.000000	59.684991 
4413.000000	59.687423 
4412.000000	59.691691 
4411.000000	59.703302 
4410.000000	59.730052 
4409.000000	59.774279 
4408.000000	59.833240 
4407.000000	59.900379 
4406.000000	59.966659 
4405.000000	60.021209 
4404.000000	60.056304 
4403.000000	60.071492 
4402.000000	60.072112 
4401.000000	60.067939 
4400.000000	60.069751 
4399.000000	60.085725 
4398.000000	60.119104 
4397.000000	60.167813 
4396.000000	60.224270 
4395.000000	60.278105 
4394.000000	60.318231 
4393.000000	60.336327 
4392.000000	60.328412 
4391.000000	60.296010 
4390.000000	60.245561 
4389.000000	60.186910 
4388.000000	60.131049 
4387.000000	60.087656 
4386.000000	60.063481 
4385.000000	60.060882 
4384.000000	60.078454 
4383.000000	60.111331 
4382.000000	60.153293 
4381.000000	60.197544 
4380.000000	60.238265 
4379.000000	60.270977 
4378.000000	60.292768 
4377.000000	60.302233 
4376.000000	60.298609 
4375.000000	60.282564 
4374.000000	60.255718 
4373.000000	60.221219 
4372.000000	60.183167 
4371.000000	60.146450 
4370.000000	60.116529 
4369.000000	60.098123 
4368.000000	60.094666 
4367.000000	60.107541 
4366.000000	60.135889 
4365.000000	60.176301 
4364.000000	60.223436 
4363.000000	60.270714 
4362.000000	60.311293 
4361.000000	60.339140 
4360.000000	60.350298 
4359.000000	60.343670 
4358.000000	60.321259 
4357.000000	60.287928 
4356.000000	60.250043 
4355.000000	60.214257 
4354.000000	60.185647 
4353.000000	60.167074 
4352.000000	60.158395 
4351.000000	60.157275 
4350.000000	60.159897 
4349.000000	60.162138 
4348.000000	60.161161 
4347.000000	60.156512 
4346.000000	60.149931 
4345.000000	60.144639 
4344.000000	60.143876 
4343.000000	60.149455 
4342.000000	60.161113 
4341.000000	60.176277 
4340.000000	60.191106 
4339.000000	60.201358 
4338.000000	60.204386 
4337.000000	60.199856 
4336.000000	60.190057 
4335.000000	60.178947 
4334.000000	60.170698 
4333.000000	60.168337 
4332.000000	60.172748 
4331.000000	60.182261 
4330.000000	60.193371 
4329.000000	60.201501 
4328.000000	60.202646 
4327.000000	60.194373 
4326.000000	60.176658 
4325.000000	60.151505 
4324.000000	60.121631 
4323.000000	60.089921 
4322.000000	60.058403 
4321.000000	60.028553 
4320.000000	60.001063 
4319.000000	59.977269 
4318.000000	59.959149 
4317.000000	59.949851 
4316.000000	59.953451 
4315.000000	59.973382 
4314.000000	60.011243 
4313.000000	60.065627 
4312.000000	60.131525 
4311.000000	60.200810 
4310.000000	60.263800 
4309.000000	60.311269 
4308.000000	60.336709 
4307.000000	60.337853 
4306.000000	60.317611 
4305.000000	60.283374 
4304.000000	60.245323 
4303.000000	60.214304 
4302.000000	60.199260 
4301.000000	60.205554 
4300.000000	60.233902 
4299.000000	60.280871 
4298.000000	60.339689 
4297.000000	60.402297 
4296.000000	60.460734 
4295.000000	60.508632 
4294.000000	60.541892 
4293.000000	60.558462 
4292.000000	60.558533 
4291.000000	60.543584 
4290.000000	60.516333 
4289.000000	60.479950 
4288.000000	60.438179 
4287.000000	60.395193 
4286.000000	60.355091 
4285.000000	60.321831 
4284.000000	60.298514 
4283.000000	60.287094 
4282.000000	60.288143 
4281.000000	60.300803 
4280.000000	60.322833 
4279.000000	60.351014 
4278.000000	60.381937 
4277.000000	60.412621 
4276.000000	60.440158 
4275.000000	60.462474 
4274.000000	60.477638 
4273.000000	60.484695 
4272.000000	60.483169 
4271.000000	60.473799 
4270.000000	60.458660 
4269.000000	60.441088 
4268.000000	60.425758 
4267.000000	60.417127 
4266.000000	60.419011 
4265.000000	60.432863 
4264.000000	60.457348 
4263.000000	60.488605 
4262.000000	60.521292 
4261.000000	60.549974 
4260.000000	60.570240 
4259.000000	60.579943 
4258.000000	60.579514 
4257.000000	60.571622 
4256.000000	60.560131 
4255.000000	60.548424 
4254.000000	60.538268 
4253.000000	60.529422 
4252.000000	60.519981 
4251.000000	60.507225 
4250.000000	60.488843 
4249.000000	60.464406 
4248.000000	60.435652 
4247.000000	60.406398 
4246.000000	60.381650 
4245.000000	60.365796 
4244.000000	60.361886 
4243.000000	60.370683 
4242.000000	60.390377 
4241.000000	60.417318 
4240.000000	60.446357 
4239.000000	60.472559 
4238.000000	60.491704 
4237.000000	60.501170 
4236.000000	60.500097 
4235.000000	60.489273 
4234.000000	60.470962 
4233.000000	60.448050 
4232.000000	60.423874 
4231.000000	60.401606 
4230.000000	60.383892 
4229.000000	60.372662 
4228.000000	60.368800 
4227.000000	60.372161 
4226.000000	60.381364 
4225.000000	60.394167 
4224.000000	60.407781 
4223.000000	60.419321 
4222.000000	60.426545 
4221.000000	60.428047 
4220.000000	60.423398 
4219.000000	60.412788 
4218.000000	60.397267 
4217.000000	60.378146 
4216.000000	60.356497 
4215.000000	60.333323 
4214.000000	60.309386 
4213.000000	60.285544 
4212.000000	60.262656 
4211.000000	60.241961 
4210.000000	60.224843 
4209.000000	60.212826 
4208.000000	60.207343 
4207.000000	60.209012 
4206.000000	60.217499 
4205.000000	60.231351 
4204.000000	60.248279 
4203.000000	60.265469 
4202.000000	60.280060 
4201.000000	60.289907 
4200.000000	60.293817 
4199.000000	60.291934 
4198.000000	60.285711 
4197.000000	60.277891 
4196.000000	60.271954 
4195.000000	60.271501 
4194.000000	60.279536 
4193.000000	60.298156 
4192.000000	60.327935 
4191.000000	60.367965 
4190.000000	60.415768 
4189.000000	60.467791 
4188.000000	60.519623 
4187.000000	60.566806 
4186.000000	60.605216 
4185.000000	60.631585 
4184.000000	60.643863 
4183.000000	60.641717 
4182.000000	60.626411 
4181.000000	60.600638 
4180.000000	60.568213 
4179.000000	60.533738 
4178.000000	60.501646 
4177.000000	60.475707 
4176.000000	60.457944 
4175.000000	60.448646 
4174.000000	60.445642 
4173.000000	60.445094 
4172.000000	60.441803 
4171.000000	60.430788 
4170.000000	60.408687 
4169.000000	60.374927 
4168.000000	60.331869 
4167.000000	60.284662 
4166.000000	60.239911 
4165.000000	60.204339 
4164.000000	60.183048 
4163.000000	60.178446 
4162.000000	60.189604 
4161.000000	60.212707 
4160.000000	60.242104 
4159.000000	60.272073 
