PE IR       SPECTRUM    SPECTRUM    ASCII       PEDS        1.60        
  -1
BZAB75~1.ASC
17/04/10
09:24:22.00
17/04/10
09:24:22.00
tln
$BZ12041010-4_t0007$<tbV0>[2.6,-9.8,9.0,0.0,22,1,0]
370.000000
64









2002,4.07    
MIRTGS : RIGHTBACK : INTERNAL 2
MIR : ON : INTERNAL 2
OPTKBR

0.200000
8
8.000000
FILLER
RATIO
SPECTRUM
UNLOCKED 256

DOUBLE
64
COMBINED
1
0
0


1.000000
RATIO


1
0
TRUE
51149
0
LEFT NOT FITTED RIGHT NOT FITTED 0
NONE
NONE
15600
12.000000
4.427000
51148
TRUE
1 0 8 72 0 0 0 0 

15798.010000






#HDR
-1
-1
#GR
CM-1
%T
0.00002384185791015625
0.0
5000.000000
-1.000000
4631
8
120.947384
51.958370
#DATA
5000.000000	64.461302  
4999.000000	64.431333  
4998.000000	64.401388  
4997.000000	64.377498  
4996.000000	64.364147  
4995.000000	64.363431  
4994.000000	64.374327  
4993.000000	64.393186  
4992.000000	64.414858  
4991.000000	64.433836  
4990.000000	64.446139  
4989.000000	64.450263  
4988.000000	64.447474  
4987.000000	64.441061  
4986.000000	64.435505  
4985.000000	64.435076  
4984.000000	64.442062  
4983.000000	64.456176  
4982.000000	64.474797  
4981.000000	64.493727  
4980.000000	64.508867  
4979.000000	64.517831  
4978.000000	64.520359  
4977.000000	64.518857  
4976.000000	64.518165  
4975.000000	64.523601  
4974.000000	64.539432  
4973.000000	64.566922  
4972.000000	64.604115  
4971.000000	64.645504  
4970.000000	64.683437  
4969.000000	64.709997  
4968.000000	64.719009  
4967.000000	64.708209  
4966.000000	64.679670  
4965.000000	64.640307  
4964.000000	64.599800  
4963.000000	64.569354  
4962.000000	64.558863  
4961.000000	64.575242  
4960.000000	64.620876  
4959.000000	64.692711  
4958.000000	64.783096  
4957.000000	64.880084  
4956.000000	64.969754  
4955.000000	65.037965  
4954.000000	65.072894  
4953.000000	65.066933  
4952.000000	65.017938  
4951.000000	64.929962  
4950.000000	64.812564  
4949.000000	64.679408  
4948.000000	64.545822  
4947.000000	64.426350  
4946.000000	64.332222  
4945.000000	64.270138  
4944.000000	64.241480  
4943.000000	64.242458  
4942.000000	64.266061  
4941.000000	64.303827  
4940.000000	64.348220  
4939.000000	64.392852  
4938.000000	64.434742  
4937.000000	64.473438  
4936.000000	64.510607  
4935.000000	64.547729  
4934.000000	64.585947  
4933.000000	64.624834  
4932.000000	64.662551  
4931.000000	64.696025  
4930.000000	64.722490  
4929.000000	64.740347  
4928.000000	64.749765  
4927.000000	64.752531  
4926.000000	64.751672  
4925.000000	64.750242  
4924.000000	64.750766  
4923.000000	64.753842  
4922.000000	64.758181  
4921.000000	64.760518  
4920.000000	64.757800  
4919.000000	64.746880  
4918.000000	64.725685  
4917.000000	64.693450  
4916.000000	64.651942  
4915.000000	64.604067  
4914.000000	64.552617  
4913.000000	64.500546  
4912.000000	64.450383  
4911.000000	64.404296  
4910.000000	64.364218  
4909.000000	64.331054  
4908.000000	64.305043  
4907.000000	64.284992  
4906.000000	64.268970  
4905.000000	64.253520  
4904.000000	64.234161  
4903.000000	64.207053  
4902.000000	64.170527  
4901.000000	64.126253  
4900.000000	64.079713  
4899.000000	64.039993  
4898.000000	64.018034  
4897.000000	64.023923  
4896.000000	64.064598  
4895.000000	64.140820  
4894.000000	64.247465  
4893.000000	64.373540  
4892.000000	64.505815  
4891.000000	64.631390  
4890.000000	64.741110  
4889.000000	64.831829  
4888.000000	64.905071  
4887.000000	64.966654  
4886.000000	65.021681  
4885.000000	65.072822  
4884.000000	65.117263  
4883.000000	65.147733  
4882.000000	65.153670  
4881.000000	65.125560  
4880.000000	65.058088  
4879.000000	64.953589  
4878.000000	64.823102  
4877.000000	64.685297  
4876.000000	64.561986  
4875.000000	64.473533  
4874.000000	64.433264  
4873.000000	64.444637  
4872.000000	64.503002  
4871.000000	64.597034  
4870.000000	64.710426  
4869.000000	64.826393  
4868.000000	64.932036  
4867.000000	65.020298  
4866.000000	65.088701  
4865.000000	65.138936  
4864.000000	65.175175  
4863.000000	65.200448  
4862.000000	65.216851  
4861.000000	65.221405  
4860.000000	65.207529  
4859.000000	65.165996  
4858.000000	65.089344  
4857.000000	64.974951  
4856.000000	64.826822  
4855.000000	64.658832  
4854.000000	64.493036  
4853.000000	64.356446  
4852.000000	64.275598  
4851.000000	64.268064  
4850.000000	64.337587  
4849.000000	64.467310  
4848.000000	64.621686  
4847.000000	64.750027  
4846.000000	64.797711  
4845.000000	64.718556  
4844.000000	64.487290  
4843.000000	64.106011  
4842.000000	63.606905  
4841.000000	63.044524  
4840.000000	62.487792  
4839.000000	62.002563  
4838.000000	61.643791  
4837.000000	61.445355  
4836.000000	61.418819  
4835.000000	61.553001  
4834.000000	61.821389  
4833.000000	62.187314  
4832.000000	62.612867  
4831.000000	63.061618  
4830.000000	63.503670  
4829.000000	63.912153  
4828.000000	64.266777  
4827.000000	64.550328  
4826.000000	64.750361  
4825.000000	64.858484  
4824.000000	64.872622  
4823.000000	64.799237  
4822.000000	64.649248  
4821.000000	64.437723  
4820.000000	64.182710  
4819.000000	63.903808  
4818.000000	63.620138  
4817.000000	63.348722  
4816.000000	63.105106  
4815.000000	62.901377  
4814.000000	62.744235  
4813.000000	62.635850  
4812.000000	62.571382  
4811.000000	62.544870  
4810.000000	62.547564  
4809.000000	62.575888  
4808.000000	62.628746  
4807.000000	62.711739  
4806.000000	62.830829  
4805.000000	62.993454  
4804.000000	63.201618  
4803.000000	63.452053  
4802.000000	63.733983  
4801.000000	64.029884  
4800.000000	64.316916  
4799.000000	64.572644  
4798.000000	64.779782  
4797.000000	64.928364  
4796.000000	65.017533  
4795.000000	65.054965  
4794.000000	65.054321  
4793.000000	65.032172  
4792.000000	65.003824  
4791.000000	64.980792  
4790.000000	64.968085  
4789.000000	64.967155  
4788.000000	64.974427  
4787.000000	64.982748  
4786.000000	64.982533  
4785.000000	64.965462  
4784.000000	64.925599  
4783.000000	64.860630  
4782.000000	64.772605  
4781.000000	64.667129  
4780.000000	64.552879  
4779.000000	64.439558  
4778.000000	64.336848  
4777.000000	64.250850  
4776.000000	64.186358  
4775.000000	64.146518  
4774.000000	64.133310  
4773.000000	64.146637  
4772.000000	64.186310  
4771.000000	64.251375  
4770.000000	64.339494  
4769.000000	64.445543  
4768.000000	64.563655  
4767.000000	64.687561  
4766.000000	64.810729  
4765.000000	64.926981  
4764.000000	65.032815  
4763.000000	65.126824  
4762.000000	65.209865  
4761.000000	65.282821  
4760.000000	65.346050  
4759.000000	65.396595  
4758.000000	65.430307  
4757.000000	65.439629  
4756.000000	65.416717  
4755.000000	65.354132  
4754.000000	65.249729  
4753.000000	65.105724  
4752.000000	64.929533  
4751.000000	64.733076  
4750.000000	64.532041  
4749.000000	64.342951  
4748.000000	64.179968  
4747.000000	64.054036  
4746.000000	63.971590  
4745.000000	63.933444  
4744.000000	63.935136  
4743.000000	63.968157  
4742.000000	64.021730  
4741.000000	64.084506  
4740.000000	64.146161  
4739.000000	64.198231  
4738.000000	64.234566  
4737.000000	64.252066  
4736.000000	64.250564  
4735.000000	64.231109  
4734.000000	64.196610  
4733.000000	64.152860  
4732.000000	64.108443  
4731.000000	64.072012  
4730.000000	64.053082  
4729.000000	64.061164  
4728.000000	64.104485  
4727.000000	64.187026  
4726.000000	64.308881  
4725.000000	64.465570  
4724.000000	64.648652  
4723.000000	64.846038  
4722.000000	65.044450  
4721.000000	65.230536  
4720.000000	65.393733  
4719.000000	65.527653  
4718.000000	65.629911  
4717.000000	65.701413  
4716.000000	65.746688  
4715.000000	65.772676  
4714.000000	65.786170  
4713.000000	65.791893  
4712.000000	65.791821  
4711.000000	65.783715  
4710.000000	65.760850  
4709.000000	65.712523  
4708.000000	65.626859  
4707.000000	65.493321  
4706.000000	65.306425  
4705.000000	65.067768  
4704.000000	64.788055  
4703.000000	64.485430  
4702.000000	64.182114  
4701.000000	63.900876  
4700.000000	63.660502  
4699.000000	63.473677  
4698.000000	63.344025  
4697.000000	63.268947  
4696.000000	63.238859  
4695.000000	63.244032  
4694.000000	63.275504  
4693.000000	63.328957  
4692.000000	63.402152  
4691.000000	63.496375  
4690.000000	63.612699  
4689.000000	63.749575  
4688.000000	63.899421  
4687.000000	64.050173  
4686.000000	64.186358  
4685.000000	64.292311  
4684.000000	64.355897  
4683.000000	64.370846  
4682.000000	64.339303  
4681.000000	64.271926  
4680.000000	64.186596  
4679.000000	64.104223  
4678.000000	64.045000  
4677.000000	64.025616  
4676.000000	64.055085  
4675.000000	64.133191  
4674.000000	64.250564  
4673.000000	64.392399  
4672.000000	64.540767  
4671.000000	64.677453  
4670.000000	64.788103  
4669.000000	64.864540  
4668.000000	64.905261  
4667.000000	64.913868  
4666.000000	64.897918  
4665.000000	64.866495  
4664.000000	64.827775  
4663.000000	64.787840  
4662.000000	64.750218  
4661.000000	64.716815  
4660.000000	64.689683  
4659.000000	64.672064  
4658.000000	64.668631  
4657.000000	64.684772  
4656.000000	64.724969  
4655.000000	64.791250  
4654.000000	64.880561  
4653.000000	64.985585  
4652.000000	65.096306  
4651.000000	65.202093  
4650.000000	65.294384  
4649.000000	65.367364  
4648.000000	65.419125  
4647.000000	65.450286  
4646.000000	65.463948  
4645.000000	65.462779  
4644.000000	65.448617  
4643.000000	65.421080  
4642.000000	65.379166  
4641.000000	65.321493  
4640.000000	65.248703  
4639.000000	65.163946  
4638.000000	65.073227  
4637.000000	64.985466  
4636.000000	64.911198  
4635.000000	64.860129  
4634.000000	64.838790  
4633.000000	64.849352  
4632.000000	64.888763  
4631.000000	64.948916  
4630.000000	65.017986  
4629.000000	65.082573  
4628.000000	65.130615  
4627.000000	65.152716  
4626.000000	65.144991  
4625.000000	65.110182  
4624.000000	65.057587  
4623.000000	65.000367  
4622.000000	64.952874  
4621.000000	64.927387  
4620.000000	64.930939  
4619.000000	64.963936  
4618.000000	65.020155  
4617.000000	65.089559  
4616.000000	65.159678  
4615.000000	65.219974  
4614.000000	65.262413  
4613.000000	65.282630  
4612.000000	65.280151  
4611.000000	65.257430  
4610.000000	65.218448  
4609.000000	65.167331  
4608.000000	65.108013  
4607.000000	65.044116  
4606.000000	64.977741  
4605.000000	64.909934  
4604.000000	64.840984  
4603.000000	64.771056  
4602.000000	64.699697  
4601.000000	64.626669  
4600.000000	64.551401  
4599.000000	64.474558  
4598.000000	64.397954  
4597.000000	64.325475  
4596.000000	64.261651  
4595.000000	64.212131  
4594.000000	64.181637  
4593.000000	64.173984  
4592.000000	64.190340  
4591.000000	64.229989  
4590.000000	64.289355  
4589.000000	64.363813  
4588.000000	64.447832  
4587.000000	64.535951  
4586.000000	64.622926  
4585.000000	64.704537  
4584.000000	64.777231  
4583.000000	64.839196  
4582.000000	64.890122  
4581.000000	64.931392  
4580.000000	64.965701  
4579.000000	64.996051  
4578.000000	65.024471  
4577.000000	65.051698  
4576.000000	65.076565  
4575.000000	65.095615  
4574.000000	65.104174  
4573.000000	65.097808  
4572.000000	65.074372  
4571.000000	65.034747  
4570.000000	64.984250  
4569.000000	64.932131  
4568.000000	64.890217  
4567.000000	64.870619  
4566.000000	64.882731  
4565.000000	64.930963  
4564.000000	65.013122  
4563.000000	65.120530  
4562.000000	65.239810  
4561.000000	65.355062  
4560.000000	65.452337  
4559.000000	65.522456  
4558.000000	65.562939  
4557.000000	65.577864  
4556.000000	65.576195  
4555.000000	65.568828  
4554.000000	65.565156  
4553.000000	65.570521  
4552.000000	65.585064  
4551.000000	65.604090  
4550.000000	65.620207  
4549.000000	65.626096  
4548.000000	65.616440  
4547.000000	65.589737  
4546.000000	65.549159  
4545.000000	65.501451  
4544.000000	65.454959  
4543.000000	65.417194  
4542.000000	65.393066  
4541.000000	65.383267  
4540.000000	65.385007  
4539.000000	65.392041  
4538.000000	65.396952  
4537.000000	65.392661  
4536.000000	65.374207  
4535.000000	65.340518  
4534.000000	65.293836  
4533.000000	65.240502  
4532.000000	65.189075  
4531.000000	65.149140  
4530.000000	65.128207  
4529.000000	65.131449  
4528.000000	65.161156  
4527.000000	65.214681  
4526.000000	65.284371  
4525.000000	65.362620  
4524.000000	65.443992  
4523.000000	65.523958  
4522.000000	65.599489  
4521.000000	65.672492  
4520.000000	65.747499  
4519.000000	65.828251  
4518.000000	65.915250  
4517.000000	66.005611  
4516.000000	66.092061  
4515.000000	66.163444  
4514.000000	66.207599  
4513.000000	66.216158  
4512.000000	66.186356  
4511.000000	66.123294  
4510.000000	66.038703  
4509.000000	65.949249  
4508.000000	65.871906  
4507.000000	65.821862  
4506.000000	65.806078  
4505.000000	65.824174  
4504.000000	65.863227  
4503.000000	65.905284  
4502.000000	65.920782  
4501.000000	65.876150  
4500.000000	65.736389  
4499.000000	65.474653  
4498.000000	65.072917  
4497.000000	64.527964  
4496.000000	63.854837  
4495.000000	63.087201  
4494.000000	62.275695  
4493.000000	61.480498  
4492.000000	60.760402  
4491.000000	60.163378  
4490.000000	59.718298  
4489.000000	59.432363  
4488.000000	59.289002  
4487.000000	59.257292  
4486.000000	59.293603  
4485.000000	59.359383  
4484.000000	59.423255  
4483.000000	59.473347  
4482.000000	59.508132  
4481.000000	59.542155  
4480.000000	59.590792  
4479.000000	59.672498  
4478.000000	59.794163  
4477.000000	59.960532  
4476.000000	60.169887  
4475.000000	60.423707  
4474.000000	60.727357  
4473.000000	61.088418  
4472.000000	61.513781  
4471.000000	61.991715  
4470.000000	62.488007  
4469.000000	62.941813  
4468.000000	63.277602  
4467.000000	63.419866  
4466.000000	63.317203  
4465.000000	62.964272  
4464.000000	62.411737  
4463.000000	61.758112  
4462.000000	61.134266  
4461.000000	60.677266  
4460.000000	60.499715  
4459.000000	60.662698  
4458.000000	61.163592  
4457.000000	61.940050  
4456.000000	62.883687  
4455.000000	63.866019  
4454.000000	64.765501  
4453.000000	65.489888  
4452.000000	65.992832  
4451.000000	66.273140  
4450.000000	66.368150  
4449.000000	66.333079  
4448.000000	66.227698  
4447.000000	66.100358  
4446.000000	65.980625  
4445.000000	65.880155  
4444.000000	65.795588  
4443.000000	65.719389  
4442.000000	65.644288  
4441.000000	65.570664  
4440.000000	65.506672  
4439.000000	65.467548  
4438.000000	65.466690  
4437.000000	65.512633  
4436.000000	65.605044  
4435.000000	65.734410  
4434.000000	65.882825  
4433.000000	66.028285  
4432.000000	66.150617  
4431.000000	66.234803  
4430.000000	66.275262  
4429.000000	66.274142  
4428.000000	66.238903  
4427.000000	66.179466  
4426.000000	66.104912  
4425.000000	66.021752  
4424.000000	65.935850  
4423.000000	65.848898  
4422.000000	65.759515  
4421.000000	65.666604  
4420.000000	65.572595  
4419.000000	65.481042  
4418.000000	65.396261  
4417.000000	65.323233  
4416.000000	65.266442  
4415.000000	65.228986  
4414.000000	65.211987  
4413.000000	65.214085  
4412.000000	65.231871  
4411.000000	65.260291  
4410.000000	65.294313  
4409.000000	65.329074  
4408.000000	65.361475  
4407.000000	65.389990  
4406.000000	65.415000  
4405.000000	65.438175  
4404.000000	65.461683  
4403.000000	65.487146  
4402.000000	65.514683  
4401.000000	65.543389  
4400.000000	65.570735  
4399.000000	65.592694  
4398.000000	65.605711  
4397.000000	65.608096  
4396.000000	65.600657  
4395.000000	65.587067  
4394.000000	65.572500  
4393.000000	65.562176  
4392.000000	65.559649  
4391.000000	65.565872  
4390.000000	65.578317  
4389.000000	65.591764  
4388.000000	65.599846  
4387.000000	65.597367  
4386.000000	65.581846  
4385.000000	65.554785  
4384.000000	65.521860  
4383.000000	65.491533  
4382.000000	65.473079  
4381.000000	65.473675  
4380.000000	65.496301  
4379.000000	65.538215  
4378.000000	65.591740  
4377.000000	65.645217  
4376.000000	65.685868  
4375.000000	65.702629  
4374.000000	65.688610  
4373.000000	65.642666  
4372.000000	65.569782  
4371.000000	65.479779  
4370.000000	65.384578  
4369.000000	65.296077  
4368.000000	65.223693  
4367.000000	65.172314  
4366.000000	65.142083  
4365.000000	65.128970  
4364.000000	65.126514  
4363.000000	65.127801  
4362.000000	65.127325  
4361.000000	65.122079  
4360.000000	65.111732  
4359.000000	65.098094  
4358.000000	65.084099  
4357.000000	65.071821  
4356.000000	65.061807  
4355.000000	65.052556  
4354.000000	65.041089  
4353.000000	65.023493  
4352.000000	64.997196  
4351.000000	64.961671  
4350.000000	64.920258  
4349.000000	64.878845  
4348.000000	64.846181  
4347.000000	64.830946  
4346.000000	64.840912  
4345.000000	64.880061  
4344.000000	64.948225  
4343.000000	65.040636  
4342.000000	65.148615  
4341.000000	65.261316  
4340.000000	65.367221  
4339.000000	65.456080  
4338.000000	65.520501  
4337.000000	65.556669  
4336.000000	65.564298  
4335.000000	65.545630  
4334.000000	65.505528  
4333.000000	65.449953  
4332.000000	65.384864  
4331.000000	65.315246  
4330.000000	65.245437  
4329.000000	65.178179  
4328.000000	65.114855  
4327.000000	65.055727  
4326.000000	65.000247  
4325.000000	64.948201  
4324.000000	64.899516  
4323.000000	64.855623  
4322.000000	64.818191  
4321.000000	64.790153  
4320.000000	64.774775  
4319.000000	64.775013  
4318.000000	64.791822  
4317.000000	64.824032  
4316.000000	64.867925  
4315.000000	64.917874  
4314.000000	64.966320  
4313.000000	65.006399  
4312.000000	65.032935  
4311.000000	65.043878  
4310.000000	65.040564  
4309.000000	65.027832  
4308.000000	65.012836  
4307.000000	65.003442  
4306.000000	65.006136  
4305.000000	65.025043  
4304.000000	65.060567  
4303.000000	65.110111  
4302.000000	65.167784  
4301.000000	65.226173  
4300.000000	65.276694  
4299.000000	65.312361  
4298.000000	65.327405  
4297.000000	65.318489  
4296.000000	65.284323  
4295.000000	65.226435  
4294.000000	65.148138  
4293.000000	65.054273  
4292.000000	64.950489  
4291.000000	64.843559  
4290.000000	64.740061  
4289.000000	64.646339  
4288.000000	64.567708  
4287.000000	64.508008  
4286.000000	64.469575  
4285.000000	64.452958  
4284.000000	64.457130  
4283.000000	64.479207  
4282.000000	64.515423  
4281.000000	64.561462  
4280.000000	64.612579  
4279.000000	64.663910  
4278.000000	64.710640  
4277.000000	64.748668  
4276.000000	64.774608  
4275.000000	64.786434  
4274.000000	64.783787  
4273.000000	64.768004  
4272.000000	64.742469  
4271.000000	64.711689  
4270.000000	64.681220  
4269.000000	64.655947  
4268.000000	64.639782  
4267.000000	64.634227  
4266.000000	64.638590  
4265.000000	64.649915  
4264.000000	64.663910  
4263.000000	64.676094  
4262.000000	64.682865  
4261.000000	64.682483  
4260.000000	64.675378  
4259.000000	64.664030  
4258.000000	64.651608  
4257.000000	64.641666  
4256.000000	64.636921  
4255.000000	64.639019  
4254.000000	64.648270  
4253.000000	64.664030  
4252.000000	64.684891  
4251.000000	64.709043  
4250.000000	64.734196  
4249.000000	64.757966  
4248.000000	64.777898  
4247.000000	64.791846  
4246.000000	64.797997  
4245.000000	64.795255  
4244.000000	64.783453  
4243.000000	64.763855  
4242.000000	64.738655  
4241.000000	64.711165  
4240.000000	64.684438  
4239.000000	64.661192  
4238.000000	64.642620  
4237.000000	64.628672  
4236.000000	64.617657  
4235.000000	64.607071  
4234.000000	64.594054  
4233.000000	64.576292  
4232.000000	64.552259  
4231.000000	64.521360  
4230.000000	64.484405  
4229.000000	64.443302  
4228.000000	64.401531  
4227.000000	64.363598  
4226.000000	64.334702  
4225.000000	64.319515  
4224.000000	64.321470  
4223.000000	64.341592  
4222.000000	64.377927  
4221.000000	64.425706  
4220.000000	64.478182  
4219.000000	64.528155  
4218.000000	64.569163  
4217.000000	64.596700  
4216.000000	64.609193  
4215.000000	64.607667  
4214.000000	64.595317  
4213.000000	64.576578  
4212.000000	64.555716  
4211.000000	64.536356  
4210.000000	64.520788  
4209.000000	64.510440  
4208.000000	64.506363  
4207.000000	64.509248  
4206.000000	64.520406  
4205.000000	64.540266  
4204.000000	64.568042  
4203.000000	64.601135  
4202.000000	64.635300  
4201.000000	64.665198  
4200.000000	64.685297  
4199.000000	64.691400  
4198.000000	64.681625  
4197.000000	64.656925  
4196.000000	64.620876  
4195.000000	64.578962  
4194.000000	64.537572  
