PE IR       SPECTRUM    SPECTRUM    ASCII       PEDS        1.60        
  -1
BZAC74~1.ASC
17/04/10
10:44:32.00
17/04/10
10:44:32.00
tln
$BZ12041010-4_t0021$<tbV0>[5.2,-2.0,9.0,0.0,22,1,0]
370.000000
64









2002,4.07    
MIRTGS : RIGHTBACK : INTERNAL 2
MIR : ON : INTERNAL 2
OPTKBR

0.200000
8
8.000000
FILLER
RATIO
SPECTRUM
UNLOCKED 256

DOUBLE
64
COMBINED
1
0
0


1.000000
RATIO


1
0
TRUE
51149
0
LEFT NOT FITTED RIGHT NOT FITTED 0
NONE
NONE
15600
12.000000
4.427000
51148
TRUE
1 0 8 72 0 0 0 0 

15798.010000






#HDR
-1
-1
#GR
CM-1
%T
0.00002384185791015625
0.0
5000.000000
-1.000000
4631
8
69.921255
34.671020
#DATA
5000.000000	53.727865 
4999.000000	53.706383 
4998.000000	53.675222 
4997.000000	53.641843 
4996.000000	53.610467 
4995.000000	53.583240 
4994.000000	53.559088 
4993.000000	53.535962 
4992.000000	53.511404 
4991.000000	53.484916 
4990.000000	53.457379 
4989.000000	53.431010 
4988.000000	53.409075 
4987.000000	53.394460 
4986.000000	53.389692 
4985.000000	53.396034 
4984.000000	53.413987 
4983.000000	53.442883 
4982.000000	53.482556 
4981.000000	53.533172 
4980.000000	53.593659 
4979.000000	53.661108 
4978.000000	53.731393 
4977.000000	53.798222 
4976.000000	53.854203 
4975.000000	53.890490 
4974.000000	53.899931 
4973.000000	53.876304 
4972.000000	53.816866 
4971.000000	53.721404 
4970.000000	53.593373 
4969.000000	53.438615 
4968.000000	53.265738 
4967.000000	53.084611 
4966.000000	52.905845 
4965.000000	52.739739 
4964.000000	52.595281 
4963.000000	52.479815 
4962.000000	52.397894 
4961.000000	52.352356 
4960.000000	52.343368 
4959.000000	52.369952 
4958.000000	52.429485 
4957.000000	52.519607 
4956.000000	52.637672 
4955.000000	52.780985 
4954.000000	52.945685 
4953.000000	53.126335 
4952.000000	53.315258 
4951.000000	53.502154 
4950.000000	53.675293 
4949.000000	53.823614 
4948.000000	53.938031 
4947.000000	54.014396 
4946.000000	54.052162 
4945.000000	54.055786 
4944.000000	54.031515 
4943.000000	53.988456 
4942.000000	53.934168 
4941.000000	53.874635 
4940.000000	53.812789 
4939.000000	53.750348 
4938.000000	53.687739 
4937.000000	53.626728 
4936.000000	53.570175 
4935.000000	53.522205 
4934.000000	53.487992 
4933.000000	53.472685 
4932.000000	53.479909 
4931.000000	53.510069 
4930.000000	53.559851 
4929.000000	53.622269 
4928.000000	53.688049 
4927.000000	53.747153 
4926.000000	53.789949 
4925.000000	53.809571 
4924.000000	53.801774 
4923.000000	53.767418 
4922.000000	53.712129 
4921.000000	53.647065 
4920.000000	53.586339 
4919.000000	53.545308 
4918.000000	53.539538 
4917.000000	53.578853 
4916.000000	53.667187 
4915.000000	53.796434 
4914.000000	53.949737 
4913.000000	54.098868 
4912.000000	54.211568 
4911.000000	54.254674 
4910.000000	54.201292 
4909.000000	54.038381 
4908.000000	53.770709 
4907.000000	53.423023 
4906.000000	53.035449 
4905.000000	52.658987 
4904.000000	52.345418 
4903.000000	52.137446 
4902.000000	52.059888 
4901.000000	52.115297 
4900.000000	52.284240 
4899.000000	52.530002 
4898.000000	52.807855 
4897.000000	53.072619 
4896.000000	53.289008 
4895.000000	53.436779 
4894.000000	53.513431 
4893.000000	53.528523 
4892.000000	53.500247 
4891.000000	53.448128 
4890.000000	53.388166 
4889.000000	53.330421 
4888.000000	53.277730 
4887.000000	53.228330 
4886.000000	53.179407 
4885.000000	53.133440 
4884.000000	53.097081 
4883.000000	53.080892 
4882.000000	53.096580 
4881.000000	53.152394 
4880.000000	53.251719 
4879.000000	53.390812 
4878.000000	53.558444 
4877.000000	53.737211 
4876.000000	53.907108 
4875.000000	54.048776 
4874.000000	54.148054 
4873.000000	54.197406 
4872.000000	54.194903 
4871.000000	54.142475 
4870.000000	54.045844 
4869.000000	53.911423 
4868.000000	53.742837 
4867.000000	53.543615 
4866.000000	53.316879 
4865.000000	53.072428 
4864.000000	52.828550 
4863.000000	52.614259 
4862.000000	52.463960 
4861.000000	52.412772 
4860.000000	52.489733 
4859.000000	52.706170 
4858.000000	53.050947 
4857.000000	53.485608 
4856.000000	53.949618 
4855.000000	54.369974 
4854.000000	54.675436 
4853.000000	54.812479 
4852.000000	54.756689 
4851.000000	54.519462 
4850.000000	54.145169 
4849.000000	53.701281 
4848.000000	53.263878 
4847.000000	52.901816 
4846.000000	52.664160 
4845.000000	52.577018 
4844.000000	52.640938 
4843.000000	52.837848 
4842.000000	53.134799 
4841.000000	53.491735 
4840.000000	53.866291 
4839.000000	54.216384 
4838.000000	54.505872 
4837.000000	54.704356 
4836.000000	54.792833 
4835.000000	54.762935 
4834.000000	54.620766 
4833.000000	54.385304 
4832.000000	54.087901 
4831.000000	53.769874 
4830.000000	53.474569 
4829.000000	53.242778 
4828.000000	53.103280 
4827.000000	53.070569 
4826.000000	53.138828 
4825.000000	53.285360 
4824.000000	53.472709 
4823.000000	53.657245 
4822.000000	53.797793 
4821.000000	53.864550 
4820.000000	53.844642 
4819.000000	53.744268 
4818.000000	53.587126 
4817.000000	53.407835 
4816.000000	53.245759 
4815.000000	53.133296 
4814.000000	53.088665 
4813.000000	53.110027 
4812.000000	53.178358 
4811.000000	53.261733 
4810.000000	53.325653 
4809.000000	53.342080 
4808.000000	53.295540 
4807.000000	53.188967 
4806.000000	53.041338 
4805.000000	52.883887 
4804.000000	52.748870 
4803.000000	52.664208 
4802.000000	52.645111 
4801.000000	52.693295 
4800.000000	52.797722 
4799.000000	52.938747 
4798.000000	53.093767 
4797.000000	53.244090 
4796.000000	53.378915 
4795.000000	53.495907 
4794.000000	53.599143 
4793.000000	53.694915 
4792.000000	53.787255 
4791.000000	53.875160 
4790.000000	53.951478 
4789.000000	54.005098 
4788.000000	54.023814 
4787.000000	53.999972 
4786.000000	53.932547 
4785.000000	53.830718 
4784.000000	53.710865 
4783.000000	53.592467 
4782.000000	53.493833 
4781.000000	53.427720 
4780.000000	53.399229 
4779.000000	53.404831 
4778.000000	53.435158 
4777.000000	53.478074 
4776.000000	53.522968 
4775.000000	53.563642 
4774.000000	53.599095 
4773.000000	53.632187 
4772.000000	53.667283 
4771.000000	53.706789 
4770.000000	53.749656 
4769.000000	53.790211 
4768.000000	53.820896 
4767.000000	53.834462 
4766.000000	53.826713 
4765.000000	53.798484 
4764.000000	53.756093 
4763.000000	53.709840 
4762.000000	53.670692 
4761.000000	53.647804 
4760.000000	53.646802 
4759.000000	53.668522 
4758.000000	53.709411 
4757.000000	53.762865 
4756.000000	53.821563 
4755.000000	53.879117 
4754.000000	53.931522 
4753.000000	53.977012 
4752.000000	54.015588 
4751.000000	54.047799 
4750.000000	54.074144 
4749.000000	54.093289 
4748.000000	54.102230 
4747.000000	54.096603 
4746.000000	54.072618 
4745.000000	54.028058 
4744.000000	53.963947 
4743.000000	53.884816 
4742.000000	53.798484 
4741.000000	53.715610 
4740.000000	53.647732 
4739.000000	53.604745 
4738.000000	53.592443 
4737.000000	53.610515 
4736.000000	53.652262 
4735.000000	53.705406 
4734.000000	53.755402 
4733.000000	53.788256 
4732.000000	53.794765 
4731.000000	53.772282 
4730.000000	53.725767 
4729.000000	53.665781 
4728.000000	53.606033 
4727.000000	53.559613 
4726.000000	53.535890 
4725.000000	53.538322 
4724.000000	53.564333 
4723.000000	53.606462 
4722.000000	53.654742 
4721.000000	53.700232 
4720.000000	53.736281 
4719.000000	53.760123 
4718.000000	53.771972 
4717.000000	53.773546 
4716.000000	53.766965 
4715.000000	53.753280 
4714.000000	53.733158 
4713.000000	53.707265 
4712.000000	53.677415 
4711.000000	53.647160 
4710.000000	53.621459 
4709.000000	53.605794 
4708.000000	53.604555 
4707.000000	53.619861 
4706.000000	53.650450 
4705.000000	53.692078 
4704.000000	53.738355 
4703.000000	53.782439 
4702.000000	53.819346 
4701.000000	53.846478 
4700.000000	53.864288 
4699.000000	53.875207 
4698.000000	53.882169 
4697.000000	53.887510 
4696.000000	53.891658 
4695.000000	53.893780 
4694.000000	53.892493 
4693.000000	53.886699 
4692.000000	53.877210 
4691.000000	53.865766 
4690.000000	53.855037 
4689.000000	53.846597 
4688.000000	53.840374 
4687.000000	53.833794 
4686.000000	53.822231 
4685.000000	53.800249 
4684.000000	53.763365 
4683.000000	53.709363 
4682.000000	53.639435 
4681.000000	53.558397 
4680.000000	53.473997 
4679.000000	53.395104 
4678.000000	53.329944 
4677.000000	53.284025 
4676.000000	53.259348 
4675.000000	53.254485 
4674.000000	53.264784 
4673.000000	53.284144 
4672.000000	53.306078 
4671.000000	53.324556 
4670.000000	53.335499 
4669.000000	53.336071 
4668.000000	53.326272 
4667.000000	53.307557 
4666.000000	53.283381 
4665.000000	53.257870 
4664.000000	53.235554 
4663.000000	53.220367 
4662.000000	53.215241 
4661.000000	53.221702 
4660.000000	53.239774 
4659.000000	53.268122 
4658.000000	53.304600 
4657.000000	53.346371 
4656.000000	53.389692 
4655.000000	53.430223 
4654.000000	53.463816 
4653.000000	53.487014 
4652.000000	53.497004 
4651.000000	53.492856 
4650.000000	53.475689 
4649.000000	53.449153 
4648.000000	53.418803 
4647.000000	53.391504 
4646.000000	53.374361 
4645.000000	53.372812 
4644.000000	53.389883 
4643.000000	53.424835 
4642.000000	53.473186 
4641.000000	53.527569 
4640.000000	53.579211 
4639.000000	53.619694 
4638.000000	53.642439 
4637.000000	53.644418 
4636.000000	53.626394 
4635.000000	53.593158 
4634.000000	53.552079 
4633.000000	53.512287 
4632.000000	53.482604 
4631.000000	53.470730 
4630.000000	53.481817 
4629.000000	53.517913 
4628.000000	53.577613 
4627.000000	53.656625 
4626.000000	53.747987 
4625.000000	53.843164 
4624.000000	53.932571 
4623.000000	54.007029 
4622.000000	54.058408 
4621.000000	54.080891 
4620.000000	54.071140 
4619.000000	54.029607 
4618.000000	53.959608 
4617.000000	53.867650 
4616.000000	53.761816 
4615.000000	53.651833 
4614.000000	53.546476 
4613.000000	53.452920 
4612.000000	53.375768 
4611.000000	53.317117 
4610.000000	53.276872 
4609.000000	53.253746 
4608.000000	53.245735 
4607.000000	53.250646 
4606.000000	53.266620 
4605.000000	53.292226 
4604.000000	53.325915 
4603.000000	53.365778 
4602.000000	53.409862 
4601.000000	53.456163 
4600.000000	53.502798 
4599.000000	53.548049 
4598.000000	53.590679 
4597.000000	53.629827 
4596.000000	53.664731 
4595.000000	53.694605 
4594.000000	53.718709 
4593.000000	53.736376 
4592.000000	53.747272 
4591.000000	53.751945 
4590.000000	53.752326 
4589.000000	53.751087 
4588.000000	53.752017 
4587.000000	53.758168 
4586.000000	53.771018 
4585.000000	53.789877 
4584.000000	53.812050 
4583.000000	53.833460 
4582.000000	53.849363 
4581.000000	53.856182 
4580.000000	53.852820 
4579.000000	53.840017 
4578.000000	53.819966 
4577.000000	53.795576 
4576.000000	53.769373 
4575.000000	53.743028 
4574.000000	53.717064 
4573.000000	53.690981 
4572.000000	53.664112 
4571.000000	53.636598 
4570.000000	53.609943 
4569.000000	53.586530 
4568.000000	53.569555 
4567.000000	53.562521 
4566.000000	53.568053 
4565.000000	53.586435 
4564.000000	53.615951 
4563.000000	53.652811 
4562.000000	53.691887 
4561.000000	53.727579 
4560.000000	53.755331 
4559.000000	53.772425 
4558.000000	53.778839 
4557.000000	53.776860 
4556.000000	53.770470 
4555.000000	53.764152 
4554.000000	53.761911 
4553.000000	53.766441 
4552.000000	53.778123 
4551.000000	53.794717 
4550.000000	53.812241 
4549.000000	53.825712 
4548.000000	53.829717 
4547.000000	53.819489 
4546.000000	53.792190 
4545.000000	53.747510 
4544.000000	53.687858 
4543.000000	53.617691 
4542.000000	53.543281 
4541.000000	53.470849 
4540.000000	53.405880 
4539.000000	53.351497 
4538.000000	53.308486 
4537.000000	53.275108 
4536.000000	53.248119 
4535.000000	53.224301 
4534.000000	53.200912 
4533.000000	53.177738 
4532.000000	53.156495 
4531.000000	53.141260 
4530.000000	53.136467 
4529.000000	53.146767 
4528.000000	53.174948 
4527.000000	53.221940 
4526.000000	53.286027 
4525.000000	53.363776 
4524.000000	53.450584 
4523.000000	53.541779 
4522.000000	53.633046 
4521.000000	53.720617 
4520.000000	53.800868 
4519.000000	53.869819 
4518.000000	53.922986 
4517.000000	53.956055 
4516.000000	53.965377 
4515.000000	53.949594 
4514.000000	53.909683 
4513.000000	53.849697 
4512.000000	53.776121 
4511.000000	53.697562 
4510.000000	53.622841 
4509.000000	53.560543 
4508.000000	53.516840 
4507.000000	53.494882 
4506.000000	53.494048 
4505.000000	53.510022 
4504.000000	53.536891 
4503.000000	53.567814 
4502.000000	53.598618 
4501.000000	53.628301 
4500.000000	53.660249 
4499.000000	53.701210 
4498.000000	53.754949 
4497.000000	53.819704 
4496.000000	53.885674 
4495.000000	53.936576 
4494.000000	53.958320 
4493.000000	53.942179 
4492.000000	53.886532 
4491.000000	53.797769 
4490.000000	53.688192 
4489.000000	53.572773 
4488.000000	53.467273 
4487.000000	53.383541 
4486.000000	53.325080 
4485.000000	53.288245 
4484.000000	53.269815 
4483.000000	53.262162 
4482.000000	53.254914 
4481.000000	53.237128 
4480.000000	53.195333 
4479.000000	53.123855 
4478.000000	53.022265 
4477.000000	52.905917 
4476.000000	52.799534 
4475.000000	52.741956 
4474.000000	52.777791 
4473.000000	52.942609 
4472.000000	53.252148 
4471.000000	53.680729 
4470.000000	54.161572 
4469.000000	54.586815 
4468.000000	54.834127 
4467.000000	54.794573 
4466.000000	54.411363 
4465.000000	53.699994 
4464.000000	52.762651 
4463.000000	51.771569 
4462.000000	50.939655 
4461.000000	50.471043 
4460.000000	50.513815 
4459.000000	51.129364 
4458.000000	52.265715 
4457.000000	53.776669 
4456.000000	55.437970 
4455.000000	56.996273 
4454.000000	58.218765 
4453.000000	58.935546 
4452.000000	59.078860 
4451.000000	58.686828 
4450.000000	57.891559 
4449.000000	56.882405 
4448.000000	55.855655 
4447.000000	54.970908 
4446.000000	54.321002 
4445.000000	53.925657 
4444.000000	53.745651 
4443.000000	53.711104 
4442.000000	53.749847 
4441.000000	53.812122 
4440.000000	53.868865 
4439.000000	53.916382 
4438.000000	53.951501 
4437.000000	53.974056 
4436.000000	53.979945 
4435.000000	53.965353 
4434.000000	53.931832 
4433.000000	53.885102 
4432.000000	53.836560 
4431.000000	53.798317 
4430.000000	53.779840 
4429.000000	53.784799 
4428.000000	53.809547 
4427.000000	53.844666 
4426.000000	53.878331 
4425.000000	53.899240 
4424.000000	53.902339 
4423.000000	53.886151 
4422.000000	53.850102 
4421.000000	53.799343 
4420.000000	53.743457 
4419.000000	53.693199 
4418.000000	53.658080 
4417.000000	53.641676 
4416.000000	53.639936 
4415.000000	53.646588 
4414.000000	53.654813 
4413.000000	53.656768 
4412.000000	53.645944 
4411.000000	53.619241 
4410.000000	53.577494 
4409.000000	53.524518 
4408.000000	53.466486 
4407.000000	53.409385 
4406.000000	53.358769 
4405.000000	53.318953 
4404.000000	53.292584 
4403.000000	53.280878 
4402.000000	53.283047 
4401.000000	53.296732 
4400.000000	53.318190 
4399.000000	53.342294 
4398.000000	53.364253 
4397.000000	53.379201 
4396.000000	53.384852 
4395.000000	53.381109 
4394.000000	53.371143 
4393.000000	53.360342 
4392.000000	53.355813 
4391.000000	53.364443 
4390.000000	53.391528 
4389.000000	53.439092 
4388.000000	53.505516 
4387.000000	53.585290 
4386.000000	53.669786 
4385.000000	53.748559 
4384.000000	53.811740 
4383.000000	53.851556 
4382.000000	53.863620 
4381.000000	53.847646 
4380.000000	53.807377 
4379.000000	53.749585 
4378.000000	53.682541 
4377.000000	53.614568 
4376.000000	53.553175 
4375.000000	53.503870 
4374.000000	53.469896 
4373.000000	53.452658 
4372.000000	53.452038 
4371.000000	53.467535 
4370.000000	53.498268 
4369.000000	53.543472 
4368.000000	53.601717 
4367.000000	53.671121 
4366.000000	53.748774 
4365.000000	53.830504 
4364.000000	53.910493 
4363.000000	53.982472 
4362.000000	54.040718 
4361.000000	54.080891 
4360.000000	54.100966 
4359.000000	54.101872 
4358.000000	54.087090 
4357.000000	54.062223 
4356.000000	54.033565 
4355.000000	54.007482 
4354.000000	53.988647 
4353.000000	53.979682 
4352.000000	53.980517 
4351.000000	53.989171 
4350.000000	54.002094 
4349.000000	54.015636 
4348.000000	54.026842 
4347.000000	54.033875 
4346.000000	54.036378 
4345.000000	54.035353 
4344.000000	54.032087 
4343.000000	54.027056 
4342.000000	54.019618 
4341.000000	54.007935 
4340.000000	53.989696 
4339.000000	53.963065 
4338.000000	53.927445 
4337.000000	53.884196 
4336.000000	53.836894 
4335.000000	53.790903 
4334.000000	53.751730 
4333.000000	53.723692 
4332.000000	53.708767 
4331.000000	53.706145 
4330.000000	53.712129 
4329.000000	53.721356 
4328.000000	53.728675 
4327.000000	53.730678 
4326.000000	53.726506 
4325.000000	53.718113 
4324.000000	53.709197 
4323.000000	53.704452 
4322.000000	53.707647 
4321.000000	53.720808 
4320.000000	53.743386 
4319.000000	53.772592 
4318.000000	53.804826 
4317.000000	53.835725 
4316.000000	53.861641 
4315.000000	53.879737 
4314.000000	53.888678 
4313.000000	53.888058 
4312.000000	53.877711 
4311.000000	53.858160 
4310.000000	53.830289 
4309.000000	53.795981 
4308.000000	53.757977 
4307.000000	53.720092 
4306.000000	53.686761 
4305.000000	53.661584 
4304.000000	53.646421 
4303.000000	53.640484 
4302.000000	53.640723 
4301.000000	53.641939 
4300.000000	53.638958 
4299.000000	53.627610 
4298.000000	53.607320 
4297.000000	53.580975 
4296.000000	53.555345 
4295.000000	53.538751 
4294.000000	53.539752 
4293.000000	53.564262 
4292.000000	53.614306 
4291.000000	53.687047 
4290.000000	53.775739 
4289.000000	53.871107 
4288.000000	53.963494 
4287.000000	54.045009 
4286.000000	54.110264 
4285.000000	54.157257 
4284.000000	54.186439 
4283.000000	54.199814 
4282.000000	54.200363 
4281.000000	54.191160 
4280.000000	54.175186 
4279.000000	54.154968 
4278.000000	54.132914 
4277.000000	54.111170 
4276.000000	54.091691 
4275.000000	54.075837 
4274.000000	54.063916 
4273.000000	54.055190 
4272.000000	54.047918 
4271.000000	54.040169 
4270.000000	54.030513 
4269.000000	54.018831 
4268.000000	54.006624 
4267.000000	53.996419 
4266.000000	53.991413 
4265.000000	53.994202 
4264.000000	54.005503 
4263.000000	54.024195 
4262.000000	54.047393 
4261.000000	54.070949 
4260.000000	54.090404 
4259.000000	54.101896 
4258.000000	54.103112 
4257.000000	54.093122 
4256.000000	54.072546 
4255.000000	54.043340 
4254.000000	54.008197 
4253.000000	53.969860 
4252.000000	53.930783 
4251.000000	53.893041 
4250.000000	53.858065 
4249.000000	53.827047 
4248.000000	53.800725 
4247.000000	53.779363 
4246.000000	53.762936 
4245.000000	53.751087 
4244.000000	53.743338 
4243.000000	53.739118 
4242.000000	53.737664 
4241.000000	53.738307 
4240.000000	53.740072 
4239.000000	53.741431 
4238.000000	53.740501 
4237.000000	53.734803 
4236.000000	53.722572 
4235.000000	53.703212 
4234.000000	53.677868 
4233.000000	53.649401 
4232.000000	53.622031 
4231.000000	53.600549 
4230.000000	53.588914 
4229.000000	53.589177 
4228.000000	53.600811 
4227.000000	53.620791 
4226.000000	53.644132 
4225.000000	53.665208 
4224.000000	53.679037 
4223.000000	53.682756 
4222.000000	53.676509 
4221.000000	53.663682 
4220.000000	53.649544 
4219.000000	53.640270 
4218.000000	53.641581 
4217.000000	53.656864 
4216.000000	53.686594 
4215.000000	53.727340 
4214.000000	53.773570 
4213.000000	53.817391 
4212.000000	53.850722 
4211.000000	53.866243 
4210.000000	53.859329 
4209.000000	53.828668 
4208.000000	53.776407 
4207.000000	53.707861 
4206.000000	53.630566 
4205.000000	53.552699 
4204.000000	53.481316 
4203.000000	53.421497 
4202.000000	53.375840 
4201.000000	53.344416 
4200.000000	53.325557 
4199.000000	53.316736 
4198.000000	53.315687 
4197.000000	53.321051 
4196.000000	53.332781 
4195.000000	53.351354 
4194.000000	53.377485 
4193.000000	53.411316 
4192.000000	53.452229 
4191.000000	53.497767 
4190.000000	53.544569 
4189.000000	53.588747 
4188.000000	53.626990 
4187.000000	53.657412 
4186.000000	53.679680 
4185.000000	53.694820 
4184.000000	53.705215 
4183.000000	53.713679 
4182.000000	53.722906 
4181.000000	53.735041 
4180.000000	53.751015 
4179.000000	53.770780 
4178.000000	53.792786 
4177.000000	53.814911 
4176.000000	53.834438 
4175.000000	53.848910 
4174.000000	53.856444 
4173.000000	53.855895 
4172.000000	53.847241 
4171.000000	53.831434 
4170.000000	53.809714 
4169.000000	53.783321 
4168.000000	53.753447 
4167.000000	53.720998 
4166.000000	53.686904 
4165.000000	53.652596 
4164.000000	53.620147 
4163.000000	53.592753 
4162.000000	53.574466 
4161.000000	53.569579 
4160.000000	53.581500 
4159.000000	53.611540 
