PE IR       SPECTRUM    SPECTRUM    ASCII       PEDS        1.60        
  -1
BZAC7F~1.ASC
17/04/10
10:53:47.00
17/04/10
10:53:47.00
tln
$BZ12041010-4_t0023$<tbV0>[0.0,-2.0,9.0,0.0,22,1,0]
370.000000
64









2002,4.07    
MIRTGS : RIGHTBACK : INTERNAL 2
MIR : ON : INTERNAL 2
OPTKBR

0.200000
8
8.000000
FILLER
RATIO
SPECTRUM
UNLOCKED 256

DOUBLE
64
COMBINED
1
0
0


1.000000
RATIO


1
0
TRUE
51149
0
LEFT NOT FITTED RIGHT NOT FITTED 0
NONE
NONE
15600
12.000000
4.427000
51148
TRUE
1 0 8 72 0 0 0 0 

15798.010000






#HDR
-1
-1
#GR
CM-1
%T
0.00002384185791015625
0.0
5000.000000
-1.000000
4631
8
72.838139
31.889820
#DATA
5000.000000	56.202459 
4999.000000	56.214118 
4998.000000	56.240987 
4997.000000	56.281995 
4996.000000	56.334161 
4995.000000	56.392359 
4994.000000	56.449961 
4993.000000	56.499481 
4992.000000	56.534457 
4991.000000	56.550860 
4990.000000	56.547760 
4989.000000	56.527161 
4988.000000	56.493949 
4987.000000	56.454992 
4986.000000	56.417155 
4985.000000	56.385827 
4984.000000	56.364655 
4983.000000	56.355190 
4982.000000	56.357097 
4981.000000	56.368684 
4980.000000	56.387758 
4979.000000	56.412053 
4978.000000	56.439995 
4977.000000	56.470227 
4976.000000	56.500816 
4975.000000	56.528997 
4974.000000	56.551575 
4973.000000	56.564736 
4972.000000	56.564664 
4971.000000	56.548023 
4970.000000	56.513786 
4969.000000	56.462812 
4968.000000	56.398510 
4967.000000	56.325435 
4966.000000	56.249165 
4965.000000	56.174254 
4964.000000	56.104016 
4963.000000	56.039237 
4962.000000	55.978894 
4961.000000	55.920815 
4960.000000	55.862927 
4959.000000	55.804324 
4958.000000	55.746054 
4957.000000	55.690813 
4956.000000	55.642700 
4955.000000	55.605936 
4954.000000	55.584383 
4953.000000	55.580496 
4952.000000	55.595207 
4951.000000	55.627608 
4950.000000	55.675482 
4949.000000	55.735301 
4948.000000	55.803060 
4947.000000	55.874323 
4946.000000	55.945110 
4945.000000	56.011414 
4944.000000	56.069922 
4943.000000	56.117773 
4942.000000	56.152749 
4941.000000	56.173706 
4940.000000	56.180071 
4939.000000	56.172370 
4938.000000	56.152153 
4937.000000	56.122350 
4936.000000	56.086993 
4935.000000	56.050848 
4934.000000	56.019568 
4933.000000	55.999183 
4932.000000	55.994939 
4931.000000	56.010675 
4930.000000	56.046319 
4929.000000	56.097555 
4928.000000	56.156682 
4927.000000	56.214547 
4926.000000	56.262254 
4925.000000	56.293725 
4924.000000	56.307601 
4923.000000	56.307148 
4922.000000	56.300163 
4921.000000	56.296229 
4920.000000	56.302475 
4919.000000	56.321954 
4918.000000	56.355261 
4917.000000	56.397652 
4916.000000	56.440663 
4915.000000	56.472826 
4914.000000	56.484937 
4913.000000	56.468749 
4912.000000	56.419968 
4911.000000	56.337141 
4910.000000	56.220817 
4909.000000	56.076049 
4908.000000	55.911755 
4907.000000	55.741548 
4906.000000	55.581212 
4905.000000	55.450224 
4904.000000	55.368900 
4903.000000	55.354142 
4902.000000	55.415225 
4901.000000	55.551362 
4900.000000	55.749416 
4899.000000	55.984902 
4898.000000	56.223630 
4897.000000	56.429028 
4896.000000	56.565070 
4895.000000	56.602215 
4894.000000	56.519699 
4893.000000	56.310248 
4892.000000	55.979347 
4891.000000	55.542469 
4890.000000	55.026912 
4889.000000	54.466414 
4888.000000	53.904771 
4887.000000	53.389620 
4886.000000	52.972912 
4885.000000	52.701520 
4884.000000	52.614355 
4883.000000	52.733540 
4882.000000	53.060269 
4881.000000	53.568601 
4880.000000	54.211378 
4879.000000	54.924082 
4878.000000	55.636000 
4877.000000	56.279420 
4876.000000	56.801533 
4875.000000	57.170987 
4874.000000	57.381796 
4873.000000	57.451534 
4872.000000	57.416939 
4871.000000	57.324337 
4870.000000	57.223773 
4869.000000	57.156777 
4868.000000	57.153391 
4867.000000	57.223796 
4866.000000	57.365202 
4865.000000	57.557845 
4864.000000	57.774829 
4863.000000	57.983136 
4862.000000	58.152604 
4861.000000	58.258652 
4860.000000	58.285021 
4859.000000	58.226823 
4858.000000	58.090853 
4857.000000	57.893347 
4856.000000	57.656335 
4855.000000	57.404708 
4854.000000	57.163977 
4853.000000	56.953763 
4852.000000	56.786704 
4851.000000	56.665205 
4850.000000	56.583237 
4849.000000	56.529283 
4848.000000	56.491351 
4847.000000	56.457757 
4846.000000	56.421446 
4845.000000	56.384396 
4844.000000	56.357502 
4843.000000	56.354951 
4842.000000	56.390976 
4841.000000	56.475877 
4840.000000	56.611108 
4839.000000	56.787467 
4838.000000	56.985020 
4837.000000	57.177138 
4836.000000	57.335615 
4835.000000	57.436776 
4834.000000	57.467007 
4833.000000	57.426166 
4832.000000	57.326984 
4831.000000	57.192111 
4830.000000	57.047939 
4829.000000	56.919193 
4828.000000	56.822729 
4827.000000	56.765937 
4826.000000	56.744623 
4825.000000	56.746006 
4824.000000	56.754064 
4823.000000	56.755614 
4822.000000	56.742739 
4821.000000	56.715059 
4820.000000	56.679558 
4819.000000	56.648039 
4818.000000	56.633377 
4817.000000	56.645107 
4816.000000	56.686282 
4815.000000	56.751680 
4814.000000	56.830239 
4813.000000	56.906247 
4812.000000	56.963372 
4811.000000	56.987810 
4810.000000	56.971764 
4809.000000	56.915140 
4808.000000	56.823825 
4807.000000	56.710529 
4806.000000	56.590914 
4805.000000	56.482529 
4804.000000	56.400275 
4803.000000	56.356430 
4802.000000	56.358933 
4801.000000	56.410956 
4800.000000	56.511116 
4799.000000	56.652617 
4798.000000	56.824064 
4797.000000	57.010221 
4796.000000	57.193899 
4795.000000	57.357025 
4794.000000	57.482528 
4793.000000	57.556676 
4792.000000	57.570409 
4791.000000	57.519984 
4790.000000	57.407164 
4789.000000	57.239723 
4788.000000	57.030200 
4787.000000	56.795406 
4786.000000	56.553721 
4785.000000	56.324672 
4784.000000	56.125354 
4783.000000	55.968785 
4782.000000	55.862355 
4781.000000	55.806303 
4780.000000	55.795907 
4779.000000	55.821704 
4778.000000	55.873346 
4777.000000	55.939579 
4776.000000	56.012511 
4775.000000	56.086540 
4774.000000	56.159543 
4773.000000	56.230640 
4772.000000	56.298756 
4771.000000	56.360864 
4770.000000	56.412243 
4769.000000	56.446838 
4768.000000	56.460380 
4767.000000	56.452012 
4766.000000	56.425833 
4765.000000	56.390404 
4764.000000	56.356692 
4763.000000	56.335330 
4762.000000	56.333279 
4761.000000	56.352043 
4760.000000	56.387948 
4759.000000	56.433010 
4758.000000	56.478333 
4757.000000	56.515789 
4756.000000	56.539750 
4755.000000	56.548094 
4754.000000	56.542658 
4753.000000	56.527829 
4752.000000	56.507921 
4751.000000	56.486868 
4750.000000	56.467485 
4749.000000	56.450963 
4748.000000	56.437301 
4747.000000	56.425952 
4746.000000	56.416797 
4745.000000	56.410002 
4744.000000	56.406140 
4743.000000	56.405687 
4742.000000	56.408381 
4741.000000	56.414318 
4740.000000	56.423878 
4739.000000	56.437587 
4738.000000	56.455874 
4737.000000	56.478857 
4736.000000	56.505942 
4735.000000	56.535005 
4734.000000	56.562876 
4733.000000	56.585860 
4732.000000	56.600713 
4731.000000	56.605815 
4730.000000	56.601381 
4729.000000	56.589341 
4728.000000	56.572771 
4727.000000	56.555366 
4726.000000	56.540465 
4725.000000	56.530261 
4724.000000	56.525850 
4723.000000	56.527304 
4722.000000	56.533980 
4721.000000	56.545138 
4720.000000	56.559848 
4719.000000	56.577491 
4718.000000	56.596541 
4717.000000	56.614613 
4716.000000	56.627678 
4715.000000	56.630778 
4714.000000	56.618571 
4713.000000	56.586861 
4712.000000	56.534218 
4711.000000	56.462883 
4710.000000	56.379055 
4709.000000	56.292247 
4708.000000	56.213331 
4707.000000	56.153011 
4706.000000	56.119036 
4705.000000	56.115412 
4704.000000	56.141066 
4703.000000	56.191229 
4702.000000	56.257987 
4701.000000	56.332945 
4700.000000	56.408238 
4699.000000	56.478333 
4698.000000	56.540203 
4697.000000	56.592941 
4696.000000	56.636786 
4695.000000	56.671905 
4694.000000	56.697487 
4693.000000	56.711792 
4692.000000	56.712770 
4691.000000	56.699132 
4690.000000	56.671595 
4689.000000	56.633448 
4688.000000	56.590867 
4687.000000	56.551194 
4686.000000	56.521630 
4685.000000	56.507349 
4684.000000	56.510448 
4683.000000	56.529688 
4682.000000	56.560850 
4681.000000	56.598305 
4680.000000	56.636500 
4679.000000	56.671023 
4678.000000	56.699776 
4677.000000	56.722784 
4676.000000	56.741833 
4675.000000	56.759047 
4674.000000	56.775975 
4673.000000	56.792926 
4672.000000	56.808543 
4671.000000	56.820631 
4670.000000	56.826114 
4669.000000	56.822562 
4668.000000	56.808495 
4667.000000	56.784582 
4666.000000	56.753230 
4665.000000	56.717991 
4664.000000	56.683588 
4663.000000	56.654906 
4662.000000	56.636142 
4661.000000	56.630039 
4660.000000	56.637120 
4659.000000	56.655526 
4658.000000	56.681394 
4657.000000	56.709504 
4656.000000	56.734466 
4655.000000	56.751775 
4654.000000	56.759047 
4653.000000	56.756138 
4652.000000	56.744813 
4651.000000	56.728172 
4650.000000	56.709718 
4649.000000	56.692457 
4648.000000	56.678557 
4647.000000	56.668686 
4646.000000	56.662487 
4645.000000	56.658530 
4644.000000	56.655287 
4643.000000	56.651043 
4642.000000	56.644630 
4641.000000	56.635260 
4640.000000	56.622743 
4639.000000	56.607151 
4638.000000	56.588363 
4637.000000	56.566691 
4636.000000	56.542801 
4635.000000	56.517720 
4634.000000	56.492805 
4633.000000	56.469845 
4632.000000	56.450915 
4631.000000	56.438207 
4630.000000	56.433820 
4629.000000	56.439447 
4628.000000	56.456089 
4627.000000	56.484174 
4626.000000	56.523251 
4625.000000	56.571531 
4624.000000	56.626391 
4623.000000	56.684279 
4622.000000	56.741523 
4621.000000	56.794786 
4620.000000	56.841278 
4619.000000	56.879711 
4618.000000	56.909394 
4617.000000	56.930661 
4616.000000	56.943464 
4615.000000	56.948161 
4614.000000	56.943607 
4613.000000	56.928086 
4612.000000	56.898927 
4611.000000	56.854224 
4610.000000	56.793308 
4609.000000	56.718015 
4608.000000	56.632757 
4607.000000	56.544446 
4606.000000	56.461763 
4605.000000	56.393790 
4604.000000	56.348299 
4603.000000	56.330442 
4602.000000	56.342554 
4601.000000	56.384062 
4600.000000	56.451272 
4599.000000	56.538081 
4598.000000	56.636619 
4597.000000	56.738281 
4596.000000	56.834101 
4595.000000	56.916022 
4594.000000	56.977224 
4593.000000	57.013702 
4592.000000	57.024312 
4591.000000	57.011461 
4590.000000	56.980991 
4589.000000	56.940507 
4588.000000	56.899213 
4587.000000	56.864738 
4586.000000	56.842613 
4585.000000	56.834220 
4584.000000	56.837415 
4583.000000	56.846356 
4582.000000	56.853532 
4581.000000	56.851124 
4580.000000	56.833267 
4579.000000	56.796216 
4578.000000	56.739354 
4577.000000	56.664776 
4576.000000	56.576943 
4575.000000	56.481385 
4574.000000	56.384611 
4573.000000	56.293177 
4572.000000	56.213974 
4571.000000	56.153559 
4570.000000	56.118035 
4569.000000	56.111764 
4568.000000	56.137156 
4567.000000	56.193590 
4566.000000	56.277251 
4565.000000	56.380128 
4564.000000	56.491637 
4563.000000	56.599688 
4562.000000	56.693029 
4561.000000	56.762766 
4560.000000	56.803894 
4559.000000	56.815958 
4558.000000	56.802725 
4557.000000	56.771636 
4556.000000	56.731271 
4555.000000	56.689763 
4554.000000	56.653428 
4553.000000	56.626105 
4552.000000	56.609177 
4551.000000	56.602168 
4550.000000	56.603717 
4549.000000	56.612277 
4548.000000	56.626224 
4547.000000	56.643939 
4546.000000	56.663584 
4545.000000	56.682896 
4544.000000	56.698679 
4543.000000	56.707549 
4542.000000	56.706500 
4541.000000	56.694102 
4540.000000	56.670141 
4539.000000	56.636953 
4538.000000	56.598901 
4537.000000	56.562447 
4536.000000	56.535315 
4535.000000	56.524777 
4534.000000	56.536269 
4533.000000	56.571602 
4532.000000	56.628751 
4531.000000	56.701064 
4530.000000	56.778192 
4529.000000	56.848335 
4528.000000	56.901025 
4527.000000	56.928706 
4526.000000	56.928324 
4525.000000	56.901693 
4524.000000	56.854844 
4523.000000	56.796717 
4522.000000	56.737112 
4521.000000	56.685352 
4520.000000	56.648278 
4519.000000	56.630039 
4518.000000	56.631422 
4517.000000	56.650733 
4516.000000	56.683826 
4515.000000	56.725573 
4514.000000	56.770205 
4513.000000	56.812453 
4512.000000	56.848192 
4511.000000	56.873464 
4510.000000	56.885838 
4509.000000	56.885647 
4508.000000	56.874418 
4507.000000	56.854414 
4506.000000	56.827640 
4505.000000	56.795787 
4504.000000	56.759405 
4503.000000	56.717896 
4502.000000	56.671428 
4501.000000	56.622576 
4500.000000	56.574487 
4499.000000	56.529951 
4498.000000	56.493830 
4497.000000	56.473231 
4496.000000	56.468033 
4495.000000	56.471419 
4494.000000	56.479215 
4493.000000	56.489920 
4492.000000	56.503462 
4491.000000	56.520795 
4490.000000	56.542181 
4489.000000	56.564879 
4488.000000	56.588077 
4487.000000	56.607508 
4486.000000	56.607556 
4485.000000	56.569075 
4484.000000	56.488108 
4483.000000	56.363511 
4482.000000	56.189346 
4481.000000	55.966210 
4480.000000	55.699324 
4479.000000	55.406188 
4478.000000	55.121350 
4477.000000	54.880142 
4476.000000	54.719924 
4475.000000	54.645299 
4474.000000	54.626870 
4473.000000	54.588627 
4472.000000	54.424142 
4471.000000	54.021191 
4470.000000	53.293657 
4469.000000	52.202248 
4468.000000	50.774979 
4467.000000	49.091148 
4466.000000	47.288942 
4465.000000	45.521759 
4464.000000	43.972468 
4463.000000	42.825698 
4462.000000	42.274403 
4461.000000	42.485475 
4460.000000	43.584513 
4459.000000	45.628309 
4458.000000	48.567485 
4457.000000	52.232265 
4456.000000	56.327033 
4455.000000	60.453510 
4454.000000	64.172601 
4453.000000	67.067742 
4452.000000	68.837165 
4451.000000	69.353914 
4450.000000	68.689012 
4449.000000	67.109918 
4448.000000	64.987754 
4447.000000	62.723350 
4446.000000	60.651755 
4445.000000	58.991217 
4444.000000	57.820534 
4443.000000	57.100772 
4442.000000	56.725311 
4441.000000	56.574344 
4440.000000	56.537961 
4439.000000	56.549477 
4438.000000	56.565976 
4437.000000	56.580090 
4436.000000	56.591176 
4435.000000	56.609892 
4434.000000	56.641936 
4433.000000	56.690335 
4432.000000	56.749868 
4431.000000	56.811428 
4430.000000	56.865835 
4429.000000	56.905627 
4428.000000	56.933164 
4427.000000	56.952667 
4426.000000	56.963753 
4425.000000	56.965303 
4424.000000	56.959724 
4423.000000	56.945037 
4422.000000	56.910204 
4421.000000	56.849789 
4420.000000	56.770205 
4419.000000	56.682205 
4418.000000	56.599640 
4417.000000	56.533741 
4416.000000	56.488847 
4415.000000	56.467080 
4414.000000	56.468057 
4413.000000	56.482219 
4412.000000	56.494665 
4411.000000	56.494164 
4410.000000	56.474900 
4409.000000	56.435775 
4408.000000	56.381464 
4407.000000	56.318974 
4406.000000	56.257796 
4405.000000	56.206321 
4404.000000	56.172299 
4403.000000	56.160926 
4402.000000	56.175541 
4401.000000	56.216883 
4400.000000	56.284070 
4399.000000	56.374287 
4398.000000	56.483483 
4397.000000	56.606674 
4396.000000	56.737780 
4395.000000	56.869435 
4394.000000	56.993389 
4393.000000	57.100892 
4392.000000	57.183837 
4391.000000	57.235956 
4390.000000	57.254123 
4389.000000	57.238936 
4388.000000	57.195210 
4387.000000	57.131409 
4386.000000	57.057523 
4385.000000	56.983613 
4384.000000	56.918406 
4383.000000	56.867885 
4382.000000	56.834959 
4381.000000	56.819415 
4380.000000	56.819152 
4379.000000	56.831216 
4378.000000	56.852674 
4377.000000	56.881451 
4376.000000	56.915831 
4375.000000	56.954836 
4374.000000	56.997275 
4373.000000	57.041454 
4372.000000	57.084512 
4371.000000	57.122421 
4370.000000	57.150578 
4369.000000	57.164549 
4368.000000	57.161092 
4367.000000	57.139253 
4366.000000	57.101178 
4365.000000	57.051348 
4364.000000	56.995987 
4363.000000	56.941556 
4362.000000	56.893658 
4361.000000	56.855583 
4360.000000	56.828093 
4359.000000	56.810092 
4358.000000	56.799554 
4357.000000	56.794619 
4356.000000	56.794309 
4355.000000	56.798672 
4354.000000	56.808471 
4353.000000	56.824421 
4352.000000	56.846094 
4351.000000	56.870841 
4350.000000	56.894254 
4349.000000	56.910634 
4348.000000	56.914687 
4347.000000	56.903052 
4346.000000	56.875467 
4345.000000	56.835126 
4344.000000	56.788372 
4343.000000	56.743049 
4342.000000	56.707072 
4341.000000	56.686115 
4340.000000	56.683206 
4339.000000	56.698203 
4338.000000	56.728267 
4337.000000	56.768727 
4336.000000	56.814146 
4335.000000	56.859302 
4334.000000	56.899690 
4333.000000	56.931805 
4332.000000	56.953263 
4331.000000	56.962871 
4330.000000	56.960654 
4329.000000	56.947851 
4328.000000	56.926941 
4327.000000	56.901407 
4326.000000	56.875824 
4325.000000	56.854462 
4324.000000	56.840991 
4323.000000	56.837296 
4322.000000	56.843400 
4321.000000	56.857371 
4320.000000	56.875824 
4319.000000	56.894826 
4318.000000	56.910896 
4317.000000	56.921839 
4316.000000	56.926965 
4315.000000	56.926918 
4314.000000	56.923389 
4313.000000	56.917858 
4312.000000	56.911110 
4311.000000	56.902909 
4310.000000	56.892013 
4309.000000	56.876444 
4308.000000	56.854200 
4307.000000	56.823873 
4306.000000	56.785297 
4305.000000	56.739401 
4304.000000	56.688451 
4303.000000	56.635260 
4302.000000	56.583142 
4301.000000	56.535482 
4300.000000	56.495761 
4299.000000	56.466889 
4298.000000	56.451463 
4297.000000	56.451129 
4296.000000	56.466555 
4295.000000	56.496906 
4294.000000	56.539821 
4293.000000	56.591129 
4292.000000	56.645774 
4291.000000	56.698226 
4290.000000	56.744098 
4289.000000	56.780433 
4288.000000	56.806564 
4287.000000	56.823873 
4286.000000	56.834959 
4285.000000	56.842589 
4284.000000	56.848621 
4283.000000	56.853485 
4282.000000	56.856322 
4281.000000	56.855607 
4280.000000	56.850147 
4279.000000	56.839752 
4278.000000	56.825804 
4277.000000	56.810998 
4276.000000	56.798648 
4275.000000	56.791853 
4274.000000	56.792378 
4273.000000	56.800556 
4272.000000	56.814765 
4271.000000	56.832647 
4270.000000	56.851506 
4269.000000	56.869769 
4268.000000	56.887149 
4267.000000	56.904697 
4266.000000	56.924223 
4265.000000	56.947374 
4264.000000	56.974792 
4263.000000	57.005715 
4262.000000	57.038235 
4261.000000	57.069158 
4260.000000	57.095170 
4259.000000	57.112646 
4258.000000	57.118916 
4257.000000	57.111763 
4256.000000	57.090210 
4255.000000	57.054400 
4254.000000	57.005834 
4253.000000	56.947398 
4252.000000	56.883025 
4251.000000	56.817293 
4250.000000	56.754875 
4249.000000	56.699800 
4248.000000	56.654834 
4247.000000	56.621146 
4246.000000	56.598281 
4245.000000	56.584048 
4244.000000	56.575536 
4243.000000	56.569337 
4242.000000	56.562900 
4241.000000	56.554341 
4240.000000	56.543636 
4239.000000	56.532049 
4238.000000	56.522178 
4237.000000	56.516480 
4236.000000	56.517243 
4235.000000	56.525659 
4234.000000	56.541562 
4233.000000	56.563377 
4232.000000	56.588649 
4231.000000	56.614589 
4230.000000	56.638669 
4229.000000	56.658816 
4228.000000	56.673908 
4227.000000	56.683707 
4226.000000	56.688666 
4225.000000	56.689620 
4224.000000	56.687259 
4223.000000	56.682038 
4222.000000	56.674647 
4221.000000	56.665563 
4220.000000	56.655454 
4219.000000	56.644654 
4218.000000	56.634068 
4217.000000	56.624245 
4216.000000	56.614923 
4215.000000	56.605482 
4214.000000	56.594824 
4213.000000	56.582212 
4212.000000	56.567668 
4211.000000	56.552124 
4210.000000	56.537771 
4209.000000	56.526708 
4208.000000	56.520652 
4207.000000	56.519770 
4206.000000	56.522178 
4205.000000	56.524467 
4204.000000	56.522393 
4203.000000	56.512260 
4202.000000	56.491804 
4201.000000	56.461477 
4200.000000	56.424522 
4199.000000	56.386256 
4198.000000	56.353044 
4197.000000	56.330776 
4196.000000	56.323480 
4195.000000	56.332588 
4194.000000	56.356620 
4193.000000	56.391930 
4192.000000	56.433463 
4191.000000	56.476116 
4190.000000	56.515550 
4189.000000	56.548213 
4188.000000	56.572127 
4187.000000	56.586146 
4186.000000	56.590342 
4185.000000	56.585383 
4184.000000	56.572389 
4183.000000	56.553578 
4182.000000	56.530833 
4181.000000	56.506013 
4180.000000	56.480145 
4179.000000	56.453609 
4178.000000	56.426358 
4177.000000	56.398081 
4176.000000	56.368803 
4175.000000	56.339144 
4174.000000	56.310725 
4173.000000	56.285858 
4172.000000	56.267619 
4171.000000	56.258845 
4170.000000	56.261658 
4169.000000	56.276869 
4168.000000	56.303381 
4167.000000	56.338429 
4166.000000	56.377458 
4165.000000	56.415247 
4164.000000	56.446719 
4163.000000	56.468343 
4162.000000	56.478381 
4161.000000	56.477689 
4160.000000	56.469178 
4159.000000	56.457233 
