PE IR       SPECTRUM    SPECTRUM    ASCII       PEDS        1.60        
  -1
BZABFF~1.ASC
17/04/10
09:19:46.00
17/04/10
09:19:46.00
tln
$BZ12041010-4_t0006$<tbV0>[5.2,-9.8,9.0,0.0,22,1,0]
370.000000
64









2002,4.07    
MIRTGS : RIGHTBACK : INTERNAL 2
MIR : ON : INTERNAL 2
OPTKBR

0.200000
8
8.000000
FILLER
RATIO
SPECTRUM
UNLOCKED 256

DOUBLE
64
COMBINED
1
0
0


1.000000
RATIO


1
0
TRUE
51149
0
LEFT NOT FITTED RIGHT NOT FITTED 0
NONE
NONE
15600
12.000000
4.427000
51148
TRUE
1 0 8 72 0 0 0 0 

15798.010000






#HDR
-1
-1
#GR
CM-1
%T
0.00002384185791015625
0.0
5000.000000
-1.000000
4631
8
105.741620
41.409254
#DATA
5000.000000	65.339732  
4999.000000	65.277767  
4998.000000	65.187454  
4997.000000	65.074300  
4996.000000	64.947128  
4995.000000	64.816904  
4994.000000	64.694404  
4993.000000	64.587998  
4992.000000	64.503002  
4991.000000	64.440822  
4990.000000	64.400506  
4989.000000	64.379620  
4988.000000	64.375901  
4987.000000	64.387702  
4986.000000	64.414548  
4985.000000	64.456176  
4984.000000	64.511680  
4983.000000	64.578175  
4982.000000	64.650249  
4981.000000	64.720368  
4980.000000	64.780449  
4979.000000	64.823412  
4978.000000	64.845514  
4977.000000	64.846587  
4976.000000	64.830827  
4975.000000	64.804291  
4974.000000	64.774155  
4973.000000	64.744973  
4972.000000	64.717698  
4971.000000	64.688277  
4970.000000	64.649510  
4969.000000	64.593386  
4968.000000	64.513921  
4967.000000	64.410901  
4966.000000	64.290547  
4965.000000	64.166855  
4964.000000	64.057755  
4963.000000	63.983249  
4962.000000	63.959574  
4961.000000	63.996410  
4960.000000	64.093542  
4959.000000	64.241170  
4958.000000	64.421367  
4957.000000	64.611959  
4956.000000	64.790701  
4955.000000	64.939260  
4954.000000	65.046405  
4953.000000	65.109300  
4952.000000	65.133094  
4951.000000	65.128707  
4950.000000	65.109157  
4949.000000	65.087175  
4948.000000	65.071320  
4947.000000	65.066528  
4946.000000	65.071868  
4945.000000	65.083169  
4944.000000	65.093350  
4943.000000	65.095996  
4942.000000	65.086007  
4941.000000	65.061116  
4940.000000	65.022253  
4939.000000	64.972853  
4938.000000	64.918160  
4937.000000	64.863944  
4936.000000	64.815068  
4935.000000	64.774537  
4934.000000	64.743137  
4933.000000	64.719843  
4932.000000	64.702105  
4931.000000	64.686632  
4930.000000	64.670133  
4929.000000	64.650583  
4928.000000	64.627146  
4927.000000	64.601016  
4926.000000	64.576077  
4925.000000	64.558506  
4924.000000	64.554595  
4923.000000	64.569854  
4922.000000	64.607930  
4921.000000	64.669489  
4920.000000	64.751076  
4919.000000	64.845609  
4918.000000	64.943742  
4917.000000	65.035223  
4916.000000	65.111374  
4915.000000	65.165090  
4914.000000	65.192556  
4913.000000	65.191864  
4912.000000	65.164303  
4911.000000	65.111637  
4910.000000	65.036296  
4909.000000	64.940690  
4908.000000	64.828157  
4907.000000	64.703106  
4906.000000	64.571905  
4905.000000	64.442801  
4904.000000	64.325666  
4903.000000	64.229750  
4902.000000	64.162254  
4901.000000	64.126038  
4900.000000	64.119148  
4899.000000	64.136147  
4898.000000	64.169383  
4897.000000	64.209842  
4896.000000	64.249372  
4895.000000	64.281845  
4894.000000	64.304542  
4893.000000	64.316463  
4892.000000	64.319419  
4891.000000	64.316391  
4890.000000	64.311647  
4889.000000	64.309573  
4888.000000	64.313960  
4887.000000	64.327383  
4886.000000	64.350676  
4885.000000	64.383912  
4884.000000	64.424848  
4883.000000	64.468550  
4882.000000	64.509534  
4881.000000	64.543557  
4880.000000	64.567351  
4879.000000	64.579200  
4878.000000	64.579415  
4877.000000	64.570283  
4876.000000	64.551877  
4875.000000	64.521431  
4874.000000	64.473032  
4873.000000	64.399313  
4872.000000	64.293575  
4871.000000	64.153146  
4870.000000	63.982200  
4869.000000	63.792181  
4868.000000	63.599705  
4867.000000	63.424253  
4866.000000	63.282775  
4865.000000	63.188457  
4864.000000	63.146257  
4863.000000	63.156485  
4862.000000	63.211703  
4861.000000	63.305640  
4860.000000	63.433122  
4859.000000	63.594913  
4858.000000	63.793468  
4857.000000	64.034056  
4856.000000	64.318990  
4855.000000	64.645266  
4854.000000	65.000343  
4853.000000	65.364718  
4852.000000	65.714526  
4851.000000	66.024279  
4850.000000	66.271924  
4849.000000	66.441750  
4848.000000	66.527438  
4847.000000	66.531610  
4846.000000	66.465425  
4845.000000	66.347122  
4844.000000	66.199040  
4843.000000	66.047072  
4842.000000	65.915012  
4841.000000	65.822815  
4840.000000	65.780925  
4839.000000	65.792655  
4838.000000	65.849614  
4837.000000	65.933322  
4836.000000	66.018652  
4835.000000	66.079616  
4834.000000	66.095042  
4833.000000	66.052842  
4832.000000	65.952610  
4831.000000	65.806436  
4830.000000	65.632963  
4829.000000	65.453743  
4828.000000	65.284180  
4827.000000	65.129733  
4826.000000	64.985418  
4825.000000	64.839863  
4824.000000	64.678525  
4823.000000	64.490294  
4822.000000	64.273238  
4821.000000	64.037919  
4820.000000	63.804292  
4819.000000	63.598752  
4818.000000	63.448143  
4817.000000	63.374924  
4816.000000	63.389515  
4815.000000	63.490700  
4814.000000	63.665461  
4813.000000	63.894343  
4812.000000	64.154458  
4811.000000	64.425635  
4810.000000	64.691853  
4809.000000	64.943480  
4808.000000	65.175223  
4807.000000	65.383958  
4806.000000	65.566325  
4805.000000	65.715622  
4804.000000	65.823936  
4803.000000	65.879893  
4802.000000	65.873694  
4801.000000	65.798592  
4800.000000	65.656399  
4799.000000	65.457820  
4798.000000	65.223455  
4797.000000	64.981555  
4796.000000	64.764380  
4795.000000	64.600682  
4794.000000	64.510202  
4793.000000	64.500141  
4792.000000	64.564013  
4791.000000	64.682507  
4790.000000	64.828062  
4789.000000	64.970755  
4788.000000	65.084815  
4787.000000	65.151524  
4786.000000	65.163660  
4785.000000	65.123724  
4784.000000	65.043830  
4783.000000	64.940905  
4782.000000	64.833331  
4781.000000	64.736461  
4780.000000	64.660191  
4779.000000	64.610385  
4778.000000	64.586496  
4777.000000	64.584040  
4776.000000	64.595413  
4775.000000	64.613127  
4774.000000	64.630651  
4773.000000	64.642858  
4772.000000	64.648079  
4771.000000	64.646959  
4770.000000	64.643287  
4769.000000	64.642143  
4768.000000	64.648461  
4767.000000	64.665317  
4766.000000	64.693903  
4765.000000	64.733338  
4764.000000	64.780640  
4763.000000	64.831590  
4762.000000	64.882302  
4761.000000	64.929604  
4760.000000	64.971637  
4759.000000	65.007066  
4758.000000	65.034770  
4757.000000	65.052747  
4756.000000	65.058970  
4755.000000	65.050888  
4754.000000	65.026426  
4753.000000	64.984560  
4752.000000	64.926433  
4751.000000	64.856123  
4750.000000	64.780855  
4749.000000	64.709663  
4748.000000	64.651131  
4747.000000	64.613342  
4746.000000	64.601969  
4745.000000	64.620494  
4744.000000	64.669346  
4743.000000	64.746427  
4742.000000	64.847302  
4741.000000	64.964771  
4740.000000	65.089273  
4739.000000	65.209007  
4738.000000	65.311145  
4737.000000	65.383315  
4736.000000	65.415692  
4735.000000	65.402722  
4734.000000	65.344262  
4733.000000	65.247249  
4732.000000	65.123724  
4731.000000	64.988946  
4730.000000	64.858365  
4729.000000	64.745950  
4728.000000	64.661598  
4727.000000	64.609551  
4726.000000	64.589786  
4725.000000	64.599227  
4724.000000	64.633703  
4723.000000	64.688587  
4722.000000	64.760708  
4721.000000	64.847517  
4720.000000	64.947032  
4719.000000	65.055561  
4718.000000	65.168380  
4717.000000	65.278816  
4716.000000	65.380024  
4715.000000	65.465807  
4714.000000	65.531921  
4713.000000	65.576314  
4712.000000	65.599560  
4711.000000	65.603399  
4710.000000	65.589380  
4709.000000	65.556979  
4708.000000	65.503716  
4707.000000	65.425181  
4706.000000	65.317678  
4705.000000	65.179538  
4704.000000	65.014624  
4703.000000	64.831519  
4702.000000	64.643001  
4701.000000	64.463186  
4700.000000	64.305806  
4699.000000	64.180374  
4698.000000	64.089369  
4697.000000	64.029097  
4696.000000	63.990449  
4695.000000	63.962554  
4694.000000	63.934683  
4693.000000	63.900756  
4692.000000	63.859486  
4691.000000	63.816332  
4690.000000	63.780713  
4689.000000	63.763427  
4688.000000	63.772225  
4687.000000	63.810253  
4686.000000	63.874316  
4685.000000	63.955187  
4684.000000	64.039993  
4683.000000	64.115118  
4682.000000	64.170074  
4681.000000	64.200282  
4680.000000	64.208936  
4679.000000	64.205145  
4678.000000	64.202690  
4677.000000	64.216709  
4676.000000	64.259791  
4675.000000	64.337992  
4674.000000	64.449763  
4673.000000	64.587092  
4672.000000	64.736747  
4671.000000	64.883923  
4670.000000	65.014791  
4669.000000	65.120291  
4668.000000	65.196180  
4667.000000	65.243387  
4666.000000	65.265941  
4665.000000	65.269374  
4664.000000	65.258193  
4663.000000	65.234875  
4662.000000	65.200281  
4661.000000	65.154886  
4660.000000	65.100789  
4659.000000	65.043163  
4658.000000	64.990615  
4657.000000	64.954447  
4656.000000	64.946460  
4655.000000	64.976668  
4654.000000	65.049481  
4653.000000	65.163207  
4652.000000	65.311074  
4651.000000	65.481853  
4650.000000	65.662240  
4649.000000	65.837478  
4648.000000	65.994620  
4647.000000	66.121363  
4646.000000	66.208338  
4645.000000	66.247820  
4644.000000	66.234993  
4643.000000	66.168093  
4642.000000	66.050171  
4641.000000	65.889286  
4640.000000	65.699672  
4639.000000	65.499854  
4638.000000	65.310955  
4637.000000	65.153479  
4636.000000	65.044593  
4635.000000	64.993810  
4634.000000	65.001416  
4633.000000	65.057826  
4632.000000	65.145754  
4631.000000	65.242624  
4630.000000	65.325331  
4629.000000	65.373802  
4628.000000	65.375375  
4627.000000	65.325260  
4626.000000	65.228462  
4625.000000	65.098190  
4624.000000	64.953851  
4623.000000	64.816784  
4622.000000	64.706730  
4621.000000	64.638590  
4620.000000	64.619326  
4619.000000	64.648127  
4618.000000	64.716219  
4617.000000	64.810466  
4616.000000	64.914846  
4615.000000	65.013456  
4614.000000	65.093159  
4613.000000	65.144658  
4612.000000	65.163993  
4611.000000	65.151476  
4610.000000	65.111780  
4609.000000	65.051817  
4608.000000	64.980459  
4607.000000	64.907360  
4606.000000	64.840245  
4605.000000	64.783859  
4604.000000	64.739847  
4603.000000	64.706897  
4602.000000	64.680099  
4601.000000	64.653158  
4600.000000	64.619541  
4599.000000	64.575481  
4598.000000	64.521074  
4597.000000	64.461636  
4596.000000	64.406085  
4595.000000	64.365530  
4594.000000	64.349627  
4593.000000	64.364337  
4592.000000	64.409804  
4591.000000	64.480042  
4590.000000	64.563798  
4589.000000	64.647364  
4588.000000	64.717960  
4587.000000	64.766550  
4586.000000	64.789414  
4585.000000	64.788961  
4584.000000	64.771962  
4583.000000	64.748239  
4582.000000	64.727735  
4581.000000	64.718699  
4580.000000	64.725875  
4579.000000	64.749979  
4578.000000	64.788079  
4577.000000	64.835190  
4576.000000	64.885759  
4575.000000	64.934825  
4574.000000	64.978933  
4573.000000	65.016436  
4572.000000	65.047454  
4571.000000	65.072584  
4570.000000	65.092849  
4569.000000	65.108585  
4568.000000	65.119910  
4567.000000	65.127515  
4566.000000	65.131974  
4565.000000	65.134620  
4564.000000	65.136146  
4563.000000	65.136694  
4562.000000	65.135908  
4561.000000	65.132403  
4560.000000	65.125584  
4559.000000	65.116167  
4558.000000	65.106821  
4557.000000	65.101909  
4556.000000	65.106439  
4555.000000	65.124678  
4554.000000	65.158200  
4553.000000	65.204691  
4552.000000	65.258812  
4551.000000	65.313339  
4550.000000	65.360951  
4549.000000	65.395951  
4548.000000	65.415430  
4547.000000	65.419030  
4546.000000	65.409231  
4545.000000	65.389251  
4544.000000	65.361261  
4543.000000	65.325284  
4542.000000	65.279507  
4541.000000	65.220904  
4540.000000	65.147233  
4539.000000	65.058612  
4538.000000	64.959287  
4537.000000	64.857101  
4536.000000	64.762210  
4535.000000	64.685153  
4534.000000	64.633798  
4533.000000	64.612364  
4532.000000	64.620542  
4531.000000	64.653253  
4530.000000	64.701604  
4529.000000	64.754080  
4528.000000	64.799022  
4527.000000	64.825654  
4526.000000	64.824914  
4525.000000	64.795780  
4524.000000	64.745879  
4523.000000	64.687657  
4522.000000	64.635944  
4521.000000	64.607286  
4520.000000	64.615964  
4519.000000	64.668941  
4518.000000	64.764761  
4517.000000	64.895081  
4516.000000	65.046072  
4515.000000	65.201783  
4514.000000	65.346813  
4513.000000	65.469551  
4512.000000	65.562653  
4511.000000	65.622925  
4510.000000	65.650677  
4509.000000	65.647649  
4508.000000	65.617012  
4507.000000	65.562820  
4506.000000	65.489792  
4505.000000	65.407919  
4504.000000	65.323686  
4503.000000	65.243840  
4502.000000	65.163254  
4501.000000	65.069675  
4500.000000	64.933276  
4499.000000	64.714050  
4498.000000	64.371967  
4497.000000	63.879179  
4496.000000	63.235545  
4495.000000	62.474942  
4494.000000	61.650252  
4493.000000	60.828566  
4492.000000	60.088348  
4491.000000	59.503483  
4490.000000	59.122729  
4489.000000	58.963227  
4488.000000	59.011602  
4487.000000	59.224820  
4486.000000	59.535169  
4485.000000	59.868550  
4484.000000	60.149574  
4483.000000	60.326218  
4482.000000	60.378813  
4481.000000	60.316538  
4480.000000	60.175204  
4479.000000	59.988760  
4478.000000	59.781742  
4477.000000	59.542894  
4476.000000	59.228467  
4475.000000	58.772301  
4474.000000	58.108472  
4473.000000	57.212615  
4472.000000	56.122279  
4471.000000	54.972982  
4470.000000	53.983402  
4469.000000	53.430199  
4468.000000	53.585791  
4467.000000	54.657959  
4466.000000	56.724476  
4465.000000	59.699130  
4464.000000	63.325858  
4463.000000	67.217898  
4462.000000	70.923662  
4461.000000	74.018478  
4460.000000	76.179003  
4459.000000	77.240920  
4458.000000	77.215743  
4457.000000	76.281857  
4456.000000	74.719953  
4455.000000	72.856473  
4454.000000	70.981025  
4453.000000	69.321465  
4452.000000	67.990136  
4451.000000	67.018103  
4450.000000	66.351628  
4449.000000	65.917992  
4448.000000	65.632605  
4447.000000	65.436291  
4446.000000	65.295338  
4445.000000	65.197873  
4444.000000	65.148782  
4443.000000	65.152525  
4442.000000	65.208625  
4441.000000	65.303707  
4440.000000	65.419745  
4439.000000	65.535593  
4438.000000	65.634775  
4437.000000	65.706276  
4436.000000	65.747046  
4435.000000	65.759301  
4434.000000	65.740108  
4433.000000	65.686130  
4432.000000	65.601754  
4431.000000	65.494680  
4430.000000	65.369725  
4429.000000	65.234780  
4428.000000	65.108728  
4427.000000	65.009546  
4426.000000	64.948177  
4425.000000	64.928841  
4424.000000	64.944815  
4423.000000	64.986109  
4422.000000	65.045762  
4421.000000	65.115714  
4420.000000	65.185832  
4419.000000	65.251088  
4418.000000	65.311694  
4417.000000	65.370059  
4416.000000	65.428304  
4415.000000	65.487694  
4414.000000	65.546464  
4413.000000	65.599226  
4412.000000	65.637278  
4411.000000	65.651869  
4410.000000	65.635633  
4409.000000	65.585637  
4408.000000	65.503740  
4407.000000	65.397381  
4406.000000	65.277600  
4405.000000	65.156912  
4404.000000	65.047073  
4403.000000	64.956903  
4402.000000	64.891099  
4401.000000	64.850354  
4400.000000	64.831972  
4399.000000	64.831662  
4398.000000	64.844393  
4397.000000	64.865469  
4396.000000	64.891147  
4395.000000	64.918112  
4394.000000	64.943504  
4393.000000	64.963960  
4392.000000	64.976239  
4391.000000	64.977073  
4390.000000	64.964675  
4389.000000	64.939403  
4388.000000	64.903831  
4387.000000	64.862728  
4386.000000	64.821910  
4385.000000	64.787435  
4384.000000	64.763998  
4383.000000	64.754557  
4382.000000	64.760327  
4381.000000	64.780735  
4380.000000	64.814519  
4379.000000	64.859342  
4378.000000	64.911937  
4377.000000	64.968061  
4376.000000	65.022826  
4375.000000	65.070796  
4374.000000	65.106344  
4373.000000	65.124893  
4372.000000	65.124368  
4371.000000	65.104985  
4370.000000	65.069174  
4369.000000	65.021228  
4368.000000	64.966964  
4367.000000	64.912009  
4366.000000	64.861297  
4365.000000	64.818072  
4364.000000	64.784002  
4363.000000	64.759159  
4362.000000	64.742660  
4361.000000	64.733147  
4360.000000	64.729595  
4359.000000	64.731478  
4358.000000	64.739012  
4357.000000	64.752006  
4356.000000	64.770102  
4355.000000	64.792418  
4354.000000	64.817786  
4353.000000	64.844465  
4352.000000	64.870834  
4351.000000	64.895868  
4350.000000	64.919352  
4349.000000	64.941835  
4348.000000	64.964485  
4347.000000	64.988493  
4346.000000	65.014505  
4345.000000	65.042233  
4344.000000	65.070056  
4343.000000	65.095496  
4342.000000	65.115690  
4341.000000	65.128540  
4340.000000	65.133523  
4339.000000	65.131902  
4338.000000	65.126872  
4337.000000	65.122628  
4336.000000	65.122580  
4335.000000	65.128135  
4334.000000	65.137696  
4333.000000	65.146732  
4332.000000	65.148186  
4331.000000	65.134239  
4330.000000	65.098595  
4329.000000	65.038323  
4328.000000	64.954948  
4327.000000	64.854812  
4326.000000	64.747786  
4325.000000	64.645671  
4324.000000	64.559698  
4323.000000	64.498662  
4322.000000	64.466714  
4321.000000	64.463734  
4320.000000	64.485907  
4319.000000	64.527082  
4318.000000	64.579582  
4317.000000	64.636611  
4316.000000	64.692783  
4315.000000	64.744758  
4314.000000	64.790296  
4313.000000	64.828491  
4312.000000	64.858651  
4311.000000	64.880323  
4310.000000	64.893007  
4309.000000	64.896559  
4308.000000	64.891386  
4307.000000	64.879155  
4306.000000	64.862751  
4305.000000	64.846014  
4304.000000	64.833164  
4303.000000	64.828300  
4302.000000	64.834332  
4301.000000	64.852237  
4300.000000	64.880585  
4299.000000	64.915919  
4298.000000	64.952731  
4297.000000	64.984631  
4296.000000	65.005207  
4295.000000	65.009427  
4294.000000	64.994454  
4293.000000	64.959573  
4292.000000	64.907169  
4291.000000	64.842367  
4290.000000	64.772319  
4289.000000	64.705276  
4288.000000	64.649176  
4287.000000	64.610457  
4286.000000	64.592957  
4285.000000	64.597225  
4284.000000	64.620709  
4283.000000	64.658164  
4282.000000	64.703440  
4281.000000	64.750599  
4280.000000	64.795351  
4279.000000	64.835453  
4278.000000	64.870595  
4277.000000	64.901566  
4276.000000	64.929366  
4275.000000	64.953899  
4274.000000	64.973664  
4273.000000	64.985704  
4272.000000	64.986777  
4271.000000	64.974331  
4270.000000	64.948225  
4269.000000	64.910745  
4268.000000	64.867377  
4267.000000	64.824843  
4266.000000	64.790034  
4265.000000	64.768099  
4264.000000	64.760923  
4263.000000	64.767289  
4262.000000	64.783430  
4261.000000	64.804363  
4260.000000	64.825510  
4259.000000	64.843678  
4258.000000	64.857602  
4257.000000	64.868187  
4256.000000	64.877748  
4255.000000	64.889025  
4254.000000	64.904046  
4253.000000	64.923739  
4252.000000	64.947414  
4251.000000	64.973020  
4250.000000	64.997506  
4249.000000	65.017628  
4248.000000	65.030741  
4247.000000	65.035724  
4246.000000	65.033030  
4245.000000	65.024256  
4244.000000	65.012121  
4243.000000	64.999604  
4242.000000	64.989185  
4241.000000	64.982676  
4240.000000	64.980125  
4239.000000	64.980435  
4238.000000	64.981389  
4237.000000	64.980268  
4236.000000	64.975070  
4235.000000	64.965105  
4234.000000	64.951491  
4233.000000	64.936923  
4232.000000	64.924931  
4231.000000	64.918732  
4230.000000	64.920425  
4229.000000	64.930486  
4228.000000	64.947986  
4227.000000	64.971065  
4226.000000	64.997458  
4225.000000	65.024900  
4224.000000	65.051054  
4223.000000	65.073609  
4222.000000	65.090370  
4221.000000	65.099358  
4220.000000	65.099287  
4219.000000	65.089535  
4218.000000	65.070962  
4217.000000	65.045380  
4216.000000	65.015983  
4215.000000	64.985704  
4214.000000	64.957523  
4213.000000	64.932560  
4212.000000	64.910507  
4211.000000	64.889597  
4210.000000	64.867091  
4209.000000	64.841270  
4208.000000	64.811897  
4207.000000	64.780974  
4206.000000	64.752554  
4205.000000	64.731502  
4204.000000	64.721870  
4203.000000	64.725899  
4202.000000	64.743041  
4201.000000	64.770865  
4200.000000	64.805746  
4199.000000	64.844465  
4198.000000	64.885044  
4197.000000	64.927291  
4196.000000	64.972257  
4195.000000	65.020918  
4194.000000	65.073108  
