PE IR       SPECTRUM    SPECTRUM    ASCII       PEDS        1.60        
  -1
BZABF1~1.ASC
17/04/10
09:00:58.00
17/04/10
09:00:58.00
tln
$BZ12041010-4_t0002$<tbV0>[2.6,-12.4,9.0,0.0,22,1,0]
370.000000
64









2002,4.07    
MIRTGS : RIGHTBACK : INTERNAL 2
MIR : ON : INTERNAL 2
OPTKBR

0.200000
8
8.000000
FILLER
RATIO
SPECTRUM
UNLOCKED 256

DOUBLE
64
COMBINED
1
0
0


1.000000
RATIO


1
0
TRUE
51149
0
LEFT NOT FITTED RIGHT NOT FITTED 0
NONE
NONE
15600
12.000000
4.427000
51148
TRUE
1 0 8 72 0 0 0 0 

15798.010000






#HDR
-1
-1
#GR
CM-1
%T
0.00002384185791015625
0.0
5000.000000
-1.000000
4631
8
84.614062
53.979706
#DATA
5000.000000	64.907932 
4999.000000	64.923715 
4998.000000	64.930963 
4997.000000	64.928746 
4996.000000	64.917254 
4995.000000	64.898729 
4994.000000	64.875316 
4993.000000	64.849138 
4992.000000	64.820551 
4991.000000	64.788484 
4990.000000	64.750647 
4989.000000	64.704895 
4988.000000	64.650225 
4987.000000	64.587903 
4986.000000	64.521980 
4985.000000	64.458942 
4984.000000	64.406490 
4983.000000	64.371681 
4982.000000	64.359712 
4981.000000	64.372777 
4980.000000	64.410042 
4979.000000	64.468121 
4978.000000	64.541792 
4977.000000	64.624881 
4976.000000	64.711833 
4975.000000	64.797210 
4974.000000	64.875745 
4973.000000	64.941954 
4972.000000	64.990472 
4971.000000	65.016436 
4970.000000	65.015864 
4969.000000	64.987373 
4968.000000	64.933037 
4967.000000	64.858889 
4966.000000	64.774703 
4965.000000	64.692354 
4964.000000	64.624094 
4963.000000	64.580321 
4962.000000	64.567542 
4961.000000	64.587903 
4960.000000	64.638924 
4959.000000	64.714741 
4958.000000	64.807415 
4957.000000	64.908218 
4956.000000	65.008831 
4955.000000	65.101909 
4954.000000	65.181231 
4953.000000	65.241074 
4952.000000	65.276312 
4951.000000	65.282988 
4950.000000	65.258789 
4949.000000	65.203690 
4948.000000	65.120458 
4947.000000	65.015816 
4946.000000	64.898991 
4945.000000	64.781165 
4944.000000	64.673042 
4943.000000	64.583420 
4942.000000	64.517784 
4941.000000	64.477658 
4940.000000	64.460873 
4939.000000	64.462137 
4938.000000	64.474463 
4937.000000	64.490723 
4936.000000	64.504861 
4935.000000	64.512181 
4934.000000	64.510536 
4933.000000	64.499592 
4932.000000	64.480996 
4931.000000	64.457249 
4930.000000	64.431953 
4929.000000	64.408993 
4928.000000	64.392280 
4927.000000	64.385223 
4926.000000	64.390563 
4925.000000	64.410090 
4924.000000	64.443922 
4923.000000	64.490890 
4922.000000	64.548611 
4921.000000	64.614057 
4920.000000	64.683818 
4919.000000	64.754366 
4918.000000	64.821958 
4917.000000	64.883041 
4916.000000	64.934968 
4915.000000	64.975690 
4914.000000	65.003895 
4913.000000	65.018892 
4912.000000	65.021920 
4911.000000	65.014028 
4910.000000	64.996647 
4909.000000	64.970326 
4908.000000	64.935779 
4907.000000	64.893388 
4906.000000	64.844179 
4905.000000	64.789891 
4904.000000	64.733266 
4903.000000	64.678263 
4902.000000	64.629554 
4901.000000	64.591670 
4900.000000	64.568305 
4899.000000	64.561176 
4898.000000	64.570021 
4897.000000	64.592003 
4896.000000	64.623117 
4895.000000	64.658904 
4894.000000	64.696192 
4893.000000	64.732742 
4892.000000	64.768528 
4891.000000	64.805126 
4890.000000	64.845013 
4889.000000	64.889883 
4888.000000	64.940261 
4887.000000	64.995789 
4886.000000	65.053582 
4885.000000	65.109491 
4884.000000	65.157103 
4883.000000	65.190005 
4882.000000	65.201735 
4881.000000	65.187597 
4880.000000	65.146207 
4879.000000	65.080189 
4878.000000	64.996647 
4877.000000	64.906191 
4876.000000	64.821219 
4875.000000	64.753651 
4874.000000	64.712548 
4873.000000	64.702129 
4872.000000	64.720916 
4871.000000	64.762115 
4870.000000	64.815187 
4869.000000	64.868545 
4868.000000	64.911794 
4867.000000	64.937686 
4866.000000	64.943194 
4865.000000	64.929032 
4864.000000	64.898252 
4863.000000	64.854860 
4862.000000	64.802169 
4861.000000	64.742636 
4860.000000	64.677739 
4859.000000	64.608812 
4858.000000	64.538908 
4857.000000	64.471840 
4856.000000	64.412379 
4855.000000	64.364933 
4854.000000	64.332771 
4853.000000	64.316773 
4852.000000	64.314889 
4851.000000	64.322519 
4850.000000	64.333343 
4849.000000	64.341330 
4848.000000	64.342117 
4847.000000	64.334201 
4846.000000	64.319372 
4845.000000	64.302039 
4844.000000	64.287948 
4843.000000	64.281773 
4842.000000	64.286327 
4841.000000	64.301538 
4840.000000	64.325094 
4839.000000	64.351963 
4838.000000	64.377403 
4837.000000	64.398503 
4836.000000	64.416384 
4835.000000	64.434862 
4834.000000	64.461493 
4833.000000	64.504575 
4832.000000	64.571738 
4831.000000	64.667463 
4830.000000	64.790678 
4829.000000	64.934206 
4828.000000	65.085148 
4827.000000	65.227818 
4826.000000	65.346384 
4825.000000	65.428471 
4824.000000	65.467476 
4823.000000	65.464091 
4822.000000	65.425205 
4821.000000	65.361690 
4820.000000	65.285754 
4819.000000	65.207195 
4818.000000	65.130877 
4817.000000	65.055203 
4816.000000	64.973735 
4815.000000	64.877152 
4814.000000	64.755964 
4813.000000	64.604949 
4812.000000	64.425039 
4811.000000	64.226245 
4810.000000	64.024972 
4809.000000	63.843631 
4808.000000	63.704776 
4807.000000	63.627648 
4806.000000	63.622403 
4805.000000	63.688421 
4804.000000	63.813805 
4803.000000	63.977026 
4802.000000	64.150786 
4801.000000	64.307141 
4800.000000	64.421701 
4799.000000	64.479660 
4798.000000	64.477467 
4797.000000	64.422678 
4796.000000	64.330458 
4795.000000	64.221143 
4794.000000	64.115166 
4793.000000	64.029455 
4792.000000	63.974571 
4791.000000	63.954806 
4790.000000	63.968491 
4789.000000	64.010047 
4788.000000	64.072012 
4787.000000	64.145183 
4786.000000	64.222455 
4785.000000	64.297485 
4784.000000	64.369440 
4783.000000	64.440584 
4782.000000	64.518046 
4781.000000	64.612221 
4780.000000	64.732360 
4779.000000	64.884161 
4778.000000	65.064620 
4777.000000	65.264129 
4776.000000	65.462136 
4775.000000	65.631294 
4774.000000	65.742540 
4773.000000	65.773248 
4772.000000	65.711832 
4771.000000	65.561938 
4770.000000	65.342688 
4769.000000	65.085840 
4768.000000	64.827919 
4767.000000	64.603114 
4766.000000	64.435219 
4765.000000	64.333748 
4764.000000	64.295554 
4763.000000	64.307355 
4762.000000	64.350390 
4761.000000	64.406442 
4760.000000	64.461922 
4759.000000	64.511060 
4758.000000	64.551305 
4757.000000	64.586019 
4756.000000	64.618706 
4755.000000	64.655041 
4754.000000	64.697647 
4753.000000	64.750051 
4752.000000	64.815449 
4751.000000	64.898705 
4750.000000	65.005683 
4749.000000	65.142297 
4748.000000	65.312480 
4747.000000	65.516233 
4746.000000	65.748095 
4745.000000	65.997171 
4744.000000	66.248488 
4743.000000	66.483950 
4742.000000	66.685724 
4741.000000	66.835522 
4740.000000	66.917228 
4739.000000	66.917872 
4738.000000	66.829323 
4737.000000	66.647982 
4736.000000	66.376590 
4735.000000	66.026544 
4734.000000	65.617895 
4733.000000	65.178918 
4732.000000	64.743590 
4731.000000	64.346742 
4730.000000	64.020824 
4729.000000	63.791537 
4728.000000	63.675141 
4727.000000	63.672232 
4726.000000	63.772845 
4725.000000	63.956570 
4724.000000	64.198327 
4723.000000	64.468669 
4722.000000	64.741444 
4721.000000	64.994001 
4720.000000	65.210962 
4719.000000	65.381646 
4718.000000	65.503048 
4717.000000	65.576958 
4716.000000	65.610814 
4715.000000	65.615153 
4714.000000	65.603208 
4713.000000	65.588140 
4712.000000	65.580916 
4711.000000	65.587425 
4710.000000	65.606522 
4709.000000	65.628957 
4708.000000	65.639519 
4707.000000	65.619301 
4706.000000	65.550065 
4705.000000	65.418457 
4704.000000	65.222048 
4703.000000	64.969086 
4702.000000	64.675927 
4701.000000	64.365339 
4700.000000	64.062786 
4699.000000	63.791942 
4698.000000	63.568735 
4697.000000	63.402557 
4696.000000	63.295149 
4695.000000	63.244080 
4694.000000	63.243961 
4693.000000	63.289499 
4692.000000	63.374257 
4691.000000	63.492989 
4690.000000	63.639879 
4689.000000	63.806653 
4688.000000	63.980197 
4687.000000	64.145636 
4686.000000	64.287495 
4685.000000	64.392614 
4684.000000	64.452934 
4683.000000	64.466667 
4682.000000	64.439392 
4681.000000	64.383625 
4680.000000	64.316916 
4679.000000	64.257955 
4678.000000	64.223384 
4677.000000	64.226365 
4676.000000	64.273405 
4675.000000	64.363741 
4674.000000	64.489817 
4673.000000	64.639973 
4672.000000	64.799594 
4671.000000	64.953660 
4670.000000	65.088510 
4669.000000	65.194630 
4668.000000	65.265560 
4667.000000	65.297842 
4666.000000	65.290474 
4665.000000	65.245699 
4664.000000	65.166950 
4663.000000	65.059089 
4662.000000	64.929294 
4661.000000	64.787387 
4660.000000	64.647150 
4659.000000	64.525604 
4658.000000	64.440584 
4657.000000	64.407753 
4656.000000	64.437484 
4655.000000	64.532256 
4654.000000	64.683485 
4653.000000	64.873409 
4652.000000	65.079092 
4651.000000	65.276455 
4650.000000	65.444874 
4649.000000	65.570497 
4648.000000	65.647697 
4647.000000	65.678405 
4646.000000	65.670204 
4645.000000	65.632700 
4644.000000	65.575814 
4643.000000	65.506792 
4642.000000	65.430903 
4641.000000	65.351152 
4640.000000	65.271544 
4639.000000	65.195870 
4638.000000	65.129685 
4637.000000	65.078520 
4636.000000	65.047621 
4635.000000	65.039110 
4634.000000	65.050768 
4633.000000	65.076208 
4632.000000	65.105485 
4631.000000	65.127682 
4630.000000	65.133166 
4629.000000	65.115189 
4628.000000	65.071511 
4627.000000	65.004944 
4626.000000	64.922857 
4625.000000	64.835166 
4624.000000	64.752531 
4623.000000	64.684391 
4622.000000	64.636707 
4621.000000	64.612102 
4620.000000	64.608454 
4619.000000	64.619970 
4618.000000	64.638233 
4617.000000	64.655065 
4616.000000	64.663147 
4615.000000	64.657211 
4614.000000	64.634728 
4613.000000	64.595174 
4612.000000	64.540529 
4611.000000	64.474391 
4610.000000	64.401626 
4609.000000	64.327406 
4608.000000	64.257526 
4607.000000	64.197897 
4606.000000	64.154028 
4605.000000	64.130449 
4604.000000	64.130187 
4603.000000	64.154434 
4602.000000	64.202332 
4601.000000	64.270997 
4600.000000	64.355134 
4599.000000	64.447784 
4598.000000	64.540958 
4597.000000	64.626646 
4596.000000	64.697551 
4595.000000	64.748239 
4594.000000	64.775037 
4593.000000	64.777398 
4592.000000	64.758586 
4591.000000	64.724755 
4590.000000	64.683699 
4589.000000	64.643764 
4588.000000	64.613676 
4587.000000	64.599418 
4586.000000	64.603519 
4585.000000	64.624691 
4584.000000	64.658617 
4583.000000	64.698910 
4582.000000	64.738941 
4581.000000	64.773273 
4580.000000	64.798808 
4579.000000	64.814209 
4578.000000	64.819431 
4577.000000	64.814686 
4576.000000	64.799618 
4575.000000	64.772605 
4574.000000	64.731550 
4573.000000	64.674687 
4572.000000	64.602661 
4571.000000	64.519643 
4570.000000	64.434123 
4569.000000	64.357376 
4568.000000	64.302730 
4567.000000	64.283061 
4566.000000	64.308547 
4565.000000	64.382386 
4564.000000	64.501571 
4563.000000	64.656877 
4562.000000	64.834666 
4561.000000	65.018415 
4560.000000	65.192270 
4559.000000	65.343046 
4558.000000	65.462064 
4557.000000	65.545606 
4556.000000	65.594410 
4555.000000	65.612196 
4554.000000	65.604686 
4553.000000	65.578508 
4552.000000	65.539813 
4551.000000	65.493798 
4550.000000	65.444993 
4549.000000	65.397381 
4548.000000	65.354657 
4547.000000	65.319561 
4546.000000	65.294337 
4545.000000	65.279245 
4544.000000	65.271687 
4543.000000	65.265917 
4542.000000	65.254330 
4541.000000	65.228462 
4540.000000	65.180754 
4539.000000	65.106725 
4538.000000	65.006494 
4537.000000	64.885139 
4536.000000	64.751458 
4535.000000	64.617443 
4534.000000	64.495515 
4533.000000	64.397382 
4532.000000	64.331412 
4531.000000	64.302015 
4530.000000	64.307761 
4529.000000	64.344692 
4528.000000	64.408016 
4527.000000	64.490532 
4526.000000	64.582705 
4525.000000	64.676403 
4524.000000	64.766073 
4523.000000	64.845657 
4522.000000	64.909338 
4521.000000	64.957213 
4520.000000	64.994001 
4519.000000	65.027809 
4518.000000	65.066647 
4517.000000	65.116620 
4516.000000	65.179157 
4515.000000	65.246510 
4514.000000	65.307664 
4513.000000	65.353631 
4512.000000	65.380287 
4511.000000	65.395307 
4510.000000	65.411233 
4509.000000	65.437889 
4508.000000	65.481829 
4507.000000	65.548610 
4506.000000	65.633320 
4505.000000	65.722060 
4504.000000	65.791416 
4503.000000	65.821194 
4502.000000	65.782451 
4501.000000	65.644407 
4500.000000	65.378355 
4499.000000	64.967203 
4498.000000	64.404129 
4497.000000	63.697624 
4496.000000	62.879705 
4495.000000	62.002229 
4494.000000	61.132478 
4493.000000	60.337400 
4492.000000	59.666705 
4491.000000	59.142279 
4490.000000	58.746862 
4489.000000	58.442759 
4488.000000	58.163666 
4487.000000	57.868480 
4486.000000	57.551217 
4485.000000	57.272052 
4484.000000	57.133364 
4483.000000	57.270812 
4482.000000	57.806515 
4481.000000	58.815169 
4480.000000	60.279154 
4479.000000	62.094163 
4478.000000	64.073491 
4477.000000	66.002583 
4476.000000	67.679142 
4475.000000	68.976211 
4474.000000	69.867682 
4473.000000	70.430374 
4472.000000	70.815110 
4471.000000	71.184492 
4470.000000	71.657562 
4469.000000	72.269058 
4468.000000	72.954130 
4467.000000	73.573637 
4466.000000	73.949503 
4465.000000	73.938941 
4464.000000	73.464393 
4463.000000	72.535920 
4462.000000	71.246600 
4461.000000	69.745564 
4460.000000	68.206453 
4459.000000	66.784715 
4458.000000	65.594887 
4457.000000	64.700293 
4456.000000	64.108586 
4455.000000	63.790321 
4454.000000	63.688850 
4453.000000	63.738703 
4452.000000	63.881230 
4451.000000	64.067935 
4450.000000	64.267587 
4449.000000	64.448380 
4448.000000	64.595389 
4447.000000	64.699530 
4446.000000	64.760351 
4445.000000	64.778017 
4444.000000	64.761972 
4443.000000	64.727950 
4442.000000	64.688873 
4441.000000	64.652585 
4440.000000	64.623856 
4439.000000	64.604020 
4438.000000	64.593315 
4437.000000	64.591169 
4436.000000	64.596509 
4435.000000	64.608383 
4434.000000	64.624953 
4433.000000	64.645385 
4432.000000	64.668703 
4431.000000	64.695405 
4430.000000	64.729905 
4429.000000	64.776372 
4428.000000	64.832830 
4427.000000	64.895415 
4426.000000	64.961481 
4425.000000	65.027332 
4424.000000	65.086793 
4423.000000	65.135955 
4422.000000	65.174293 
4421.000000	65.204715 
4420.000000	65.232968 
4419.000000	65.265560 
4418.000000	65.307450 
4417.000000	65.360641 
4416.000000	65.423321 
4415.000000	65.488886 
4414.000000	65.547466 
4413.000000	65.588212 
4412.000000	65.602016 
4411.000000	65.584111 
4410.000000	65.535521 
4409.000000	65.463018 
4408.000000	65.377688 
4407.000000	65.292787 
4406.000000	65.220499 
4405.000000	65.169620 
4404.000000	65.143418 
4403.000000	65.139818 
4402.000000	65.151882 
4401.000000	65.170669 
4400.000000	65.187048 
4399.000000	65.193700 
4398.000000	65.187168 
4397.000000	65.168046 
4396.000000	65.140318 
4395.000000	65.109157 
4394.000000	65.079808 
4393.000000	65.055966 
4392.000000	65.038752 
4391.000000	65.026736 
4390.000000	65.017294 
4389.000000	65.008044 
4388.000000	64.997434 
4387.000000	64.985632 
4386.000000	64.974236 
4385.000000	64.965653 
4384.000000	64.961647 
4383.000000	64.963126 
4382.000000	64.969801 
4381.000000	64.979791 
4380.000000	64.990782 
4379.000000	64.999890 
4378.000000	65.004348 
4377.000000	65.001845 
4376.000000	64.991164 
4375.000000	64.972257 
4374.000000	64.945626 
4373.000000	64.913082 
4372.000000	64.877438 
4371.000000	64.842104 
4370.000000	64.810419 
4369.000000	64.785027 
4368.000000	64.767551 
4367.000000	64.757823 
4366.000000	64.754223 
4365.000000	64.753651 
4364.000000	64.752578 
4363.000000	64.747977 
4362.000000	64.738297 
4361.000000	64.724016 
4360.000000	64.707303 
4359.000000	64.691448 
4358.000000	64.679956 
4357.000000	64.674925 
4356.000000	64.676952 
4355.000000	64.684987 
4354.000000	64.697074 
4353.000000	64.710807 
4352.000000	64.724683 
4351.000000	64.738512 
4350.000000	64.753723 
4349.000000	64.772605 
4348.000000	64.797592 
4347.000000	64.830064 
4346.000000	64.869689 
4345.000000	64.914250 
4344.000000	64.959645 
4343.000000	65.000796 
4342.000000	65.032744 
4341.000000	65.052175 
4340.000000	65.057325 
4339.000000	65.048646 
4338.000000	65.028166 
4337.000000	64.999103 
4336.000000	64.965128 
4335.000000	64.929699 
4334.000000	64.895534 
4333.000000	64.864253 
4332.000000	64.836144 
4331.000000	64.810442 
4330.000000	64.785528 
4329.000000	64.759683 
4328.000000	64.731192 
4327.000000	64.699363 
4326.000000	64.664363 
4325.000000	64.628028 
4324.000000	64.592742 
4323.000000	64.562201 
4322.000000	64.539599 
4321.000000	64.528226 
4320.000000	64.530301 
4319.000000	64.547228 
4318.000000	64.578628 
4317.000000	64.622735 
4316.000000	64.676451 
4315.000000	64.735293 
4314.000000	64.794087 
4313.000000	64.847254 
4312.000000	64.889287 
4311.000000	64.915585 
4310.000000	64.922881 
4309.000000	64.910149 
4308.000000	64.878845 
4307.000000	64.833211 
4306.000000	64.779710 
4305.000000	64.726233 
4304.000000	64.680790 
4303.000000	64.650535 
4302.000000	64.640355 
4301.000000	64.652085 
4300.000000	64.684033 
4299.000000	64.731574 
4298.000000	64.787793 
4297.000000	64.844608 
4296.000000	64.894580 
4295.000000	64.931654 
4294.000000	64.953041 
4293.000000	64.958643 
4292.000000	64.951825 
4291.000000	64.938163 
4290.000000	64.924097 
4289.000000	64.915633 
4288.000000	64.916872 
4287.000000	64.929461 
4286.000000	64.952063 
4285.000000	64.981484 
4284.000000	65.012884 
4283.000000	65.041160 
4282.000000	65.061879 
4281.000000	65.072202 
4280.000000	65.070939 
4279.000000	65.058851 
4278.000000	65.037918 
4277.000000	65.011000 
4276.000000	64.981150 
4275.000000	64.950895 
4274.000000	64.921927 
4273.000000	64.895009 
4272.000000	64.870309 
4271.000000	64.847612 
4270.000000	64.826583 
4269.000000	64.807510 
4268.000000	64.791035 
4267.000000	64.778280 
4266.000000	64.770841 
4265.000000	64.769721 
4264.000000	64.774942 
4263.000000	64.784908 
4262.000000	64.796447 
4261.000000	64.805340 
4260.000000	64.806890 
4259.000000	64.797711 
4258.000000	64.776802 
4257.000000	64.746451 
4256.000000	64.711880 
4255.000000	64.680480 
4254.000000	64.660024 
4253.000000	64.656853 
4252.000000	64.673972 
4251.000000	64.710545 
4250.000000	64.761734 
4249.000000	64.819931 
4248.000000	64.876556 
4247.000000	64.923834 
4246.000000	64.956259 
4245.000000	64.971899 
4244.000000	64.972043 
4243.000000	64.960050 
4242.000000	64.940476 
4241.000000	64.917731 
4240.000000	64.894938 
4239.000000	64.873933 
4238.000000	64.854955 
4237.000000	64.838123 
4236.000000	64.822983 
4235.000000	64.809560 
4234.000000	64.797997 
4233.000000	64.788818 
4232.000000	64.782357 
4231.000000	64.778280 
4230.000000	64.775753 
4229.000000	64.773559 
4228.000000	64.770650 
4227.000000	64.766263 
4226.000000	64.760708 
4225.000000	64.755201 
4224.000000	64.751863 
4223.000000	64.752960 
4222.000000	64.760398 
4221.000000	64.774870 
4220.000000	64.795804 
4219.000000	64.821243 
4218.000000	64.847993 
4217.000000	64.872574 
4216.000000	64.892292 
4215.000000	64.905953 
4214.000000	64.913558 
4213.000000	64.916777 
4212.000000	64.918017 
4211.000000	64.920401 
4210.000000	64.926576 
4209.000000	64.938640 
4208.000000	64.957547 
4207.000000	64.983391 
4206.000000	65.015721 
4205.000000	65.053391 
4204.000000	65.094685 
4203.000000	65.137481 
4202.000000	65.179586 
4201.000000	65.218639 
4200.000000	65.252351 
4199.000000	65.278816 
4198.000000	65.296649 
4197.000000	65.305495 
4196.000000	65.305519 
4195.000000	65.297603 
4194.000000	65.282487 
4193.000000	65.260767 
4192.000000	65.232467 
4191.000000	65.197324 
4190.000000	65.155220 
4189.000000	65.106678 
4188.000000	65.053820 
4187.000000	64.999985 
4186.000000	64.950132 
4185.000000	64.909863 
4184.000000	64.884853 
4183.000000	64.878892 
4182.000000	64.894080 
4181.000000	64.929652 
4180.000000	64.982819 
4179.000000	65.048646 
4178.000000	65.121579 
4177.000000	65.196204 
4176.000000	65.267562 
4175.000000	65.331196 
4174.000000	65.383243 
4173.000000	65.420222 
4172.000000	65.438723 
4171.000000	65.435934 
4170.000000	65.410327 
4169.000000	65.362548 
4168.000000	65.296220 
4167.000000	65.217423 
4166.000000	65.134501 
4165.000000	65.056347 
4164.000000	64.991283 
4163.000000	64.945101 
4162.000000	64.920067 
4161.000000	64.914941 
4160.000000	64.925670 
4159.000000	64.946889 
