PE IR       SPECTRUM    SPECTRUM    ASCII       PEDS        1.60        
  -1
BZ6DA6~1.ASC
17/04/07
19:25:00.00
17/04/07
19:25:00.00
tln
$BZ1503107-1_t0075$<tbV0>[-7.8,2.6,8.0,0.0,27,1,0]
370.000000
64









2002,4.07    
MIRTGS : RIGHTBACK : INTERNAL 2
MIR : ON : INTERNAL 2
OPTKBR

0.200000
8
8.000000
FILLER
RATIO
SPECTRUM
UNLOCKED 256

DOUBLE
64
COMBINED
1
0
0


1.000000
RATIO


1
0
TRUE
51149
0
LEFT NOT FITTED RIGHT NOT FITTED 0
NONE
NONE
15600
12.000000
4.427000
51148
TRUE
1 0 8 72 0 0 0 0 

15798.010000






#HDR
-1
-1
#GR
CM-1
%T
0.00002384185791015625
0.0
5000.000000
-1.000000
4631
8
80.398893
48.991632
#DATA
5000.000000	64.680647 
4999.000000	64.803910 
4998.000000	64.868354 
4997.000000	64.871811 
4996.000000	64.823269 
4995.000000	64.741420 
4994.000000	64.649868 
4993.000000	64.572525 
4992.000000	64.527344 
4991.000000	64.523816 
4990.000000	64.560770 
4989.000000	64.629197 
4988.000000	64.713764 
4987.000000	64.797854 
4986.000000	64.867019 
4985.000000	64.912605 
4984.000000	64.930605 
4983.000000	64.921498 
4982.000000	64.888334 
4981.000000	64.835095 
4980.000000	64.766097 
4979.000000	64.685440 
4978.000000	64.598107 
4977.000000	64.509439 
4976.000000	64.425063 
4975.000000	64.349961 
4974.000000	64.287281 
4973.000000	64.238381 
4972.000000	64.202165 
4971.000000	64.176917 
4970.000000	64.159035 
4969.000000	64.146900 
4968.000000	64.140772 
4967.000000	64.143919 
4966.000000	64.160776 
4965.000000	64.196252 
4964.000000	64.253139 
4963.000000	64.330983 
4962.000000	64.424848 
4961.000000	64.525842 
4960.000000	64.622426 
4959.000000	64.702749 
4958.000000	64.757609 
4957.000000	64.781403 
4956.000000	64.773130 
4955.000000	64.735937 
4954.000000	64.676117 
4953.000000	64.601993 
4952.000000	64.522147 
4951.000000	64.444684 
4950.000000	64.375829 
4949.000000	64.319825 
4948.000000	64.278578 
4947.000000	64.252495 
4946.000000	64.240837 
4945.000000	64.241909 
4944.000000	64.254212 
4943.000000	64.275860 
4942.000000	64.305925 
4941.000000	64.343190 
4940.000000	64.387226 
4939.000000	64.437031 
4938.000000	64.491486 
4937.000000	64.548683 
4936.000000	64.605903 
4935.000000	64.659905 
4934.000000	64.707279 
4933.000000	64.745140 
4932.000000	64.771533 
4931.000000	64.785861 
4930.000000	64.789247 
4929.000000	64.784288 
4928.000000	64.774060 
4927.000000	64.761400 
4926.000000	64.748334 
4925.000000	64.735484 
4924.000000	64.722371 
4923.000000	64.707589 
4922.000000	64.689707 
4921.000000	64.667773 
4920.000000	64.642310 
4919.000000	64.615297 
4918.000000	64.588761 
4917.000000	64.565229 
4916.000000	64.546203 
4915.000000	64.532780 
4914.000000	64.525270 
4913.000000	64.523577 
4912.000000	64.527511 
4911.000000	64.537024 
4910.000000	64.552593 
4909.000000	64.574193 
4908.000000	64.601039 
4907.000000	64.630746 
4906.000000	64.659547 
4905.000000	64.682340 
4904.000000	64.693856 
4903.000000	64.689660 
4902.000000	64.667487 
4901.000000	64.628386 
4900.000000	64.576768 
4899.000000	64.519524 
4898.000000	64.464688 
4897.000000	64.419913 
4896.000000	64.391136 
4895.000000	64.381694 
4894.000000	64.391827 
4893.000000	64.419269 
4892.000000	64.459514 
4891.000000	64.506840 
4890.000000	64.555025 
4889.000000	64.598059 
4888.000000	64.631032 
4887.000000	64.650511 
4886.000000	64.654994 
4885.000000	64.644527 
4884.000000	64.620876 
4883.000000	64.587092 
4882.000000	64.547514 
4881.000000	64.507079 
4880.000000	64.471364 
4879.000000	64.446020 
4878.000000	64.436507 
4877.000000	64.447093 
4876.000000	64.480280 
4875.000000	64.536237 
4874.000000	64.612054 
4873.000000	64.702057 
4872.000000	64.798045 
4871.000000	64.890480 
4870.000000	64.969944 
4869.000000	65.028405 
4868.000000	65.060782 
4867.000000	65.065193 
4866.000000	65.044116 
4865.000000	65.002417 
4864.000000	64.946699 
4863.000000	64.883279 
4862.000000	64.817762 
4861.000000	64.753508 
4860.000000	64.692425 
4859.000000	64.634919 
4858.000000	64.581036 
4857.000000	64.531278 
4856.000000	64.486861 
4855.000000	64.450216 
4854.000000	64.424014 
4853.000000	64.411234 
4852.000000	64.413905 
4851.000000	64.432621 
4850.000000	64.465689 
4849.000000	64.509534 
4848.000000	64.558768 
4847.000000	64.607214 
4846.000000	64.648747 
4845.000000	64.678621 
4844.000000	64.694285 
4843.000000	64.695572 
4842.000000	64.684438 
4841.000000	64.664936 
4840.000000	64.641642 
4839.000000	64.618778 
4838.000000	64.599132 
4837.000000	64.584016 
4836.000000	64.572858 
4835.000000	64.564180 
4834.000000	64.556097 
4833.000000	64.547157 
4832.000000	64.537072 
4831.000000	64.527082 
4830.000000	64.519500 
4829.000000	64.516425 
4828.000000	64.519357 
4827.000000	64.528393 
4826.000000	64.541888 
4825.000000	64.556789 
4824.000000	64.569354 
4823.000000	64.576268 
4822.000000	64.575433 
4821.000000	64.566612 
4820.000000	64.551305 
4819.000000	64.532446 
4818.000000	64.513611 
4817.000000	64.498162 
4816.000000	64.488220 
4815.000000	64.483857 
4814.000000	64.483666 
4813.000000	64.485073 
4812.000000	64.485168 
4811.000000	64.481925 
4810.000000	64.474844 
4809.000000	64.465451 
4808.000000	64.456796 
4807.000000	64.452719 
4806.000000	64.455986 
4805.000000	64.467883 
4804.000000	64.487624 
4803.000000	64.512372 
4802.000000	64.537715 
4801.000000	64.559245 
4800.000000	64.573693 
4799.000000	64.579582 
4798.000000	64.577245 
4797.000000	64.568614 
4796.000000	64.556384 
4795.000000	64.543056 
4794.000000	64.530205 
4793.000000	64.518189 
4792.000000	64.506173 
4791.000000	64.492988 
4790.000000	64.477753 
4789.000000	64.460396 
4788.000000	64.441752 
4787.000000	64.423298 
4786.000000	64.407086 
4785.000000	64.394545 
4784.000000	64.386940 
4783.000000	64.384531 
4782.000000	64.387774 
4781.000000	64.396882 
4780.000000	64.412927 
4779.000000	64.437317 
4778.000000	64.471936 
4777.000000	64.518094 
4776.000000	64.576339 
4775.000000	64.645481 
4774.000000	64.722347 
4773.000000	64.802217 
4772.000000	64.878940 
4771.000000	64.946126 
4770.000000	64.997982 
4769.000000	65.030574 
4768.000000	65.042042 
4767.000000	65.032935 
4766.000000	65.005636 
4765.000000	64.963817 
4764.000000	64.911890 
4763.000000	64.854049 
4762.000000	64.794325 
4761.000000	64.736104 
4760.000000	64.682340 
4759.000000	64.635658 
4758.000000	64.598488 
4757.000000	64.572954 
4756.000000	64.560723 
4755.000000	64.562678 
4754.000000	64.578270 
4753.000000	64.605760 
4752.000000	64.641404 
4751.000000	64.680886 
4750.000000	64.718985 
4749.000000	64.751482 
4748.000000	64.775586 
4747.000000	64.790654 
4746.000000	64.797854 
4745.000000	64.799737 
4744.000000	64.799475 
4743.000000	64.799284 
4742.000000	64.799642 
4741.000000	64.799165 
4740.000000	64.795351 
4739.000000	64.784789 
4738.000000	64.764523 
4737.000000	64.733481 
4736.000000	64.693021 
4735.000000	64.647126 
4734.000000	64.601635 
4733.000000	64.562654 
4732.000000	64.535617 
4731.000000	64.524006 
4730.000000	64.529109 
4729.000000	64.549016 
4728.000000	64.580154 
4727.000000	64.617848 
4726.000000	64.657497 
4725.000000	64.695000 
4724.000000	64.727687 
4723.000000	64.754009 
4722.000000	64.773607 
4721.000000	64.786672 
4720.000000	64.793443 
4719.000000	64.793825 
4718.000000	64.786982 
4717.000000	64.771771 
4716.000000	64.746546 
4715.000000	64.710116 
4714.000000	64.662051 
4713.000000	64.603590 
4712.000000	64.537811 
4711.000000	64.469766 
4710.000000	64.406108 
4709.000000	64.354300 
4708.000000	64.321398 
4707.000000	64.312744 
4706.000000	64.330673 
4705.000000	64.374089 
4704.000000	64.438247 
4703.000000	64.515781 
4702.000000	64.597868 
4701.000000	64.675927 
4700.000000	64.743256 
4699.000000	64.795684 
4698.000000	64.831423 
4697.000000	64.850902 
4696.000000	64.856100 
4695.000000	64.849042 
4694.000000	64.831805 
4693.000000	64.805316 
4692.000000	64.770460 
4691.000000	64.727520 
4690.000000	64.677262 
4689.000000	64.621162 
4688.000000	64.562153 
4687.000000	64.504122 
4686.000000	64.451503 
4685.000000	64.408516 
4684.000000	64.378547 
4683.000000	64.363479 
4682.000000	64.363503 
4681.000000	64.376997 
4680.000000	64.401149 
4679.000000	64.432096 
4678.000000	64.466190 
4677.000000	64.500355 
4676.000000	64.532923 
4675.000000	64.563298 
4674.000000	64.592051 
4673.000000	64.620280 
4672.000000	64.648723 
4671.000000	64.677357 
4670.000000	64.705014 
4669.000000	64.729237 
4668.000000	64.747667 
4667.000000	64.758968 
4666.000000	64.763498 
4665.000000	64.763617 
4664.000000	64.763164 
4663.000000	64.766645 
4662.000000	64.777517 
4661.000000	64.797282 
4660.000000	64.824151 
4659.000000	64.853191 
4658.000000	64.877581 
4657.000000	64.890313 
4656.000000	64.885878 
4655.000000	64.862060 
4654.000000	64.821076 
4653.000000	64.769339 
4652.000000	64.716124 
4651.000000	64.671754 
4650.000000	64.645218 
4649.000000	64.642095 
4648.000000	64.663767 
4647.000000	64.706516 
4646.000000	64.763379 
4645.000000	64.824700 
4644.000000	64.880418 
4643.000000	64.921879 
4642.000000	64.942908 
4641.000000	64.941024 
4640.000000	64.917325 
4639.000000	64.876246 
4638.000000	64.823913 
4637.000000	64.767837 
4636.000000	64.715385 
4635.000000	64.673042 
4634.000000	64.645385 
4633.000000	64.635229 
4632.000000	64.643359 
4631.000000	64.668393 
4630.000000	64.707040 
4629.000000	64.754104 
4628.000000	64.803361 
4627.000000	64.848041 
4626.000000	64.882469 
4625.000000	64.902472 
4624.000000	64.907073 
4623.000000	64.898252 
4622.000000	64.881157 
4621.000000	64.862680 
4620.000000	64.850163 
4619.000000	64.849996 
4618.000000	64.865684 
4617.000000	64.897584 
4616.000000	64.941954 
4615.000000	64.992570 
4614.000000	65.041232 
4613.000000	65.080213 
4612.000000	65.102791 
4611.000000	65.104985 
4610.000000	65.085434 
4609.000000	65.045666 
4608.000000	64.989447 
4607.000000	64.922118 
4606.000000	64.849781 
4605.000000	64.778614 
4604.000000	64.714598 
4603.000000	64.663195 
4602.000000	64.629030 
4601.000000	64.615511 
4600.000000	64.624071 
4599.000000	64.654135 
4598.000000	64.702892 
4597.000000	64.765739 
4596.000000	64.835977 
4595.000000	64.906430 
4594.000000	64.970326 
4593.000000	65.022444 
4592.000000	65.059137 
4591.000000	65.078687 
4590.000000	65.081238 
4589.000000	65.068197 
4588.000000	65.041732 
4587.000000	65.004706 
4586.000000	64.960908 
4585.000000	64.914441 
4584.000000	64.870262 
4583.000000	64.833235 
4582.000000	64.807987 
4581.000000	64.797568 
4580.000000	64.802742 
4579.000000	64.821386 
4578.000000	64.848732 
4577.000000	64.877986 
4576.000000	64.901661 
4575.000000	64.913034 
4574.000000	64.907312 
4573.000000	64.883279 
4572.000000	64.842915 
4571.000000	64.790678 
4570.000000	64.732074 
4569.000000	64.672923 
4568.000000	64.617443 
4567.000000	64.568209 
4566.000000	64.525318 
4565.000000	64.487552 
4564.000000	64.452648 
4563.000000	64.418768 
4562.000000	64.384746 
4561.000000	64.349937 
4560.000000	64.314913 
4559.000000	64.280891 
4558.000000	64.249730 
4557.000000	64.222669 
4556.000000	64.200758 
4555.000000	64.184236 
4554.000000	64.173221 
4553.000000	64.167571 
4552.000000	64.167165 
4551.000000	64.171814 
4550.000000	64.181542 
4549.000000	64.196300 
4548.000000	64.215803 
4547.000000	64.239311 
4546.000000	64.265727 
4545.000000	64.293837 
4544.000000	64.322471 
4543.000000	64.350581 
4542.000000	64.377570 
4541.000000	64.402794 
4540.000000	64.425253 
4539.000000	64.443230 
4538.000000	64.455127 
4537.000000	64.458703 
4536.000000	64.451766 
4535.000000	64.432787 
4534.000000	64.401865 
4533.000000	64.360880 
4532.000000	64.313459 
4531.000000	64.264822 
4530.000000	64.220881 
4529.000000	64.187216 
4528.000000	64.167952 
4527.000000	64.165186 
4526.000000	64.178919 
4525.000000	64.207315 
4524.000000	64.247012 
4523.000000	64.294219 
4522.000000	64.345002 
4521.000000	64.395570 
4520.000000	64.442491 
4519.000000	64.482593 
4518.000000	64.513564 
4517.000000	64.533996 
4516.000000	64.543986 
4515.000000	64.545178 
4514.000000	64.540481 
4513.000000	64.533734 
4512.000000	64.528274 
4511.000000	64.526700 
4510.000000	64.529538 
4509.000000	64.535832 
4508.000000	64.542865 
4507.000000	64.546728 
4506.000000	64.544081 
4505.000000	64.533329 
4504.000000	64.515089 
4503.000000	64.491820 
4502.000000	64.468121 
4501.000000	64.449620 
4500.000000	64.441418 
4499.000000	64.446592 
4498.000000	64.465928 
4497.000000	64.497733 
4496.000000	64.538049 
4495.000000	64.581823 
4494.000000	64.624142 
4493.000000	64.661550 
4492.000000	64.692521 
4491.000000	64.717483 
4490.000000	64.738297 
4489.000000	64.757275 
4488.000000	64.776468 
4487.000000	64.796471 
4486.000000	64.817261 
4485.000000	64.836430 
4484.000000	64.851284 
4483.000000	64.856910 
4482.000000	64.848566 
4481.000000	64.820742 
4480.000000	64.768576 
4479.000000	64.688944 
4478.000000	64.582562 
4477.000000	64.453315 
4476.000000	64.308714 
4475.000000	64.157557 
4474.000000	64.008784 
4473.000000	63.869833 
4472.000000	63.745594 
4471.000000	63.639044 
4470.000000	63.551807 
4469.000000	63.485050 
4468.000000	63.440370 
4467.000000	63.419294 
4466.000000	63.423371 
4465.000000	63.453412 
4464.000000	63.509535 
4463.000000	63.585996 
4462.000000	63.673329 
4461.000000	63.767862 
4460.000000	63.865685 
4459.000000	63.954067 
4458.000000	64.018034 
4457.000000	64.049458 
4456.000000	64.041829 
4455.000000	63.993334 
4454.000000	63.904714 
4453.000000	63.773465 
4452.000000	63.603782 
4451.000000	63.411235 
4450.000000	63.217139 
4449.000000	63.046932 
4448.000000	62.922120 
4447.000000	62.854766 
4446.000000	62.846946 
4445.000000	62.890720 
4444.000000	62.970805 
4443.000000	63.068532 
4442.000000	63.168025 
4441.000000	63.264036 
4440.000000	63.344264 
4439.000000	63.412928 
4438.000000	63.472557 
4437.000000	63.563036 
4436.000000	63.785195 
4435.000000	64.283847 
4434.000000	65.242075 
4433.000000	66.791486 
4432.000000	68.970084 
4431.000000	71.654105 
4430.000000	74.553251 
4429.000000	77.255487 
4428.000000	79.327750 
4427.000000	80.398893 
4426.000000	80.275511 
4425.000000	78.964471 
4424.000000	76.669740 
4423.000000	73.762273 
4422.000000	70.680379 
4421.000000	67.893218 
4420.000000	65.815639 
4419.000000	64.748787 
4418.000000	64.846634 
4417.000000	66.053056 
4416.000000	68.126273 
4415.000000	70.659780 
4414.000000	73.173379 
4413.000000	75.219869 
4412.000000	76.476287 
4411.000000	76.805353 
4410.000000	76.261806 
4409.000000	75.037169 
4408.000000	73.402714 
4407.000000	71.615552 
4406.000000	69.877552 
4405.000000	68.328642 
4404.000000	67.024421 
4403.000000	65.998601 
4402.000000	65.236854 
4401.000000	64.720582 
4400.000000	64.414310 
4399.000000	64.259338 
4398.000000	64.200592 
4397.000000	64.181113 
4396.000000	64.161276 
4395.000000	64.106893 
4394.000000	64.009189 
4393.000000	63.873767 
4392.000000	63.724327 
4391.000000	63.591098 
4390.000000	63.501763 
4389.000000	63.470816 
4388.000000	63.505196 
4387.000000	63.602089 
4386.000000	63.746237 
4385.000000	63.915038 
4384.000000	64.083170 
4383.000000	64.228653 
4382.000000	64.341807 
4381.000000	64.423799 
4380.000000	64.476656 
4379.000000	64.505958 
4378.000000	64.517664 
4377.000000	64.517712 
4376.000000	64.516949 
4375.000000	64.523839 
4374.000000	64.539933 
4373.000000	64.563441 
4372.000000	64.595222 
4371.000000	64.633560 
4370.000000	64.673304 
4369.000000	64.709782 
4368.000000	64.741015 
4367.000000	64.766049 
4366.000000	64.784646 
4365.000000	64.797496 
4364.000000	64.805817 
4363.000000	64.810800 
4362.000000	64.813065 
4361.000000	64.812588 
4360.000000	64.808583 
4359.000000	64.800000 
4358.000000	64.785695 
4357.000000	64.765453 
4356.000000	64.739775 
4355.000000	64.710307 
4354.000000	64.679026 
4353.000000	64.647579 
4352.000000	64.617180 
4351.000000	64.588284 
4350.000000	64.560985 
4349.000000	64.534187 
4348.000000	64.507389 
4347.000000	64.480400 
4346.000000	64.455056 
4345.000000	64.433836 
4344.000000	64.421176 
4343.000000	64.422249 
4342.000000	64.441752 
4341.000000	64.482474 
4340.000000	64.543700 
4339.000000	64.620709 
4338.000000	64.704585 
4337.000000	64.783430 
4336.000000	64.844536 
4335.000000	64.876866 
4334.000000	64.873409 
4333.000000	64.832997 
4332.000000	64.760780 
4331.000000	64.667606 
4330.000000	64.567923 
4329.000000	64.477205 
4328.000000	64.409279 
4327.000000	64.373683 
4326.000000	64.374828 
4325.000000	64.410924 
4324.000000	64.475536 
4323.000000	64.558434 
4322.000000	64.647912 
4321.000000	64.732742 
4320.000000	64.802813 
4319.000000	64.851355 
4318.000000	64.874386 
4317.000000	64.872169 
4316.000000	64.848065 
4315.000000	64.808344 
4314.000000	64.761018 
4313.000000	64.714026 
4312.000000	64.674377 
4311.000000	64.646482 
4310.000000	64.631915 
4309.000000	64.629220 
4308.000000	64.634823 
4307.000000	64.643931 
4306.000000	64.651989 
4305.000000	64.655971 
4304.000000	64.655065 
4303.000000	64.650034 
4302.000000	64.643025 
4301.000000	64.636421 
4300.000000	64.632201 
4299.000000	64.631009 
4298.000000	64.632463 
4297.000000	64.635586 
4296.000000	64.638781 
4295.000000	64.641666 
4294.000000	64.644098 
4293.000000	64.646387 
4292.000000	64.648461 
4291.000000	64.649486 
4290.000000	64.647984 
4289.000000	64.641809 
4288.000000	64.629149 
4287.000000	64.609098 
4286.000000	64.582300 
4285.000000	64.551424 
4284.000000	64.520692 
4283.000000	64.495253 
4282.000000	64.479541 
4281.000000	64.475965 
4280.000000	64.484214 
4279.000000	64.501118 
4278.000000	64.521098 
4277.000000	64.537525 
4276.000000	64.544177 
4275.000000	64.536929 
4274.000000	64.514422 
4273.000000	64.479041 
4272.000000	64.435720 
4271.000000	64.391565 
4270.000000	64.353966 
4269.000000	64.329457 
4268.000000	64.322590 
4267.000000	64.335250 
4266.000000	64.366245 
4265.000000	64.412021 
4264.000000	64.467167 
4263.000000	64.526128 
4262.000000	64.583969 
4261.000000	64.637446 
4260.000000	64.684796 
4259.000000	64.726281 
4258.000000	64.763402 
4257.000000	64.798188 
4256.000000	64.832091 
4255.000000	64.864969 
4254.000000	64.894843 
4253.000000	64.918231 
4252.000000	64.931297 
4251.000000	64.930701 
4250.000000	64.915060 
4249.000000	64.885878 
4248.000000	64.847588 
4247.000000	64.806962 
4246.000000	64.771819 
4245.000000	64.749360 
4244.000000	64.744758 
4243.000000	64.760303 
4242.000000	64.794659 
4241.000000	64.843702 
4240.000000	64.900565 
4239.000000	64.957475 
4238.000000	65.006279 
4237.000000	65.040397 
4236.000000	65.055155 
4235.000000	65.048170 
4234.000000	65.020084 
4233.000000	64.973783 
4232.000000	64.914989 
4231.000000	64.851355 
4230.000000	64.791321 
4229.000000	64.742779 
4228.000000	64.711880 
4227.000000	64.702057 
4226.000000	64.712882 
4225.000000	64.740371 
4224.000000	64.778113 
4223.000000	64.818716 
4222.000000	64.855170 
4221.000000	64.882302 
4220.000000	64.897799 
4219.000000	64.902210 
4218.000000	64.898157 
4217.000000	64.889574 
4216.000000	64.880418 
4215.000000	64.874029 
4214.000000	64.872717 
4213.000000	64.877390 
4212.000000	64.888119 
4211.000000	64.903974 
4210.000000	64.924287 
4209.000000	64.947700 
4208.000000	64.972376 
4207.000000	64.995741 
4206.000000	65.014553 
4205.000000	65.025353 
4204.000000	65.025305 
4203.000000	65.012669 
4202.000000	64.987516 
4201.000000	64.951753 
4200.000000	64.908957 
4199.000000	64.863634 
4198.000000	64.820528 
4197.000000	64.783596 
4196.000000	64.755344 
4195.000000	64.736676 
4194.000000	64.726972 
4193.000000	64.724326 
4192.000000	64.726257 
4191.000000	64.730024 
4190.000000	64.733934 
4189.000000	64.737176 
4188.000000	64.740848 
4187.000000	64.746546 
4186.000000	64.756870 
4185.000000	64.774250 
4184.000000	64.800405 
4183.000000	64.835715 
4182.000000	64.878535 
4181.000000	64.925551 
4180.000000	64.971733 
4179.000000	65.011572 
4178.000000	65.039587 
4177.000000	65.051746 
4176.000000	65.046310 
4175.000000	65.024137 
4174.000000	64.988899 
4173.000000	64.946389 
4172.000000	64.903569 
4171.000000	64.867329 
4170.000000	64.842891 
4169.000000	64.832997 
4168.000000	64.837694 
4167.000000	64.854454 
4166.000000	64.878940 
4165.000000	64.906024 
4164.000000	64.930868 
4163.000000	64.949774 
4162.000000	64.960384 
4161.000000	64.961814 
4160.000000	64.954161 
4159.000000	64.938473 
