PE IR       SPECTRUM    SPECTRUM    ASCII       PEDS        1.60        
  -1
BZ6AA0~1.ASC
17/04/07
15:51:25.00
17/04/07
15:51:25.00
tln
$BZ1503107-1_t0032$<tbV0>[-10.4,-7.8,8.0,0.0,27,1,0]
370.000000
64









2002,4.07    
MIRTGS : RIGHTBACK : INTERNAL 2
MIR : ON : INTERNAL 2
OPTKBR

0.200000
8
8.000000
FILLER
RATIO
SPECTRUM
UNLOCKED 256

DOUBLE
64
COMBINED
1
0
0


1.000000
RATIO


1
0
TRUE
51149
0
LEFT NOT FITTED RIGHT NOT FITTED 0
NONE
NONE
15600
12.000000
4.427000
51148
TRUE
1 0 8 72 0 0 0 0 

15798.010000






#HDR
-1
-1
#GR
CM-1
%T
0.00002384185791015625
0.0
5000.000000
-1.000000
4631
8
74.533057
43.657326
#DATA
5000.000000	64.154076 
4999.000000	64.051246 
4998.000000	63.914418 
4997.000000	63.756203 
4996.000000	63.590955 
4995.000000	63.434243 
4994.000000	63.300228 
4993.000000	63.200521 
4992.000000	63.142514 
4991.000000	63.129186 
4990.000000	63.157820 
4989.000000	63.220667 
4988.000000	63.305115 
4987.000000	63.395357 
4986.000000	63.475656 
4985.000000	63.532423 
4984.000000	63.558101 
4983.000000	63.552045 
4982.000000	63.521194 
4981.000000	63.477492 
4980.000000	63.435029 
4979.000000	63.405823 
4978.000000	63.396477 
4977.000000	63.406205 
4976.000000	63.428187 
4975.000000	63.450956 
4974.000000	63.462138 
4973.000000	63.452219 
4972.000000	63.416767 
4971.000000	63.358855 
4970.000000	63.286900 
4969.000000	63.214302 
4968.000000	63.155412 
4967.000000	63.123393 
4966.000000	63.126730 
4965.000000	63.167858 
4964.000000	63.242459 
4963.000000	63.340973 
4962.000000	63.451433 
4961.000000	63.561058 
4960.000000	63.658618 
4959.000000	63.736391 
4958.000000	63.790750 
4957.000000	63.821959 
4956.000000	63.832736 
4955.000000	63.826894 
4954.000000	63.807749 
4953.000000	63.777303 
4952.000000	63.736152 
4951.000000	63.684010 
4950.000000	63.620901 
4949.000000	63.549470 
4948.000000	63.474702 
4947.000000	63.404679 
4946.000000	63.347959 
4945.000000	63.311266 
4944.000000	63.297462 
4943.000000	63.303971 
4942.000000	63.323831 
4941.000000	63.346743 
4940.000000	63.362646 
4939.000000	63.364171 
4938.000000	63.349151 
4937.000000	63.320398 
4936.000000	63.285946 
4935.000000	63.256072 
4934.000000	63.241052 
4933.000000	63.247990 
4932.000000	63.279223 
4931.000000	63.331365 
4930.000000	63.396143 
4929.000000	63.462162 
4928.000000	63.516950 
4927.000000	63.549804 
4926.000000	63.552999 
4925.000000	63.523507 
4924.000000	63.462591 
4923.000000	63.376021 
4922.000000	63.273024 
4921.000000	63.164949 
4920.000000	63.063931 
4919.000000	62.980914 
4918.000000	62.924289 
4917.000000	62.898826 
4916.000000	62.905025 
4915.000000	62.939882 
4914.000000	62.997651 
4913.000000	63.071322 
4912.000000	63.153219 
4911.000000	63.236379 
4910.000000	63.314414 
4909.000000	63.382792 
4908.000000	63.437914 
4907.000000	63.478589 
4906.000000	63.505530 
4905.000000	63.521790 
4904.000000	63.532090 
4903.000000	63.541769 
4902.000000	63.555693 
4901.000000	63.577079 
4900.000000	63.606524 
4899.000000	63.641500 
4898.000000	63.676619 
4897.000000	63.705205 
4896.000000	63.720130 
4895.000000	63.715791 
4894.000000	63.688874 
4893.000000	63.640069 
4892.000000	63.573265 
4891.000000	63.494300 
4890.000000	63.410019 
4889.000000	63.327240 
4888.000000	63.251757 
4887.000000	63.187384 
4886.000000	63.136577 
4885.000000	63.100457 
4884.000000	63.079857 
4883.000000	63.075327 
4882.000000	63.087081 
4881.000000	63.114070 
4880.000000	63.154315 
4879.000000	63.204360 
4878.000000	63.258981 
4877.000000	63.311505 
4876.000000	63.355064 
4875.000000	63.383984 
4874.000000	63.395071 
4873.000000	63.388586 
4872.000000	63.368964 
4871.000000	63.344216 
4870.000000	63.324570 
4869.000000	63.320422 
4868.000000	63.340115 
4867.000000	63.387966 
4866.000000	63.463473 
4865.000000	63.560914 
4864.000000	63.671112 
4863.000000	63.782262 
4862.000000	63.883018 
4861.000000	63.963341 
4860.000000	64.015936 
4859.000000	64.037013 
4858.000000	64.026641 
4857.000000	63.988113 
4856.000000	63.927149 
4855.000000	63.851284 
4854.000000	63.769197 
4853.000000	63.689589 
4852.000000	63.620519 
4851.000000	63.568282 
4850.000000	63.536787 
4849.000000	63.527154 
4848.000000	63.537931 
4847.000000	63.564991 
4846.000000	63.602757 
4845.000000	63.645291 
4844.000000	63.687825 
4843.000000	63.726711 
4842.000000	63.760137 
4841.000000	63.787388 
4840.000000	63.808703 
4839.000000	63.823890 
4838.000000	63.832592 
4837.000000	63.834309 
4836.000000	63.828873 
4835.000000	63.816857 
4834.000000	63.799738 
4833.000000	63.780665 
4832.000000	63.762736 
4831.000000	63.748979 
4830.000000	63.740611 
4829.000000	63.737249 
4828.000000	63.735961 
4827.000000	63.732051 
4826.000000	63.720273 
4825.000000	63.696289 
4824.000000	63.658189 
4823.000000	63.607263 
4822.000000	63.547873 
4821.000000	63.486528 
4820.000000	63.430714 
4819.000000	63.387107 
4818.000000	63.360261 
4817.000000	63.351416 
4816.000000	63.358592 
4815.000000	63.377141 
4814.000000	63.400793 
4813.000000	63.423156 
4812.000000	63.438391 
4811.000000	63.442850 
4810.000000	63.434886 
4809.000000	63.415408 
4808.000000	63.387012 
4807.000000	63.353419 
4806.000000	63.318443 
4805.000000	63.285326 
4804.000000	63.256812 
4803.000000	63.234210 
4802.000000	63.217520 
4801.000000	63.205575 
4800.000000	63.196754 
4799.000000	63.189363 
4798.000000	63.182067 
4797.000000	63.174438 
4796.000000	63.166856 
4795.000000	63.160657 
4794.000000	63.157558 
4793.000000	63.159418 
4792.000000	63.167476 
4791.000000	63.182139 
4790.000000	63.202548 
4789.000000	63.226914 
4788.000000	63.252830 
4787.000000	63.276934 
4786.000000	63.296151 
4785.000000	63.308405 
4784.000000	63.313841 
4783.000000	63.314366 
4782.000000	63.314318 
4781.000000	63.319396 
4780.000000	63.335442 
4779.000000	63.367533 
4778.000000	63.417577 
4777.000000	63.484382 
4776.000000	63.562178 
4775.000000	63.642358 
4774.000000	63.714480 
4773.000000	63.768672 
4772.000000	63.797569 
4771.000000	63.798189 
4770.000000	63.772487 
4769.000000	63.726878 
4768.000000	63.670444 
4767.000000	63.612818 
4766.000000	63.562321 
4765.000000	63.524866 
4764.000000	63.503527 
4763.000000	63.499259 
4762.000000	63.511562 
4761.000000	63.539314 
4760.000000	63.581466 
4759.000000	63.636589 
4758.000000	63.702368 
4757.000000	63.775396 
4756.000000	63.850450 
4755.000000	63.921070 
4754.000000	63.979983 
4753.000000	64.020466 
4752.000000	64.038038 
4751.000000	64.030957 
4750.000000	64.001059 
4749.000000	63.952970 
4748.000000	63.893294 
4747.000000	63.829350 
4746.000000	63.768005 
4745.000000	63.715147 
4744.000000	63.675093 
4743.000000	63.650751 
4742.000000	63.643598 
4741.000000	63.653397 
4740.000000	63.678264 
4739.000000	63.714408 
4738.000000	63.756489 
4737.000000	63.798427 
4736.000000	63.834547 
4735.000000	63.860273 
4734.000000	63.873386 
4733.000000	63.874340 
4732.000000	63.865900 
4731.000000	63.852810 
4730.000000	63.839697 
4729.000000	63.830518 
4728.000000	63.826727 
4727.000000	63.827347 
4726.000000	63.829421 
4725.000000	63.829255 
4724.000000	63.823914 
4723.000000	63.811945 
4722.000000	63.794517 
4721.000000	63.774943 
4720.000000	63.758516 
4719.000000	63.750386 
4718.000000	63.755297 
4717.000000	63.776183 
4716.000000	63.813591 
4715.000000	63.865303 
4714.000000	63.926196 
4713.000000	63.988828 
4712.000000	64.044523 
4711.000000	64.084911 
4710.000000	64.103269 
4709.000000	64.096021 
4708.000000	64.063501 
4707.000000	64.009833 
4706.000000	63.942909 
4705.000000	63.872432 
4704.000000	63.808417 
4703.000000	63.758683 
4702.000000	63.728022 
4701.000000	63.716936 
4700.000000	63.722205 
4699.000000	63.737988 
4698.000000	63.757824 
4697.000000	63.776159 
4696.000000	63.789653 
4695.000000	63.797092 
4694.000000	63.799071 
4693.000000	63.796901 
4692.000000	63.791465 
4691.000000	63.782811 
4690.000000	63.769936 
4689.000000	63.751411 
4688.000000	63.726210 
4687.000000	63.694071 
4686.000000	63.655805 
4685.000000	63.613343 
4684.000000	63.569593 
4683.000000	63.527870 
4682.000000	63.491058 
4681.000000	63.461089 
4680.000000	63.438725 
4679.000000	63.423275 
4678.000000	63.412952 
4677.000000	63.405251 
4676.000000	63.397789 
4675.000000	63.387918 
4674.000000	63.374018 
4673.000000	63.354969 
4672.000000	63.331055 
4671.000000	63.303303 
4670.000000	63.273978 
4669.000000	63.245773 
4668.000000	63.221526 
4667.000000	63.203430 
4666.000000	63.193035 
4665.000000	63.190817 
4664.000000	63.196849 
4663.000000	63.210797 
4662.000000	63.232159 
4661.000000	63.260340 
4660.000000	63.294243 
4659.000000	63.332176 
4658.000000	63.371634 
4657.000000	63.409972 
4656.000000	63.444876 
4655.000000	63.475203 
4654.000000	63.501811 
4653.000000	63.526725 
4652.000000	63.552880 
4651.000000	63.582086 
4650.000000	63.615202 
4649.000000	63.650035 
4648.000000	63.681721 
4647.000000	63.703250 
4646.000000	63.707613 
4645.000000	63.689970 
4644.000000	63.649415 
4643.000000	63.590168 
4642.000000	63.521313 
4641.000000	63.454937 
4640.000000	63.403296 
4639.000000	63.375830 
4638.000000	63.377165 
4637.000000	63.405394 
4636.000000	63.453030 
4635.000000	63.508486 
4634.000000	63.559150 
4633.000000	63.593959 
4632.000000	63.606142 
4631.000000	63.593816 
4630.000000	63.560509 
4629.000000	63.514065 
4628.000000	63.464903 
4627.000000	63.423562 
4626.000000	63.398957 
4625.000000	63.396763 
4624.000000	63.418197 
4623.000000	63.460874 
4622.000000	63.518786 
4621.000000	63.583827 
4620.000000	63.646912 
4619.000000	63.699531 
4618.000000	63.735651 
4617.000000	63.752007 
4616.000000	63.749265 
4615.000000	63.731122 
4614.000000	63.703775 
4613.000000	63.674497 
4612.000000	63.649725 
4611.000000	63.634204 
4610.000000	63.629174 
4609.000000	63.632726 
4608.000000	63.640093 
4607.000000	63.645434 
4606.000000	63.643240 
4605.000000	63.630342 
4604.000000	63.606500 
4603.000000	63.575100 
4602.000000	63.542461 
4601.000000	63.516807 
4600.000000	63.505816 
4599.000000	63.515090 
4598.000000	63.547372 
4597.000000	63.601565 
4596.000000	63.673400 
4595.000000	63.755440 
4594.000000	63.838768 
4593.000000	63.914108 
4592.000000	63.973665 
4591.000000	64.011883 
4590.000000	64.026260 
4589.000000	64.017581 
4588.000000	63.989472 
4587.000000	63.947629 
4586.000000	63.899040 
4585.000000	63.850212 
4584.000000	63.806653 
4583.000000	63.771414 
4582.000000	63.745546 
4581.000000	63.727712 
4580.000000	63.715195 
4579.000000	63.704538 
4578.000000	63.692498 
4577.000000	63.676500 
4576.000000	63.655185 
4575.000000	63.627910 
4574.000000	63.594865 
4573.000000	63.556408 
4572.000000	63.513588 
4571.000000	63.467597 
4570.000000	63.420844 
4569.000000	63.376712 
4568.000000	63.339781 
4567.000000	63.315248 
4566.000000	63.307952 
4565.000000	63.321113 
4564.000000	63.355302 
4563.000000	63.407731 
4562.000000	63.472270 
4561.000000	63.540029 
4560.000000	63.601040 
4559.000000	63.646006 
4558.000000	63.668346 
4557.000000	63.665556 
4556.000000	63.639545 
4555.000000	63.595914 
4554.000000	63.542914 
4553.000000	63.489651 
4552.000000	63.444066 
4551.000000	63.411593 
4550.000000	63.394784 
4549.000000	63.393497 
4548.000000	63.405442 
4547.000000	63.427209 
4546.000000	63.455343 
4545.000000	63.487029 
4544.000000	63.520073 
4543.000000	63.552999 
4542.000000	63.584375 
4541.000000	63.613033 
4540.000000	63.637280 
4539.000000	63.655996 
4538.000000	63.668513 
4537.000000	63.675689 
4536.000000	63.680386 
4535.000000	63.686752 
4534.000000	63.699698 
4533.000000	63.722920 
4532.000000	63.758087 
4531.000000	63.803529 
4530.000000	63.853955 
4529.000000	63.902425 
4528.000000	63.942003 
4527.000000	63.967537 
4526.000000	63.977122 
4525.000000	63.972473 
4524.000000	63.958358 
4523.000000	63.941121 
4522.000000	63.926982 
4521.000000	63.920855 
4520.000000	63.925027 
4519.000000	63.939833 
4518.000000	63.963294 
4517.000000	63.991975 
4516.000000	64.021539 
4515.000000	64.048218 
4514.000000	64.068675 
4513.000000	64.080548 
4512.000000	64.081954 
4511.000000	64.071989 
4510.000000	64.050292 
4509.000000	64.017081 
4508.000000	63.973045 
4507.000000	63.919758 
4506.000000	63.859319 
4505.000000	63.794469 
4504.000000	63.728308 
4503.000000	63.663935 
4502.000000	63.604235 
4501.000000	63.551878 
4500.000000	63.508677 
4499.000000	63.475537 
4498.000000	63.452363 
4497.000000	63.438320 
4496.000000	63.431811 
4495.000000	63.431167 
4494.000000	63.435220 
4493.000000	63.443946 
4492.000000	63.458466 
4491.000000	63.481163 
4490.000000	63.515043 
4489.000000	63.562846 
4488.000000	63.626551 
4487.000000	63.706064 
4486.000000	63.798069 
4485.000000	63.896632 
4484.000000	63.993740 
4483.000000	64.080810 
4482.000000	64.151167 
4481.000000	64.200210 
4480.000000	64.227342 
4479.000000	64.233970 
4478.000000	64.223241 
4477.000000	64.198446 
4476.000000	64.162397 
4475.000000	64.118003 
4474.000000	64.068484 
4473.000000	64.018082 
4472.000000	63.972973 
4471.000000	63.938188 
4470.000000	63.917088 
4469.000000	63.911533 
4468.000000	63.922023 
4467.000000	63.946533 
4466.000000	63.981771 
4465.000000	64.025378 
4464.000000	64.076757 
4463.000000	64.135074 
4462.000000	64.199757 
4461.000000	64.273643 
4460.000000	64.358448 
4459.000000	64.447760 
4458.000000	64.531707 
4457.000000	64.600586 
4456.000000	64.645981 
4455.000000	64.666485 
4454.000000	64.663863 
4453.000000	64.641141 
4452.000000	64.602375 
4451.000000	64.555335 
4450.000000	64.504146 
4449.000000	64.443254 
4448.000000	64.372754 
4447.000000	64.303493 
4446.000000	64.251947 
4445.000000	64.234900 
4444.000000	64.278984 
4443.000000	64.414978 
4442.000000	64.654898 
4441.000000	64.989542 
4440.000000	65.386033 
4439.000000	65.802836 
4438.000000	66.197395 
4437.000000	66.551685 
4436.000000	66.881465 
4435.000000	67.238879 
4434.000000	67.715549 
4433.000000	68.396258 
4432.000000	69.332885 
4431.000000	70.499110 
4430.000000	71.798706 
4429.000000	73.051309 
4428.000000	74.037814 
4427.000000	74.533057 
4426.000000	74.383735 
4425.000000	73.518419 
4424.000000	71.988892 
4423.000000	69.927835 
4422.000000	67.542314 
4421.000000	65.022706 
4420.000000	62.512660 
4419.000000	60.069394 
4418.000000	57.676625 
4417.000000	55.278754 
4416.000000	52.835869 
4415.000000	50.370383 
4414.000000	47.999906 
4413.000000	45.924019 
4412.000000	44.400215 
4411.000000	43.657326 
4410.000000	43.857765 
4409.000000	45.038580 
4408.000000	47.109460 
4407.000000	49.844765 
4406.000000	52.940893 
4405.000000	56.062436 
4404.000000	58.913016 
4403.000000	61.264777 
4402.000000	63.003587 
4401.000000	64.119529 
4400.000000	64.696192 
4399.000000	64.872622 
4398.000000	64.799499 
4397.000000	64.611434 
4396.000000	64.393949 
4395.000000	64.199566 
4394.000000	64.030575 
4393.000000	63.873982 
4392.000000	63.708496 
4391.000000	63.535904 
4390.000000	63.363432 
4389.000000	63.207316 
4388.000000	63.091540 
4387.000000	63.041162 
4386.000000	63.064932 
4385.000000	63.153767 
4384.000000	63.290381 
4383.000000	63.451075 
4382.000000	63.607859 
4381.000000	63.736343 
4380.000000	63.821053 
4379.000000	63.858199 
4378.000000	63.854289 
4377.000000	63.824701 
4376.000000	63.783240 
4375.000000	63.743901 
4374.000000	63.725185 
4373.000000	63.738369 
4372.000000	63.779497 
4371.000000	63.838720 
4370.000000	63.909459 
4369.000000	63.983011 
4368.000000	64.049911 
4367.000000	64.103960 
4366.000000	64.142727 
4365.000000	64.167833 
4364.000000	64.183950 
4363.000000	64.196228 
4362.000000	64.208173 
4361.000000	64.221549 
4360.000000	64.235353 
4359.000000	64.245939 
4358.000000	64.247608 
4357.000000	64.234733 
4356.000000	64.202809 
4355.000000	64.149641 
4354.000000	64.076137 
4353.000000	63.986110 
4352.000000	63.886332 
4351.000000	63.785457 
4350.000000	63.693070 
4349.000000	63.616919 
4348.000000	63.563251 
4347.000000	63.535809 
4346.000000	63.536095 
4345.000000	63.562583 
4344.000000	63.612270 
4343.000000	63.680338 
4342.000000	63.761806 
4341.000000	63.851118 
4340.000000	63.943576 
4339.000000	64.034771 
4338.000000	64.120960 
4337.000000	64.198637 
4336.000000	64.264559 
4335.000000	64.315605 
4334.000000	64.349079 
4333.000000	64.362835 
4332.000000	64.355707 
4331.000000	64.327764 
4330.000000	64.281272 
4329.000000	64.220213 
4328.000000	64.150261 
4327.000000	64.077854 
4326.000000	64.009737 
4325.000000	63.951826 
4324.000000	63.908243 
4323.000000	63.881039 
4322.000000	63.869786 
4321.000000	63.872480 
4320.000000	63.885664 
4319.000000	63.905835 
4318.000000	63.929390 
4317.000000	63.953542 
4316.000000	63.975882 
4315.000000	63.995194 
4314.000000	64.010167 
4313.000000	64.020895 
4312.000000	64.028239 
4311.000000	64.033889 
4310.000000	64.039802 
4309.000000	64.048385 
4308.000000	64.061951 
4307.000000	64.081621 
4306.000000	64.106965 
4305.000000	64.136099 
4304.000000	64.166069 
4303.000000	64.193391 
4302.000000	64.214897 
4301.000000	64.228415 
4300.000000	64.233064 
4299.000000	64.229702 
4298.000000	64.219784 
4297.000000	64.204883 
4296.000000	64.185476 
4295.000000	64.161610 
4294.000000	64.132356 
4293.000000	64.096617 
4292.000000	64.053940 
4291.000000	64.005780 
4290.000000	63.955187 
4289.000000	63.906693 
4288.000000	63.864850 
4287.000000	63.833403 
4286.000000	63.813710 
4285.000000	63.804364 
4284.000000	63.801336 
4283.000000	63.798761 
4282.000000	63.791203 
4281.000000	63.774991 
4280.000000	63.749718 
4279.000000	63.718342 
4278.000000	63.686776 
4277.000000	63.662338 
4276.000000	63.651275 
4275.000000	63.657307 
4274.000000	63.680338 
4273.000000	63.716411 
4272.000000	63.758826 
4271.000000	63.799881 
4270.000000	63.832807 
4269.000000	63.853573 
4268.000000	63.861536 
4267.000000	63.859272 
4266.000000	63.851237 
4265.000000	63.842391 
4264.000000	63.836693 
4263.000000	63.835930 
4262.000000	63.839268 
4261.000000	63.844060 
4260.000000	63.847208 
4259.000000	63.845849 
4258.000000	63.838601 
4257.000000	63.825678 
4256.000000	63.809132 
4255.000000	63.791465 
4254.000000	63.774800 
4253.000000	63.760232 
4252.000000	63.747668 
4251.000000	63.736248 
4250.000000	63.724875 
4249.000000	63.713264 
4248.000000	63.702416 
4247.000000	63.694429 
4246.000000	63.692283 
4245.000000	63.698625 
4244.000000	63.714838 
4243.000000	63.740587 
4242.000000	63.773441 
4241.000000	63.809013 
4240.000000	63.842272 
4239.000000	63.868618 
4238.000000	63.884758 
4237.000000	63.889408 
4236.000000	63.883638 
4235.000000	63.870310 
4234.000000	63.853287 
4233.000000	63.836526 
4232.000000	63.823008 
4231.000000	63.814234 
4230.000000	63.810157 
4229.000000	63.809680 
4228.000000	63.811016 
4227.000000	63.812518 
4226.000000	63.813114 
4225.000000	63.812685 
4224.000000	63.811945 
4223.000000	63.811802 
4222.000000	63.813114 
4221.000000	63.816022 
4220.000000	63.819456 
4219.000000	63.821339 
4218.000000	63.818860 
4217.000000	63.809347 
4216.000000	63.791131 
4215.000000	63.764214 
4214.000000	63.730430 
4213.000000	63.693451 
4212.000000	63.657736 
4211.000000	63.627767 
4210.000000	63.606929 
4209.000000	63.596844 
4208.000000	63.597154 
4207.000000	63.605690 
4206.000000	63.619041 
4205.000000	63.633584 
4204.000000	63.646531 
4203.000000	63.656520 
4202.000000	63.663816 
4201.000000	63.669919 
4200.000000	63.676929 
4199.000000	63.687014 
4198.000000	63.701438 
4197.000000	63.720178 
4196.000000	63.741707 
4195.000000	63.763618 
4194.000000	63.782906 
4193.000000	63.796877 
4192.000000	63.803672 
4191.000000	63.802671 
4190.000000	63.794660 
4189.000000	63.781809 
4188.000000	63.766908 
4187.000000	63.753271 
4186.000000	63.743281 
4185.000000	63.738560 
4184.000000	63.738965 
4183.000000	63.743257 
4182.000000	63.748955 
4181.000000	63.753080 
4180.000000	63.752961 
4179.000000	63.746953 
4178.000000	63.735127 
4177.000000	63.718914 
4176.000000	63.701558 
4175.000000	63.687109 
4174.000000	63.679885 
4173.000000	63.683319 
4172.000000	63.699173 
4171.000000	63.727021 
4170.000000	63.764333 
4169.000000	63.806891 
4168.000000	63.849329 
4167.000000	63.886189 
4166.000000	63.913035 
4165.000000	63.927316 
4164.000000	63.928484 
4163.000000	63.918375 
4162.000000	63.900828 
4161.000000	63.880681 
4160.000000	63.863134 
4159.000000	63.852095 
