PE IR       SPECTRUM    SPECTRUM    ASCII       PEDS        1.60        
  -1
BZ6921~1.ASC
17/04/07
18:13:35.00
17/04/07
18:13:35.00
tln
$BZ1503107-1_t0061$<tbV0>[0.0,0.0,8.0,0.0,27,1,0]
370.000000
64









2002,4.07    
MIRTGS : RIGHTBACK : INTERNAL 2
MIR : ON : INTERNAL 2
OPTKBR

0.200000
8
8.000000
FILLER
RATIO
SPECTRUM
UNLOCKED 256

DOUBLE
64
COMBINED
1
0
0


1.000000
RATIO


1
0
TRUE
51149
0
LEFT NOT FITTED RIGHT NOT FITTED 0
NONE
NONE
15600
12.000000
4.427000
51148
TRUE
1 0 8 72 0 0 0 0 

15798.010000






#HDR
-1
-1
#GR
CM-1
%T
0.00002384185791015625
0.0
5000.000000
-1.000000
4631
8
74.552059
50.540781
#DATA
5000.000000	64.762783 
4999.000000	65.028834 
4998.000000	65.264177 
4997.000000	65.451502 
4996.000000	65.577983 
4995.000000	65.636324 
4994.000000	65.625643 
4993.000000	65.550422 
4992.000000	65.422511 
4991.000000	65.261912 
4990.000000	65.093255 
4989.000000	64.942455 
4988.000000	64.834380 
4987.000000	64.790368 
4986.000000	64.822316 
4985.000000	64.930725 
4984.000000	65.105271 
4983.000000	65.326809 
4982.000000	65.569043 
4981.000000	65.803647 
4980.000000	66.003632 
4979.000000	66.149425 
4978.000000	66.231060 
4977.000000	66.251993 
4976.000000	66.227316 
4975.000000	66.181635 
4974.000000	66.146755 
4973.000000	66.151237 
4972.000000	66.217231 
4971.000000	66.348385 
4970.000000	66.534256 
4969.000000	66.742587 
4968.000000	66.931605 
4967.000000	67.050433 
4966.000000	67.054510 
4965.000000	66.910123 
4964.000000	66.604733 
4963.000000	66.147780 
4962.000000	65.571665 
4961.000000	64.922571 
4960.000000	64.252257 
4959.000000	63.609480 
4958.000000	63.033366 
4957.000000	62.550091 
4956.000000	62.173247 
4955.000000	61.905241 
4954.000000	61.742281 
4953.000000	61.677408 
4952.000000	61.705756 
4951.000000	61.820292 
4950.000000	62.015533 
4949.000000	62.283420 
4948.000000	62.613654 
4947.000000	62.988138 
4946.000000	63.382315 
4945.000000	63.764667 
4944.000000	64.101696 
4943.000000	64.360952 
4942.000000	64.520001 
4941.000000	64.569687 
4940.000000	64.520192 
4939.000000	64.400148 
4938.000000	64.252281 
4937.000000	64.126563 
4936.000000	64.066958 
4935.000000	64.105272 
4934.000000	64.247107 
4933.000000	64.472389 
4932.000000	64.737105 
4931.000000	64.985942 
4930.000000	65.163016 
4929.000000	65.226483 
4928.000000	65.161228 
4927.000000	64.982843 
4926.000000	64.731383 
4925.000000	64.461803 
4924.000000	64.231061 
4923.000000	64.084291 
4922.000000	64.046025 
4921.000000	64.114618 
4920.000000	64.267516 
4919.000000	64.465665 
4918.000000	64.666938 
4917.000000	64.833927 
4916.000000	64.940428 
4915.000000	64.977288 
4914.000000	64.949941 
4913.000000	64.876747 
4912.000000	64.778971 
4911.000000	64.678835 
4910.000000	64.594316 
4909.000000	64.536476 
4908.000000	64.509940 
4907.000000	64.512658 
4906.000000	64.539504 
4905.000000	64.582610 
4904.000000	64.634418 
4903.000000	64.687585 
4902.000000	64.735984 
4901.000000	64.774346 
4900.000000	64.798521 
4899.000000	64.805960 
4898.000000	64.795756 
4897.000000	64.768481 
4896.000000	64.726138 
4895.000000	64.672040 
4894.000000	64.610910 
4893.000000	64.548802 
4892.000000	64.492607 
4891.000000	64.448618 
4890.000000	64.422440 
4889.000000	64.418292 
4888.000000	64.438271 
4887.000000	64.482641 
4886.000000	64.548516 
4885.000000	64.629364 
4884.000000	64.716148 
4883.000000	64.798808 
4882.000000	64.867377 
4881.000000	64.913415 
4880.000000	64.931654 
4879.000000	64.920282 
4878.000000	64.881920 
4877.000000	64.823198 
4876.000000	64.753031 
4875.000000	64.681005 
4874.000000	64.616012 
4873.000000	64.565300 
4872.000000	64.533853 
4871.000000	64.524030 
4870.000000	64.535880 
4869.000000	64.567065 
4868.000000	64.613747 
4867.000000	64.670562 
4866.000000	64.730262 
4865.000000	64.784884 
4864.000000	64.826488 
4863.000000	64.848494 
4862.000000	64.846324 
4861.000000	64.818286 
4860.000000	64.765834 
4859.000000	64.693832 
4858.000000	64.609909 
4857.000000	64.523530 
4856.000000	64.444684 
4855.000000	64.382433 
4854.000000	64.343309 
4853.000000	64.331102 
4852.000000	64.346194 
4851.000000	64.385914 
4850.000000	64.445042 
4849.000000	64.517283 
4848.000000	64.596152 
4847.000000	64.675760 
4846.000000	64.750766 
4845.000000	64.816093 
4844.000000	64.866590 
4843.000000	64.897441 
4842.000000	64.904046 
4841.000000	64.882159 
4840.000000	64.828968 
4839.000000	64.745068 
4838.000000	64.635205 
4837.000000	64.508891 
4836.000000	64.379096 
4835.000000	64.260697 
4834.000000	64.167213 
4833.000000	64.108562 
4832.000000	64.088678 
4831.000000	64.104175 
4830.000000	64.146065 
4829.000000	64.201736 
4828.000000	64.258432 
4827.000000	64.305782 
4826.000000	64.337778 
4825.000000	64.352750 
4824.000000	64.353394 
4823.000000	64.344549 
4822.000000	64.331889 
4821.000000	64.320087 
4820.000000	64.312362 
4819.000000	64.310312 
4818.000000	64.315295 
4817.000000	64.328408 
4816.000000	64.351367 
4815.000000	64.385604 
4814.000000	64.431619 
4813.000000	64.487791 
4812.000000	64.549756 
4811.000000	64.610767 
4810.000000	64.662361 
4809.000000	64.696264 
4808.000000	64.706945 
4807.000000	64.692473 
4806.000000	64.654707 
4805.000000	64.599847 
4804.000000	64.537119 
4803.000000	64.477324 
4802.000000	64.430522 
4801.000000	64.404749 
4800.000000	64.405012 
4799.000000	64.431905 
4798.000000	64.481949 
4797.000000	64.547729 
4796.000000	64.619493 
4795.000000	64.686799 
4794.000000	64.740705 
4793.000000	64.774632 
4792.000000	64.785695 
4791.000000	64.775180 
4790.000000	64.748406 
4789.000000	64.713335 
4788.000000	64.679312 
4787.000000	64.655518 
4786.000000	64.649128 
4785.000000	64.664030 
4784.000000	64.700055 
4783.000000	64.753818 
4782.000000	64.819002 
4781.000000	64.887523 
4780.000000	64.951491 
4779.000000	65.004563 
4778.000000	65.043187 
4777.000000	65.066313 
4776.000000	65.075874 
4775.000000	65.075635 
4774.000000	65.070033 
4773.000000	65.063333 
4772.000000	65.057778 
4771.000000	65.053319 
4770.000000	65.047788 
4769.000000	65.038061 
4768.000000	65.020799 
4767.000000	64.993858 
4766.000000	64.957118 
4765.000000	64.912748 
4764.000000	64.864754 
4763.000000	64.817929 
4762.000000	64.776229 
4761.000000	64.741778 
4760.000000	64.714598 
4759.000000	64.692401 
4758.000000	64.671397 
4757.000000	64.647293 
4756.000000	64.616489 
4755.000000	64.577603 
4754.000000	64.531183 
4753.000000	64.480781 
4752.000000	64.431834 
4751.000000	64.391326 
4750.000000	64.365291 
4749.000000	64.358139 
4748.000000	64.371681 
4747.000000	64.404582 
4746.000000	64.452242 
4745.000000	64.508485 
4744.000000	64.566516 
4743.000000	64.620494 
4742.000000	64.666414 
4741.000000	64.702177 
4740.000000	64.727497 
4739.000000	64.743685 
4738.000000	64.752602 
4737.000000	64.756178 
4736.000000	64.755582 
4735.000000	64.751791 
4734.000000	64.745044 
4733.000000	64.735460 
4732.000000	64.722418 
4731.000000	64.706182 
4730.000000	64.686608 
4729.000000	64.663052 
4728.000000	64.634728 
4727.000000	64.601111 
4726.000000	64.562559 
4725.000000	64.520072 
4724.000000	64.475774 
4723.000000	64.433264 
4722.000000	64.396238 
4721.000000	64.367842 
4720.000000	64.350032 
4719.000000	64.342904 
4718.000000	64.345860 
4717.000000	64.357471 
4716.000000	64.376854 
4715.000000	64.403486 
4714.000000	64.437770 
4713.000000	64.480113 
4712.000000	64.530491 
4711.000000	64.587426 
4710.000000	64.647889 
4709.000000	64.707541 
4708.000000	64.761447 
4707.000000	64.805626 
4706.000000	64.838242 
4705.000000	64.860391 
4704.000000	64.876127 
4703.000000	64.891481 
4702.000000	64.913225 
4701.000000	64.946770 
4700.000000	64.995050 
4699.000000	65.057301 
4698.000000	65.129852 
4697.000000	65.205931 
4696.000000	65.277957 
4695.000000	65.337753 
4694.000000	65.378546 
4693.000000	65.395331 
4692.000000	65.386056 
4691.000000	65.351843 
4690.000000	65.297031 
4689.000000	65.229249 
4688.000000	65.158462 
4687.000000	65.095829 
4686.000000	65.051794 
4685.000000	65.034317 
4684.000000	65.047264 
4683.000000	65.089106 
4682.000000	65.152668 
4681.000000	65.226411 
4680.000000	65.296649 
4679.000000	65.350174 
4678.000000	65.377306 
4677.000000	65.373420 
4676.000000	65.339851 
4675.000000	65.283441 
4674.000000	65.214109 
4673.000000	65.142273 
4672.000000	65.076279 
4671.000000	65.020942 
4670.000000	64.976954 
4669.000000	64.941787 
4668.000000	64.911365 
4667.000000	64.882469 
4666.000000	64.853811 
4665.000000	64.826679 
4664.000000	64.804697 
4663.000000	64.792418 
4662.000000	64.793825 
4661.000000	64.810228 
4660.000000	64.840841 
4659.000000	64.882540 
4658.000000	64.931344 
4657.000000	64.983320 
4656.000000	65.035867 
4655.000000	65.087985 
4654.000000	65.139842 
4653.000000	65.191864 
4652.000000	65.243768 
4651.000000	65.293645 
4650.000000	65.337848 
4649.000000	65.371561 
4648.000000	65.390849 
4647.000000	65.393018 
4646.000000	65.378570 
4645.000000	65.350270 
4644.000000	65.313196 
4643.000000	65.273189 
4642.000000	65.235948 
4641.000000	65.205407 
4640.000000	65.183401 
4639.000000	65.169668 
4638.000000	65.163040 
4637.000000	65.161585 
4636.000000	65.163445 
4635.000000	65.167140 
4634.000000	65.171790 
4633.000000	65.176558 
4632.000000	65.180182 
4631.000000	65.180826 
4630.000000	65.176200 
4629.000000	65.163850 
4628.000000	65.141463 
4627.000000	65.107846 
4626.000000	65.063023 
4625.000000	65.008401 
4624.000000	64.946579 
4623.000000	64.880752 
4622.000000	64.814591 
4621.000000	64.752006 
4620.000000	64.696812 
4619.000000	64.652371 
4618.000000	64.621400 
4617.000000	64.605283 
4616.000000	64.604353 
4615.000000	64.616727 
4614.000000	64.639830 
4613.000000	64.669847 
4612.000000	64.703464 
4611.000000	64.737391 
4610.000000	64.770174 
4609.000000	64.801645 
4608.000000	64.833331 
4607.000000	64.867448 
4606.000000	64.906287 
4605.000000	64.951086 
4604.000000	65.001606 
4603.000000	65.055727 
4602.000000	65.110135 
4601.000000	65.161037 
4600.000000	65.205311 
4599.000000	65.241026 
4598.000000	65.267753 
4597.000000	65.286636 
4596.000000	65.300297 
4595.000000	65.311861 
4594.000000	65.324497 
4593.000000	65.340065 
4592.000000	65.360045 
4591.000000	65.383481 
4590.000000	65.407538 
4589.000000	65.427494 
4588.000000	65.438485 
4587.000000	65.435814 
4586.000000	65.416359 
4585.000000	65.379524 
4584.000000	65.327692 
4583.000000	65.265846 
4582.000000	65.201020 
4581.000000	65.140318 
4580.000000	65.089797 
4579.000000	65.052843 
4578.000000	65.030050 
4577.000000	65.018939 
4576.000000	65.015101 
4575.000000	65.013885 
4574.000000	65.012097 
4573.000000	65.008544 
4572.000000	65.004539 
4571.000000	65.002846 
4570.000000	65.007138 
4569.000000	65.019559 
4568.000000	65.041136 
4567.000000	65.071606 
4566.000000	65.109586 
4565.000000	65.153217 
4564.000000	65.200066 
4563.000000	65.247964 
4562.000000	65.294599 
4561.000000	65.337657 
4560.000000	65.374493 
4559.000000	65.402603 
4558.000000	65.419697 
4557.000000	65.424633 
4556.000000	65.417361 
4555.000000	65.399169 
4554.000000	65.372705 
4553.000000	65.342044 
4552.000000	65.311503 
4551.000000	65.284824 
4550.000000	65.265321 
4549.000000	65.255331 
4548.000000	65.255975 
4547.000000	65.267014 
4546.000000	65.287423 
4545.000000	65.314793 
4544.000000	65.345430 
4543.000000	65.374279 
4542.000000	65.395689 
4541.000000	65.404057 
4540.000000	65.394830 
4539.000000	65.365934 
4538.000000	65.317893 
4537.000000	65.254974 
4536.000000	65.184164 
4535.000000	65.114307 
4534.000000	65.054011 
4533.000000	65.010547 
4532.000000	64.988470 
4531.000000	64.989447 
4530.000000	65.011882 
4529.000000	65.052771 
4528.000000	65.108680 
4527.000000	65.176177 
4526.000000	65.252065 
4525.000000	65.332818 
4524.000000	65.414237 
4523.000000	65.490770 
4522.000000	65.556049 
4521.000000	65.604162 
4520.000000	65.631389 
4519.000000	65.637469 
4518.000000	65.626263 
4517.000000	65.606331 
4516.000000	65.587830 
4515.000000	65.581321 
4514.000000	65.593099 
4513.000000	65.623712 
4512.000000	65.666675 
4511.000000	65.710449 
4510.000000	65.741324 
4509.000000	65.748381 
4508.000000	65.725708 
4507.000000	65.675377 
4506.000000	65.605211 
4505.000000	65.526556 
4504.000000	65.450787 
4503.000000	65.385937 
4502.000000	65.335750 
4501.000000	65.299272 
4500.000000	65.273165 
4499.000000	65.254187 
4498.000000	65.238976 
4497.000000	65.225028 
4496.000000	65.210247 
4495.000000	65.192627 
4494.000000	65.169525 
4493.000000	65.138173 
4492.000000	65.095567 
4491.000000	65.040326 
4490.000000	64.973926 
4489.000000	64.901447 
4488.000000	64.831709 
4487.000000	64.774608 
4486.000000	64.739823 
4485.000000	64.732933 
4484.000000	64.751696 
4483.000000	64.788150 
4482.000000	64.831423 
4481.000000	64.869427 
4480.000000	64.889979 
4479.000000	64.886713 
4478.000000	64.861226 
4477.000000	64.822053 
4476.000000	64.777421 
4475.000000	64.743399 
4474.000000	64.742207 
4473.000000	64.792561 
4472.000000	64.904594 
4471.000000	65.074610 
4470.000000	65.284395 
4469.000000	65.506029 
4468.000000	65.709185 
4467.000000	65.864443 
4466.000000	65.951156 
4465.000000	65.971517 
4464.000000	65.944218 
4463.000000	65.896511 
4462.000000	65.852022 
4461.000000	65.824198 
4460.000000	65.807032 
4459.000000	65.780019 
4458.000000	65.708303 
4457.000000	65.560078 
4456.000000	65.306663 
4455.000000	64.945030 
4454.000000	64.478564 
4453.000000	63.930749 
4452.000000	63.311743 
4451.000000	62.619137 
4450.000000	61.827492 
4449.000000	60.895156 
4448.000000	59.790062 
4447.000000	58.506345 
4446.000000	57.096862 
4445.000000	55.674028 
4444.000000	54.412579 
4443.000000	53.516674 
4442.000000	53.182911 
4441.000000	53.550410 
4440.000000	54.666662 
4439.000000	56.461858 
4438.000000	58.753895 
4437.000000	61.271667 
4436.000000	63.698959 
4435.000000	65.732479 
4434.000000	67.132639 
4433.000000	67.768764 
4432.000000	67.633032 
4431.000000	66.836023 
4430.000000	65.581202 
4429.000000	64.109587 
4428.000000	62.656235 
4427.000000	61.400198 
4426.000000	60.457801 
4425.000000	59.859132 
4424.000000	59.578156 
4423.000000	59.543919 
4422.000000	59.682178 
4421.000000	59.924530 
4420.000000	60.221695 
4419.000000	60.548686 
4418.000000	60.893464 
4417.000000	61.258792 
4416.000000	61.646962 
4415.000000	62.062239 
4414.000000	62.502670 
4413.000000	62.958574 
4412.000000	63.411784 
4411.000000	63.840651 
4410.000000	64.223146 
4409.000000	64.543461 
4408.000000	64.793610 
4407.000000	64.974999 
4406.000000	65.096259 
4405.000000	65.177631 
4404.000000	65.240120 
4403.000000	65.298223 
4402.000000	65.359115 
4401.000000	65.429615 
4400.000000	65.508389 
4399.000000	65.594244 
4398.000000	65.678715 
4397.000000	65.748429 
4396.000000	65.788674 
4395.000000	65.790271 
4394.000000	65.747070 
4393.000000	65.657210 
4392.000000	65.526580 
4391.000000	65.368723 
4390.000000	65.201091 
4389.000000	65.042233 
4388.000000	64.906382 
4387.000000	64.801311 
4386.000000	64.729881 
4385.000000	64.691042 
4384.000000	64.679408 
4383.000000	64.688420 
4382.000000	64.713191 
4381.000000	64.751529 
4380.000000	64.799928 
4379.000000	64.856147 
4378.000000	64.918637 
4377.000000	64.986443 
4376.000000	65.056180 
4375.000000	65.124249 
4374.000000	65.187430 
4373.000000	65.242981 
4372.000000	65.288734 
4371.000000	65.324211 
4370.000000	65.350818 
4369.000000	65.371513 
4368.000000	65.390133 
4367.000000	65.410876 
4366.000000	65.437412 
4365.000000	65.472269 
4364.000000	65.516448 
4363.000000	65.568614 
4362.000000	65.625023 
4361.000000	65.679788 
4360.000000	65.725684 
4359.000000	65.754294 
4358.000000	65.757656 
4357.000000	65.730404 
4356.000000	65.671157 
4355.000000	65.583205 
4354.000000	65.474319 
4353.000000	65.356636 
4352.000000	65.243411 
4351.000000	65.146923 
4350.000000	65.075230 
4349.000000	65.030765 
4348.000000	65.010023 
4347.000000	65.004706 
4346.000000	65.004920 
4345.000000	65.000557 
4344.000000	64.986133 
4343.000000	64.961481 
4342.000000	64.932656 
4341.000000	64.908695 
4340.000000	64.899992 
4339.000000	64.914464 
4338.000000	64.955043 
4337.000000	65.018033 
4336.000000	65.094351 
4335.000000	65.171694 
4334.000000	65.237283 
4333.000000	65.281081 
4332.000000	65.297698 
4331.000000	65.287542 
4330.000000	65.255832 
4329.000000	65.211391 
4328.000000	65.164470 
4327.000000	65.124368 
4326.000000	65.098595 
4325.000000	65.090799 
4324.000000	65.101480 
4323.000000	65.127277 
4322.000000	65.163302 
4321.000000	65.203046 
4320.000000	65.239405 
4319.000000	65.266442 
4318.000000	65.279722 
4317.000000	65.277910 
4316.000000	65.262198 
4315.000000	65.236663 
4314.000000	65.207242 
4313.000000	65.179753 
4312.000000	65.158605 
4311.000000	65.145444 
4310.000000	65.138936 
4309.000000	65.135526 
4308.000000	65.130925 
4307.000000	65.121698 
4306.000000	65.106630 
4305.000000	65.087413 
4304.000000	65.068364 
4303.000000	65.054678 
4302.000000	65.050911 
4301.000000	65.059685 
4300.000000	65.080261 
4299.000000	65.108680 
4298.000000	65.138220 
4297.000000	65.161323 
4296.000000	65.171265 
4295.000000	65.163922 
4294.000000	65.138792 
4293.000000	65.098404 
4292.000000	65.048599 
4291.000000	64.996242 
4290.000000	64.948916 
4289.000000	64.913344 
4288.000000	64.894247 
4287.000000	64.893984 
4286.000000	64.911770 
4285.000000	64.944219 
4284.000000	64.985585 
4283.000000	65.028762 
4282.000000	65.066742 
4281.000000	65.093779 
4280.000000	65.106463 
4279.000000	65.104269 
4278.000000	65.089392 
4277.000000	65.065979 
4276.000000	65.039205 
4275.000000	65.013742 
4274.000000	64.992761 
4273.000000	64.977383 
4272.000000	64.967036 
4271.000000	64.959907 
4270.000000	64.953970 
4269.000000	64.947867 
4268.000000	64.941716 
4267.000000	64.937043 
4266.000000	64.935731 
4265.000000	64.939689 
4264.000000	64.949464 
4263.000000	64.964199 
4262.000000	64.981555 
4261.000000	64.998221 
4260.000000	65.010738 
4259.000000	65.016460 
4258.000000	65.014362 
4257.000000	65.004968 
4256.000000	64.990425 
4255.000000	64.973473 
4254.000000	64.956855 
4253.000000	64.942598 
4252.000000	64.931678 
4251.000000	64.924263 
4250.000000	64.920115 
4249.000000	64.918875 
4248.000000	64.920616 
4247.000000	64.925646 
4246.000000	64.935016 
4245.000000	64.949464 
4244.000000	64.970111 
4243.000000	64.997577 
4242.000000	65.032005 
4241.000000	65.073180 
4240.000000	65.119647 
4239.000000	65.169072 
4238.000000	65.217256 
4237.000000	65.259432 
4236.000000	65.289616 
4235.000000	65.301799 
4234.000000	65.291070 
4233.000000	65.255188 
4232.000000	65.195345 
4231.000000	65.116691 
4230.000000	65.027952 
4229.000000	64.940023 
4228.000000	64.863896 
4227.000000	64.808607 
4226.000000	64.779329 
4225.000000	64.776611 
4224.000000	64.796495 
4223.000000	64.831757 
4222.000000	64.873862 
4221.000000	64.914798 
4220.000000	64.948558 
4219.000000	64.972209 
4218.000000	64.985060 
4217.000000	64.989018 
4216.000000	64.987158 
4215.000000	64.983677 
4214.000000	64.981794 
4213.000000	64.984512 
4212.000000	64.994454 
4211.000000	65.013456 
4210.000000	65.042686 
4209.000000	65.082144 
4208.000000	65.131139 
4207.000000	65.187191 
4206.000000	65.246272 
4205.000000	65.302991 
4204.000000	65.351676 
4203.000000	65.387392 
4202.000000	65.407109 
4201.000000	65.410518 
4200.000000	65.400290 
4199.000000	65.381717 
4198.000000	65.361571 
4197.000000	65.345954 
4196.000000	65.338540 
4195.000000	65.340471 
4194.000000	65.349292 
4193.000000	65.359640 
4192.000000	65.364480 
4191.000000	65.357398 
4190.000000	65.333509 
4189.000000	65.291428 
4188.000000	65.232729 
4187.000000	65.161776 
4186.000000	65.084385 
4185.000000	65.006327 
4184.000000	64.932489 
4183.000000	64.865660 
4182.000000	64.807176 
4181.000000	64.757466 
4180.000000	64.716649 
4179.000000	64.685034 
4178.000000	64.663195 
4177.000000	64.651751 
4176.000000	64.650774 
4175.000000	64.659047 
4174.000000	64.674663 
4173.000000	64.695215 
4172.000000	64.718246 
4171.000000	64.741778 
4170.000000	64.765405 
4169.000000	64.790105 
4168.000000	64.817929 
4167.000000	64.851045 
4166.000000	64.890956 
4165.000000	64.937734 
4164.000000	64.989686 
4163.000000	65.043449 
4162.000000	65.094804 
4161.000000	65.138816 
4160.000000	65.171837 
4159.000000	65.191292 
