PE IR       SPECTRUM    SPECTRUM    ASCII       PEDS        1.60        
  -1
BZBC70~1.ASC
17/04/07
23:06:50.00
17/04/07
23:06:50.00
tln
$BZ1503107-1_t0120$<tbV0>[-10.4,13.0,8.0,0.0,27,1,0]
370.000000
64









2002,4.07    
MIRTGS : RIGHTBACK : INTERNAL 2
MIR : ON : INTERNAL 2
OPTKBR

0.200000
8
8.000000
FILLER
RATIO
SPECTRUM
UNLOCKED 256

DOUBLE
64
COMBINED
1
0
0


1.000000
RATIO


1
0
TRUE
51149
0
LEFT NOT FITTED RIGHT NOT FITTED 0
NONE
NONE
15600
12.000000
4.427000
51148
TRUE
1 0 8 72 0 0 0 0 

15798.010000






#HDR
-1
-1
#GR
CM-1
%T
0.00002384185791015625
0.0
5000.000000
-1.000000
4631
8
70.460510
50.779151
#DATA
5000.000000	66.820359 
4999.000000	66.434550 
4998.000000	66.076231 
4997.000000	65.779590 
4996.000000	65.568661 
4995.000000	65.457296 
4994.000000	65.447211 
4993.000000	65.529155 
4992.000000	65.684461 
4991.000000	65.886831 
4990.000000	66.106772 
4989.000000	66.314840 
4988.000000	66.484022 
4987.000000	66.592383 
4986.000000	66.623044 
4985.000000	66.565108 
4984.000000	66.414785 
4983.000000	66.176509 
4982.000000	65.861940 
4981.000000	65.490365 
4980.000000	65.089416 
4979.000000	64.693355 
4978.000000	64.337539 
4977.000000	64.055490 
4976.000000	63.876342 
4975.000000	63.819789 
4974.000000	63.888978 
4973.000000	64.072465 
4972.000000	64.343738 
4971.000000	64.668893 
4970.000000	65.008163 
4969.000000	65.327978 
4968.000000	65.601229 
4967.000000	65.816593 
4966.000000	65.976929 
4965.000000	66.097140 
4964.000000	66.196894 
4963.000000	66.293883 
4962.000000	66.400051 
4961.000000	66.512966 
4960.000000	66.618156 
4959.000000	66.691112 
4958.000000	66.706275 
4957.000000	66.644406 
4956.000000	66.500306 
4955.000000	66.285252 
4954.000000	66.025114 
4953.000000	65.752959 
4952.000000	65.500712 
4951.000000	65.290951 
4950.000000	65.132427 
4949.000000	65.018653 
4948.000000	64.933180 
4947.000000	64.856767 
4946.000000	64.775681 
4945.000000	64.685273 
4944.000000	64.594459 
4943.000000	64.519834 
4942.000000	64.484000 
4941.000000	64.504933 
4940.000000	64.593672 
4939.000000	64.745903 
4938.000000	64.946675 
4937.000000	65.173816 
4936.000000	65.401959 
4935.000000	65.608406 
4934.000000	65.775990 
4933.000000	65.896081 
4932.000000	65.966320 
4931.000000	65.988850 
4930.000000	65.969300 
4929.000000	65.914559 
4928.000000	65.832877 
4927.000000	65.732502 
4926.000000	65.621495 
4925.000000	65.506720 
4924.000000	65.394306 
4923.000000	65.289115 
4922.000000	65.193295 
4921.000000	65.107607 
4920.000000	65.032005 
4919.000000	64.967298 
4918.000000	64.914345 
4917.000000	64.876079 
4916.000000	64.856338 
4915.000000	64.859008 
4914.000000	64.886021 
4913.000000	64.936280 
4912.000000	65.003824 
4911.000000	65.079331 
4910.000000	65.151476 
4909.000000	65.208816 
4908.000000	65.242266 
4907.000000	65.245962 
4906.000000	65.218448 
4905.000000	65.162110 
4904.000000	65.082263 
4903.000000	64.987874 
4902.000000	64.890050 
4901.000000	64.800858 
4900.000000	64.731049 
4899.000000	64.688754 
4898.000000	64.677762 
4897.000000	64.696574 
4896.000000	64.738726 
4895.000000	64.793586 
4894.000000	64.849090 
4893.000000	64.893960 
4892.000000	64.920783 
4891.000000	64.926648 
4890.000000	64.913821 
4889.000000	64.888763 
4888.000000	64.859843 
4887.000000	64.834117 
4886.000000	64.816045 
4885.000000	64.806175 
4884.000000	64.802122 
4883.000000	64.799666 
4882.000000	64.795207 
4881.000000	64.787745 
4880.000000	64.779210 
4879.000000	64.774060 
4878.000000	64.777231 
4877.000000	64.792227 
4876.000000	64.819216 
4875.000000	64.854335 
4874.000000	64.890480 
4873.000000	64.918899 
4872.000000	64.931344 
4871.000000	64.922428 
4870.000000	64.891672 
4869.000000	64.843320 
4868.000000	64.785361 
4867.000000	64.727258 
4866.000000	64.677691 
4865.000000	64.642596 
4864.000000	64.624142 
4863.000000	64.621162 
4862.000000	64.629507 
4861.000000	64.644551 
4860.000000	64.663076 
4859.000000	64.683961 
4858.000000	64.707779 
4857.000000	64.736652 
4856.000000	64.772415 
4855.000000	64.815926 
4854.000000	64.865374 
4853.000000	64.917325 
4852.000000	64.966869 
4851.000000	65.009498 
4850.000000	65.042233 
4849.000000	65.064358 
4848.000000	65.077447 
4847.000000	65.084719 
4846.000000	65.089726 
4845.000000	65.095353 
4844.000000	65.102505 
4843.000000	65.110206 
4842.000000	65.115404 
4841.000000	65.114665 
4840.000000	65.104436 
4839.000000	65.083003 
4838.000000	65.049886 
4837.000000	65.006422 
4836.000000	64.954829 
4835.000000	64.897894 
4834.000000	64.838290 
4833.000000	64.777755 
4832.000000	64.717698 
4831.000000	64.659357 
4830.000000	64.604330 
4829.000000	64.554643 
4828.000000	64.513134 
4827.000000	64.482641 
4826.000000	64.466214 
4825.000000	64.466118 
4824.000000	64.482927 
4823.000000	64.514732 
4822.000000	64.557027 
4821.000000	64.603114 
4820.000000	64.644551 
4819.000000	64.672994 
4818.000000	64.682245 
4817.000000	64.669752 
4816.000000	64.636993 
4815.000000	64.589381 
4814.000000	64.535474 
4813.000000	64.485025 
4812.000000	64.446926 
4811.000000	64.427423 
4810.000000	64.429235 
4809.000000	64.451217 
4808.000000	64.489293 
4807.000000	64.537739 
4806.000000	64.590597 
4805.000000	64.642691 
4804.000000	64.690589 
4803.000000	64.732480 
4802.000000	64.767384 
4801.000000	64.794993 
4800.000000	64.814853 
4799.000000	64.826345 
4798.000000	64.828515 
4797.000000	64.820861 
4796.000000	64.804077 
4795.000000	64.778876 
4794.000000	64.746117 
4793.000000	64.706683 
4792.000000	64.661407 
4791.000000	64.610457 
4790.000000	64.553713 
4789.000000	64.491343 
4788.000000	64.424490 
4787.000000	64.355301 
4786.000000	64.287567 
4785.000000	64.226007 
4784.000000	64.175724 
4783.000000	64.141082 
4782.000000	64.124536 
4781.000000	64.126229 
4780.000000	64.143371 
4779.000000	64.170026 
4778.000000	64.198708 
4777.000000	64.221382 
4776.000000	64.231729 
4775.000000	64.226078 
4774.000000	64.205288 
4773.000000	64.173316 
4772.000000	64.138293 
4771.000000	64.110231 
4770.000000	64.099550 
4769.000000	64.114522 
4768.000000	64.159822 
4767.000000	64.235234 
4766.000000	64.335775 
4765.000000	64.452600 
4764.000000	64.575004 
4763.000000	64.692282 
4762.000000	64.795589 
4761.000000	64.879417 
4760.000000	64.941406 
4759.000000	64.982843 
4758.000000	65.007519 
4757.000000	65.020871 
4756.000000	65.029287 
4755.000000	65.038037 
4754.000000	65.052175 
4753.000000	65.073561 
4752.000000	65.102386 
4751.000000	65.135169 
4750.000000	65.166759 
4749.000000	65.190505 
4748.000000	65.200042 
4747.000000	65.191173 
4746.000000	65.162706 
4745.000000	65.118002 
4744.000000	65.064287 
4743.000000	65.011382 
4742.000000	64.969444 
4741.000000	64.946341 
4740.000000	64.945530 
4739.000000	64.965057 
4738.000000	64.998078 
4737.000000	65.034770 
4736.000000	65.064978 
4735.000000	65.080881 
4734.000000	65.078878 
4733.000000	65.060448 
4732.000000	65.030598 
4731.000000	64.995980 
4730.000000	64.962267 
4729.000000	64.932894 
4728.000000	64.907503 
4727.000000	64.882636 
4726.000000	64.853096 
4725.000000	64.814662 
4724.000000	64.765620 
4723.000000	64.707922 
4722.000000	64.647126 
4721.000000	64.591169 
4720.000000	64.548230 
4719.000000	64.523792 
4718.000000	64.520001 
4717.000000	64.534759 
4716.000000	64.562582 
4715.000000	64.596199 
4714.000000	64.628887 
4713.000000	64.656352 
4712.000000	64.677667 
4711.000000	64.695239 
4710.000000	64.713621 
4709.000000	64.737796 
4708.000000	64.771628 
4707.000000	64.815998 
4706.000000	64.868664 
4705.000000	64.924025 
4704.000000	64.975428 
4703.000000	65.015244 
4702.000000	65.037512 
4701.000000	65.038013 
4700.000000	65.015983 
4699.000000	64.973235 
4698.000000	64.913463 
4697.000000	64.841699 
4696.000000	64.763736 
4695.000000	64.685297 
4694.000000	64.611577 
4693.000000	64.546799 
4692.000000	64.494633 
4691.000000	64.457225 
4690.000000	64.435100 
4689.000000	64.427256 
4688.000000	64.431190 
4687.000000	64.443135 
4686.000000	64.458703 
4685.000000	64.473628 
4684.000000	64.484596 
4683.000000	64.489650 
4682.000000	64.488768 
4681.000000	64.483404 
4680.000000	64.476513 
4679.000000	64.471387 
4678.000000	64.471507 
4677.000000	64.479565 
4676.000000	64.497041 
4675.000000	64.524149 
4674.000000	64.559602 
4673.000000	64.600968 
4672.000000	64.645147 
4671.000000	64.688754 
4670.000000	64.728927 
4669.000000	64.763307 
4668.000000	64.791011 
4667.000000	64.812397 
4666.000000	64.828944 
4665.000000	64.843273 
4664.000000	64.857721 
4663.000000	64.873886 
4662.000000	64.892196 
4661.000000	64.911937 
4660.000000	64.931535 
4659.000000	64.949369 
4658.000000	64.964318 
4657.000000	64.976286 
4656.000000	64.986777 
4655.000000	64.998269 
4654.000000	65.013742 
4653.000000	65.035629 
4652.000000	65.064978 
4651.000000	65.101099 
4650.000000	65.141701 
4649.000000	65.183043 
4648.000000	65.221190 
4647.000000	65.252494 
4646.000000	65.274667 
4645.000000	65.286827 
4644.000000	65.289163 
4643.000000	65.283060 
4642.000000	65.270161 
4641.000000	65.252566 
4640.000000	65.232801 
4639.000000	65.213179 
4638.000000	65.195870 
4637.000000	65.182018 
4636.000000	65.171980 
4635.000000	65.164160 
4634.000000	65.155720 
4633.000000	65.142750 
4632.000000	65.121674 
4631.000000	65.090155 
4630.000000	65.048360 
4629.000000	64.999580 
4628.000000	64.950060 
4627.000000	64.907693 
4626.000000	64.880228 
4625.000000	64.873361 
4624.000000	64.889335 
4623.000000	64.925861 
4622.000000	64.976716 
4621.000000	65.033292 
4620.000000	65.086412 
4619.000000	65.128922 
4618.000000	65.156650 
4617.000000	65.168786 
4616.000000	65.167427 
4615.000000	65.156316 
4614.000000	65.139341 
4613.000000	65.119361 
4612.000000	65.097498 
4611.000000	65.073466 
4610.000000	65.046024 
4609.000000	65.014314 
4608.000000	64.978575 
4607.000000	64.941024 
4606.000000	64.904999 
4605.000000	64.874458 
4604.000000	64.852571 
4603.000000	64.840936 
4602.000000	64.838814 
4601.000000	64.843535 
4600.000000	64.850640 
4599.000000	64.855790 
4598.000000	64.855766 
4597.000000	64.850187 
4596.000000	64.840984 
4595.000000	64.833068 
4594.000000	64.832615 
4593.000000	64.845991 
4592.000000	64.877891 
4591.000000	64.929842 
4590.000000	64.999914 
4589.000000	65.082144 
4588.000000	65.168118 
4587.000000	65.248036 
4586.000000	65.312814 
4585.000000	65.355753 
4584.000000	65.373802 
4583.000000	65.368366 
4582.000000	65.344762 
4581.000000	65.311145 
4580.000000	65.276575 
4579.000000	65.248513 
4578.000000	65.231180 
4577.000000	65.224838 
4576.000000	65.225958 
4575.000000	65.228319 
4574.000000	65.224885 
4573.000000	65.210270 
4572.000000	65.182161 
4571.000000	65.141487 
4570.000000	65.092873 
4569.000000	65.042734 
4568.000000	64.998722 
4567.000000	64.967751 
4566.000000	64.955258 
4565.000000	64.963746 
4564.000000	64.992928 
4563.000000	65.040302 
4562.000000	65.101051 
4561.000000	65.169262 
4560.000000	65.238261 
4559.000000	65.301251 
4558.000000	65.352082 
4557.000000	65.385437 
4556.000000	65.398001 
4555.000000	65.389108 
4554.000000	65.360808 
4553.000000	65.317726 
4552.000000	65.266489 
4551.000000	65.214848 
4550.000000	65.170407 
4549.000000	65.139412 
4548.000000	65.126466 
4547.000000	65.133619 
4546.000000	65.160489 
4545.000000	65.203905 
4544.000000	65.257906 
4543.000000	65.314745 
4542.000000	65.365624 
4541.000000	65.402984 
4540.000000	65.421366 
4539.000000	65.419077 
4538.000000	65.398478 
4537.000000	65.365219 
4536.000000	65.327000 
4535.000000	65.291452 
4534.000000	65.264725 
4533.000000	65.250086 
4532.000000	65.248131 
4531.000000	65.256571 
4530.000000	65.271735 
4529.000000	65.289330 
4528.000000	65.306210 
4527.000000	65.319895 
4526.000000	65.328812 
4525.000000	65.332126 
4524.000000	65.329527 
4523.000000	65.320444 
4522.000000	65.304398 
4521.000000	65.281629 
4520.000000	65.253448 
4519.000000	65.222859 
4518.000000	65.194153 
4517.000000	65.172457 
4516.000000	65.162110 
4515.000000	65.165662 
4514.000000	65.182685 
4513.000000	65.209579 
4512.000000	65.239930 
4511.000000	65.266156 
4510.000000	65.281224 
4509.000000	65.280365 
4508.000000	65.262126 
4507.000000	65.228939 
4506.000000	65.185809 
4505.000000	65.138840 
4504.000000	65.093660 
4503.000000	65.054535 
4502.000000	65.022611 
4501.000000	64.995694 
4500.000000	64.970207 
4499.000000	64.942812 
4498.000000	64.911103 
4497.000000	64.874362 
4496.000000	64.834237 
4495.000000	64.794135 
4494.000000	64.756488 
4493.000000	64.722490 
4492.000000	64.691591 
4491.000000	64.662480 
4490.000000	64.633202 
4489.000000	64.603209 
4488.000000	64.574742 
4487.000000	64.552545 
4486.000000	64.542341 
4485.000000	64.549708 
4484.000000	64.575958 
4483.000000	64.620184 
4482.000000	64.678502 
4481.000000	64.746427 
4480.000000	64.818072 
4479.000000	64.890313 
4478.000000	64.963006 
4477.000000	65.039372 
4476.000000	65.122032 
4475.000000	65.216970 
4474.000000	65.332555 
4473.000000	65.473747 
4472.000000	65.638661 
4471.000000	65.822553 
4470.000000	66.019177 
4469.000000	66.217279 
4468.000000	66.403532 
4467.000000	66.572618 
4466.000000	66.726779 
4465.000000	66.874027 
4464.000000	67.023348 
4463.000000	67.182612 
4462.000000	67.350649 
4461.000000	67.519640 
4460.000000	67.670059 
4459.000000	67.773246 
4458.000000	67.798113 
4457.000000	67.724061 
4456.000000	67.543220 
4455.000000	67.270708 
4454.000000	66.933107 
4453.000000	66.572785 
4452.000000	66.220760 
4451.000000	65.892696 
4450.000000	65.575599 
4449.000000	65.238213 
4448.000000	64.829635 
4447.000000	64.298510 
4446.000000	63.603973 
4445.000000	62.733674 
4444.000000	61.694860 
4443.000000	60.516905 
4442.000000	59.241557 
4441.000000	57.921814 
4440.000000	56.613802 
4439.000000	55.381870 
4438.000000	54.293918 
4437.000000	53.425741 
4436.000000	52.855086 
4435.000000	52.651286 
4434.000000	52.855324 
4433.000000	53.466606 
4432.000000	54.422140 
4431.000000	55.610728 
4430.000000	56.869173 
4429.000000	58.034157 
4428.000000	58.960819 
4427.000000	59.569644 
4426.000000	59.853506 
4425.000000	59.883737 
4424.000000	59.780693 
4423.000000	59.687495 
4422.000000	59.728884 
4421.000000	59.986853 
4420.000000	60.483789 
4419.000000	61.188077 
4418.000000	62.033104 
4417.000000	62.930798 
4416.000000	63.796925 
4415.000000	64.566540 
4414.000000	65.204763 
4413.000000	65.698313 
4412.000000	66.052174 
4411.000000	66.282606 
4410.000000	66.410303 
4409.000000	66.456127 
4408.000000	66.437840 
4407.000000	66.384458 
4406.000000	66.322708 
4405.000000	66.280889 
4404.000000	66.277194 
4403.000000	66.321444 
4402.000000	66.408610 
4401.000000	66.524839 
4400.000000	66.646981 
4399.000000	66.749167 
4398.000000	66.808772 
4397.000000	66.815686 
4396.000000	66.768312 
4395.000000	66.670775 
4394.000000	66.535639 
4393.000000	66.380667 
4392.000000	66.224431 
4391.000000	66.082620 
4390.000000	65.966892 
4389.000000	65.883708 
4388.000000	65.833425 
4387.000000	65.810918 
4386.000000	65.808701 
4385.000000	65.818333 
4384.000000	65.827226 
4383.000000	65.822744 
4382.000000	65.796542 
4381.000000	65.745997 
4380.000000	65.672755 
4379.000000	65.583252 
4378.000000	65.487146 
4377.000000	65.394783 
4376.000000	65.314221 
4375.000000	65.250205 
4374.000000	65.203499 
4373.000000	65.171599 
4372.000000	65.150332 
4371.000000	65.135288 
4370.000000	65.122771 
4369.000000	65.111327 
4368.000000	65.101003 
4367.000000	65.093970 
4366.000000	65.093183 
4365.000000	65.101623 
4364.000000	65.120744 
4363.000000	65.149974 
4362.000000	65.186214 
4361.000000	65.225005 
4360.000000	65.261411 
4359.000000	65.290641 
4358.000000	65.309262 
4357.000000	65.316295 
4356.000000	65.313315 
4355.000000	65.303969 
4354.000000	65.292811 
4353.000000	65.284705 
4352.000000	65.282988 
4351.000000	65.289044 
4350.000000	65.301728 
4349.000000	65.318083 
4348.000000	65.334200 
4347.000000	65.346455 
4346.000000	65.352606 
4345.000000	65.352630 
4344.000000	65.348577 
4343.000000	65.343523 
4342.000000	65.340781 
4341.000000	65.342831 
4340.000000	65.350675 
4339.000000	65.363526 
4338.000000	65.379095 
4337.000000	65.394353 
4336.000000	65.406107 
4335.000000	65.412116 
4334.000000	65.411114 
4333.000000	65.403103 
4332.000000	65.389013 
4331.000000	65.370297 
4330.000000	65.348696 
4329.000000	65.325546 
4328.000000	65.301871 
4327.000000	65.278124 
4326.000000	65.254497 
4325.000000	65.231108 
4324.000000	65.208101 
4323.000000	65.185761 
4322.000000	65.164470 
4321.000000	65.144705 
4320.000000	65.126895 
4319.000000	65.111327 
4318.000000	65.098237 
4317.000000	65.087676 
4316.000000	65.079689 
4315.000000	65.073966 
4314.000000	65.069842 
4313.000000	65.066289 
4312.000000	65.061974 
4311.000000	65.055489 
4310.000000	65.045475 
4309.000000	65.031456 
4308.000000	65.014243 
4307.000000	64.996218 
4306.000000	64.980983 
4305.000000	64.973330 
4304.000000	64.978098 
4303.000000	64.999103 
4302.000000	65.037775 
4301.000000	65.092706 
4300.000000	65.159344 
4299.000000	65.230798 
4298.000000	65.299034 
4297.000000	65.356302 
4296.000000	65.397238 
4295.000000	65.419602 
4294.000000	65.425252 
4293.000000	65.419077 
4292.000000	65.407848 
4291.000000	65.398573 
4290.000000	65.396142 
4289.000000	65.402555 
4288.000000	65.415835 
4287.000000	65.431356 
4286.000000	65.442705 
4285.000000	65.444016 
4284.000000	65.431356 
4283.000000	65.404129 
4282.000000	65.365123 
4281.000000	65.319633 
4280.000000	65.274000 
4279.000000	65.233826 
4278.000000	65.203094 
4277.000000	65.183234 
4276.000000	65.173077 
4275.000000	65.169668 
4274.000000	65.169668 
4273.000000	65.170145 
4272.000000	65.169358 
4271.000000	65.166783 
4270.000000	65.162992 
4269.000000	65.158915 
4268.000000	65.154647 
4267.000000	65.149402 
4266.000000	65.141510 
4265.000000	65.128755 
4264.000000	65.109014 
4263.000000	65.081191 
4262.000000	65.046000 
4261.000000	65.006017 
4260.000000	64.965438 
4259.000000	64.929318 
4258.000000	64.902400 
4257.000000	64.888191 
4256.000000	64.887952 
4255.000000	64.900112 
4254.000000	64.920520 
4253.000000	64.943146 
4252.000000	64.961338 
4251.000000	64.968585 
4250.000000	64.960145 
4249.000000	64.934062 
4248.000000	64.891767 
4247.000000	64.837217 
4246.000000	64.776659 
4245.000000	64.717459 
4244.000000	64.666795 
4243.000000	64.630198 
4242.000000	64.610743 
4241.000000	64.608597 
4240.000000	64.621400 
4239.000000	64.644742 
4238.000000	64.673328 
4237.000000	64.702057 
4236.000000	64.726948 
4235.000000	64.745259 
4234.000000	64.756202 
4233.000000	64.760160 
4232.000000	64.758682 
4231.000000	64.753389 
4230.000000	64.746117 
4229.000000	64.738321 
4228.000000	64.731454 
4227.000000	64.726805 
4226.000000	64.725947 
4225.000000	64.730787 
4224.000000	64.743280 
4223.000000	64.765119 
4222.000000	64.797163 
4221.000000	64.838910 
4220.000000	64.888262 
4219.000000	64.941740 
4218.000000	64.994359 
4217.000000	65.040922 
4216.000000	65.076732 
4215.000000	65.098571 
4214.000000	65.105342 
4213.000000	65.098381 
4212.000000	65.080857 
4211.000000	65.057253 
4210.000000	65.032720 
4209.000000	65.011668 
4208.000000	64.997386 
4207.000000	64.991116 
4206.000000	64.992499 
4205.000000	64.999604 
4204.000000	65.009951 
4203.000000	65.020799 
4202.000000	65.030002 
4201.000000	65.036153 
4200.000000	65.038776 
4199.000000	65.038228 
4198.000000	65.035271 
4197.000000	65.030288 
4196.000000	65.022921 
4195.000000	65.012288 
4194.000000	64.996647 
4193.000000	64.974212 
4192.000000	64.943289 
4191.000000	64.903235 
4190.000000	64.854598 
4189.000000	64.799523 
4188.000000	64.741730 
4187.000000	64.685678 
4186.000000	64.636111 
4185.000000	64.597320 
4184.000000	64.572024 
4183.000000	64.560961 
4182.000000	64.562654 
4181.000000	64.573478 
4180.000000	64.588832 
4179.000000	64.603471 
4178.000000	64.613556 
4177.000000	64.617109 
4176.000000	64.614868 
4175.000000	64.609861 
4174.000000	64.606809 
4173.000000	64.610886 
4172.000000	64.626216 
4171.000000	64.654421 
4170.000000	64.694261 
4169.000000	64.741563 
4168.000000	64.790320 
4167.000000	64.833998 
4166.000000	64.866924 
4165.000000	64.885783 
4164.000000	64.890456 
4163.000000	64.883971 
4162.000000	64.871573 
4161.000000	64.859271 
4160.000000	64.852809 
4159.000000	64.855575 
