PE IR       SPECTRUM    SPECTRUM    ASCII       PEDS        1.60        
  -1
BZ6DA3~1.ASC
17/04/07
17:45:15.00
17/04/07
17:45:15.00
tln
$BZ1503107-1_t0055$<tbV0>[-13.0,-2.6,8.0,0.0,27,1,0]
370.000000
64









2002,4.07    
MIRTGS : RIGHTBACK : INTERNAL 2
MIR : ON : INTERNAL 2
OPTKBR

0.200000
8
8.000000
FILLER
RATIO
SPECTRUM
UNLOCKED 256

DOUBLE
64
COMBINED
1
0
0


1.000000
RATIO


1
0
TRUE
51149
0
LEFT NOT FITTED RIGHT NOT FITTED 0
NONE
NONE
15600
12.000000
4.427000
51148
TRUE
1 0 8 72 0 0 0 0 

15798.010000






#HDR
-1
-1
#GR
CM-1
%T
0.00002384185791015625
0.0
5000.000000
-1.000000
4631
8
78.666210
51.739192
#DATA
5000.000000	66.871762 
4999.000000	66.972851 
4998.000000	67.028856 
4997.000000	67.030215 
4996.000000	66.975617 
4995.000000	66.873407 
4994.000000	66.740059 
4993.000000	66.593527 
4992.000000	66.455197 
4991.000000	66.346621 
4990.000000	66.286635 
4989.000000	66.288542 
4988.000000	66.357946 
4987.000000	66.492962 
4986.000000	66.680264 
4985.000000	66.897034 
4984.000000	67.112469 
4983.000000	67.293334 
4982.000000	67.408823 
4981.000000	67.437124 
4980.000000	67.370867 
4979.000000	67.219448 
4978.000000	67.006993 
4977.000000	66.767430 
4976.000000	66.539454 
4975.000000	66.356277 
4974.000000	66.240954 
4973.000000	66.198897 
4972.000000	66.220045 
4971.000000	66.279315 
4970.000000	66.345882 
4969.000000	66.388058 
4968.000000	66.381382 
4967.000000	66.312503 
4966.000000	66.180753 
4965.000000	65.996670 
4964.000000	65.776920 
4963.000000	65.540552 
4962.000000	65.304517 
4961.000000	65.080618 
4960.000000	64.874553 
4959.000000	64.687609 
4958.000000	64.519309 
4957.000000	64.368748 
4956.000000	64.237070 
4955.000000	64.126420 
4954.000000	64.040517 
4953.000000	63.983559 
4952.000000	63.960146 
4951.000000	63.971614 
4950.000000	64.017462 
4949.000000	64.095115 
4948.000000	64.201235 
4947.000000	64.330577 
4946.000000	64.477396 
4945.000000	64.634156 
4944.000000	64.793443 
4943.000000	64.947414 
4942.000000	65.089917 
4941.000000	65.215826 
4940.000000	65.323162 
4939.000000	65.413403 
4938.000000	65.490555 
4937.000000	65.560841 
4936.000000	65.629506 
4935.000000	65.700840 
4934.000000	65.774536 
4933.000000	65.846419 
4932.000000	65.909194 
4931.000000	65.955400 
4930.000000	65.977573 
4929.000000	65.970253 
4928.000000	65.932512 
4927.000000	65.868067 
4926.000000	65.783238 
4925.000000	65.685439 
4924.000000	65.582084 
4923.000000	65.479040 
4922.000000	65.379691 
4921.000000	65.285539 
4920.000000	65.197443 
4919.000000	65.116357 
4918.000000	65.044784 
4917.000000	64.986062 
4916.000000	64.943051 
4915.000000	64.917349 
4914.000000	64.907979 
4913.000000	64.911341 
4912.000000	64.919495 
4911.000000	64.924645 
4910.000000	64.920592 
4909.000000	64.905261 
4908.000000	64.880418 
4907.000000	64.852690 
4906.000000	64.831519 
4905.000000	64.826273 
4904.000000	64.843273 
4903.000000	64.884233 
4902.000000	64.945530 
4901.000000	65.019321 
4900.000000	65.095520 
4899.000000	65.164566 
4898.000000	65.219736 
4897.000000	65.258407 
4896.000000	65.281939 
4895.000000	65.293741 
4894.000000	65.297937 
4893.000000	65.297865 
4892.000000	65.294885 
4891.000000	65.288782 
4890.000000	65.277600 
4889.000000	65.260601 
4888.000000	65.237069 
4887.000000	65.207624 
4886.000000	65.173387 
4885.000000	65.135836 
4884.000000	65.096521 
4883.000000	65.056467 
4882.000000	65.016698 
4881.000000	64.978480 
4880.000000	64.943504 
4879.000000	64.913821 
4878.000000	64.891839 
4877.000000	64.879465 
4876.000000	64.877891 
4875.000000	64.886879 
4874.000000	64.904570 
4873.000000	64.927935 
4872.000000	64.953637 
4871.000000	64.978647 
4870.000000	65.000820 
4869.000000	65.019011 
4868.000000	65.033221 
4867.000000	65.043687 
4866.000000	65.049743 
4865.000000	65.049862 
4864.000000	65.042614 
4863.000000	65.026545 
4862.000000	65.001225 
4861.000000	64.967370 
4860.000000	64.926981 
4859.000000	64.883446 
4858.000000	64.840722 
4857.000000	64.803409 
4856.000000	64.775657 
4855.000000	64.761114 
4854.000000	64.761734 
4853.000000	64.777922 
4852.000000	64.808106 
4851.000000	64.849114 
4850.000000	64.896798 
4849.000000	64.946603 
4848.000000	64.994239 
4847.000000	65.036654 
4846.000000	65.071892 
4845.000000	65.099215 
4844.000000	65.118169 
4843.000000	65.128445 
4842.000000	65.128993 
4841.000000	65.117907 
4840.000000	65.092682 
4839.000000	65.051460 
4838.000000	64.994001 
4837.000000	64.923048 
4836.000000	64.844202 
4835.000000	64.766120 
4834.000000	64.697837 
4833.000000	64.646840 
4832.000000	64.616966 
4831.000000	64.607191 
4830.000000	64.612126 
4829.000000	64.623260 
4828.000000	64.631724 
4827.000000	64.630675 
4826.000000	64.617681 
4825.000000	64.594841 
4824.000000	64.568471 
4823.000000	64.546775 
4822.000000	64.537429 
4821.000000	64.544916 
4820.000000	64.569282 
4819.000000	64.605760 
4818.000000	64.646720 
4817.000000	64.683723 
4816.000000	64.709568 
4815.000000	64.720416 
4814.000000	64.716434 
4813.000000	64.701938 
4812.000000	64.683079 
4811.000000	64.666962 
4810.000000	64.659595 
4809.000000	64.664840 
4808.000000	64.684247 
4807.000000	64.716291 
4806.000000	64.757561 
4805.000000	64.802718 
4804.000000	64.846634 
4803.000000	64.884352 
4802.000000	64.911794 
4801.000000	64.926695 
4800.000000	64.928817 
4799.000000	64.919877 
4798.000000	64.903044 
4797.000000	64.882612 
4796.000000	64.863181 
4795.000000	64.848208 
4794.000000	64.839386 
4793.000000	64.835977 
4792.000000	64.835143 
4791.000000	64.832329 
4790.000000	64.822816 
4789.000000	64.802956 
4788.000000	64.771461 
4787.000000	64.730191 
4786.000000	64.683842 
4785.000000	64.638805 
4784.000000	64.602088 
4783.000000	64.579439 
4782.000000	64.574503 
4781.000000	64.587211 
4780.000000	64.614558 
4779.000000	64.651536 
4778.000000	64.692354 
4777.000000	64.731860 
4776.000000	64.766526 
4775.000000	64.794826 
4774.000000	64.817428 
4773.000000	64.836311 
4772.000000	64.854097 
4771.000000	64.872813 
4770.000000	64.893674 
4769.000000	64.916682 
4768.000000	64.940357 
4767.000000	64.962267 
4766.000000	64.979600 
4765.000000	64.990043 
4764.000000	64.992165 
4763.000000	64.985775 
4762.000000	64.972186 
4761.000000	64.953327 
4760.000000	64.931631 
4759.000000	64.908647 
4758.000000	64.885210 
4757.000000	64.860725 
4756.000000	64.833235 
4755.000000	64.800477 
4754.000000	64.760279 
4753.000000	64.712762 
4752.000000	64.660096 
4751.000000	64.607810 
4750.000000	64.563393 
4749.000000	64.535760 
4748.000000	64.532756 
4747.000000	64.559936 
4746.000000	64.618134 
4745.000000	64.703655 
4744.000000	64.808511 
4743.000000	64.921522 
4742.000000	65.030074 
4741.000000	65.122222 
4740.000000	65.188574 
4739.000000	65.223526 
4738.000000	65.226244 
4737.000000	65.200281 
4736.000000	65.152764 
4735.000000	65.093135 
4734.000000	65.031170 
4733.000000	64.975881 
4732.000000	64.933490 
4731.000000	64.907526 
4730.000000	64.897847 
4729.000000	64.901828 
4728.000000	64.914774 
4727.000000	64.931631 
4726.000000	64.948177 
4725.000000	64.961433 
4724.000000	64.970564 
4723.000000	64.976358 
4722.000000	64.980912 
4721.000000	64.985823 
4720.000000	64.992117 
4719.000000	64.999580 
4718.000000	65.007400 
4717.000000	65.014481 
4716.000000	65.020370 
4715.000000	65.025472 
4714.000000	65.031290 
4713.000000	65.040135 
4712.000000	65.053963 
4711.000000	65.073347 
4710.000000	65.097117 
4709.000000	65.122222 
4708.000000	65.143847 
4707.000000	65.156674 
4706.000000	65.156507 
4705.000000	65.141582 
4704.000000	65.113019 
4703.000000	65.075111 
4702.000000	65.034151 
4701.000000	64.997887 
4700.000000	64.973449 
4699.000000	64.966678 
4698.000000	64.981079 
4697.000000	65.016889 
4696.000000	65.071582 
4695.000000	65.139245 
4694.000000	65.212130 
4693.000000	65.280818 
4692.000000	65.335631 
4691.000000	65.368652 
4690.000000	65.374994 
4689.000000	65.354299 
4688.000000	65.310549 
4687.000000	65.252208 
4686.000000	65.190267 
4685.000000	65.136218 
4684.000000	65.099430 
4683.000000	65.084791 
4682.000000	65.091609 
4681.000000	65.114140 
4680.000000	65.143108 
4679.000000	65.168309 
4678.000000	65.181183 
4677.000000	65.177440 
4676.000000	65.157294 
4675.000000	65.125036 
4674.000000	65.087246 
4673.000000	65.050101 
4672.000000	65.017914 
4671.000000	64.991807 
4670.000000	64.969491 
4669.000000	64.947104 
4668.000000	64.920091 
4667.000000	64.885568 
4666.000000	64.843082 
4665.000000	64.795064 
4664.000000	64.746356 
4663.000000	64.702463 
4662.000000	64.668393 
4661.000000	64.646887 
4660.000000	64.638686 
4659.000000	64.642429 
4658.000000	64.655756 
4657.000000	64.676189 
4656.000000	64.702510 
4655.000000	64.735054 
4654.000000	64.775180 
4653.000000	64.824485 
4652.000000	64.883828 
4651.000000	64.952468 
4650.000000	65.027356 
4649.000000	65.103435 
4648.000000	65.174746 
4647.000000	65.235042 
4646.000000	65.279483 
4645.000000	65.305018 
4644.000000	65.311312 
4643.000000	65.300154 
4642.000000	65.275621 
4641.000000	65.242743 
4640.000000	65.206503 
4639.000000	65.171527 
4638.000000	65.141868 
4637.000000	65.120291 
4636.000000	65.108513 
4635.000000	65.106797 
4634.000000	65.114140 
4633.000000	65.127825 
4632.000000	65.143704 
4631.000000	65.156531 
4630.000000	65.160894 
4629.000000	65.152049 
4628.000000	65.126967 
4627.000000	65.085101 
4626.000000	65.028429 
4625.000000	64.961528 
4624.000000	64.890360 
4623.000000	64.820718 
4622.000000	64.757633 
4621.000000	64.704537 
4620.000000	64.663290 
4619.000000	64.634084 
4618.000000	64.616560 
4617.000000	64.610290 
4616.000000	64.615321 
4615.000000	64.631485 
4614.000000	64.658665 
4613.000000	64.695644 
4612.000000	64.739942 
4611.000000	64.787220 
4610.000000	64.832043 
4609.000000	64.868330 
4608.000000	64.891505 
4607.000000	64.899373 
4606.000000	64.892840 
4605.000000	64.875459 
4604.000000	64.852714 
4603.000000	64.830541 
4602.000000	64.813327 
4601.000000	64.802980 
4600.000000	64.797973 
4599.000000	64.794445 
4598.000000	64.787507 
4597.000000	64.773344 
4596.000000	64.750719 
4595.000000	64.721441 
4594.000000	64.690232 
4593.000000	64.663219 
4592.000000	64.646339 
4591.000000	64.643383 
4590.000000	64.653897 
4589.000000	64.674234 
4588.000000	64.698171 
4587.000000	64.719748 
4586.000000	64.734435 
4585.000000	64.741659 
4584.000000	64.744949 
4583.000000	64.751076 
4582.000000	64.768028 
4581.000000	64.802074 
4580.000000	64.855623 
4579.000000	64.925551 
4578.000000	65.003514 
4577.000000	65.077519 
4576.000000	65.134477 
4575.000000	65.163421 
4574.000000	65.157938 
4573.000000	65.117502 
4572.000000	65.047764 
4571.000000	64.958596 
4570.000000	64.862680 
4569.000000	64.772462 
4568.000000	64.698934 
4567.000000	64.650177 
4566.000000	64.631128 
4565.000000	64.643645 
4564.000000	64.686751 
4563.000000	64.757251 
4562.000000	64.849901 
4561.000000	64.957237 
4560.000000	65.070915 
4559.000000	65.181803 
4558.000000	65.281629 
4557.000000	65.363264 
4556.000000	65.422368 
4555.000000	65.457367 
4554.000000	65.469932 
4553.000000	65.464353 
4552.000000	65.445899 
4551.000000	65.419816 
4550.000000	65.390300 
4549.000000	65.359926 
4548.000000	65.329527 
4547.000000	65.298676 
4546.000000	65.266394 
4545.000000	65.231895 
4544.000000	65.195608 
4543.000000	65.159177 
4542.000000	65.124559 
4541.000000	65.094017 
4540.000000	65.069484 
4539.000000	65.051984 
4538.000000	65.041327 
4537.000000	65.036129 
4536.000000	65.033960 
4535.000000	65.032124 
4534.000000	65.027785 
4533.000000	65.019536 
4532.000000	65.007042 
4531.000000	64.992284 
4530.000000	64.977836 
4529.000000	64.968299 
4528.000000	64.968800 
4527.000000	64.983963 
4526.000000	65.016317 
4525.000000	65.065956 
4524.000000	65.130019 
4523.000000	65.202212 
4522.000000	65.273666 
4521.000000	65.334272 
4520.000000	65.374088 
4519.000000	65.385818 
4518.000000	65.365600 
4517.000000	65.314149 
4516.000000	65.236234 
4515.000000	65.140509 
4514.000000	65.036964 
4513.000000	64.935040 
4512.000000	64.841938 
4511.000000	64.762306 
4510.000000	64.697813 
4509.000000	64.647936 
4508.000000	64.610981 
4507.000000	64.585900 
4506.000000	64.571738 
4505.000000	64.567160 
4504.000000	64.570522 
4503.000000	64.578676 
4502.000000	64.587664 
4501.000000	64.592623 
4500.000000	64.589238 
4499.000000	64.574456 
4498.000000	64.546895 
4497.000000	64.507102 
4496.000000	64.457678 
4495.000000	64.402961 
4494.000000	64.348840 
4493.000000	64.301657 
4492.000000	64.266443 
4491.000000	64.246249 
4490.000000	64.241433 
4489.000000	64.250326 
4488.000000	64.268374 
4487.000000	64.291381 
4486.000000	64.315748 
4485.000000	64.341330 
4484.000000	64.371204 
4483.000000	64.410948 
4482.000000	64.465475 
4481.000000	64.537954 
4480.000000	64.627599 
4479.000000	64.729595 
4478.000000	64.836287 
4477.000000	64.938092 
4476.000000	65.023589 
4475.000000	65.087008 
4474.000000	65.132045 
4473.000000	65.165829 
4472.000000	65.195393 
4471.000000	65.228891 
4470.000000	65.272665 
4469.000000	65.324616 
4468.000000	65.374565 
4467.000000	65.403914 
4466.000000	65.390300 
4465.000000	65.326023 
4464.000000	65.217304 
4463.000000	65.068078 
4462.000000	64.888668 
4461.000000	64.698147 
4460.000000	64.522767 
4459.000000	64.394426 
4458.000000	64.341330 
4457.000000	64.383769 
4456.000000	64.522576 
4455.000000	64.742517 
4454.000000	65.003037 
4453.000000	65.249490 
4452.000000	65.413498 
4451.000000	65.438103 
4450.000000	65.267848 
4449.000000	64.867663 
4448.000000	64.211177 
4447.000000	63.291406 
4446.000000	62.112784 
4445.000000	60.699868 
4444.000000	59.104537 
4443.000000	57.419848 
4442.000000	55.794262 
4441.000000	54.431962 
4440.000000	53.606295 
4439.000000	53.604292 
4438.000000	54.680442 
4437.000000	56.959080 
4436.000000	60.359764 
4435.000000	64.574003 
4434.000000	69.075322 
4433.000000	73.235702 
4432.000000	76.461648 
4431.000000	78.321003 
4430.000000	78.666210 
4429.000000	77.618145 
4428.000000	75.525021 
4427.000000	72.853708 
4426.000000	70.068860 
4425.000000	67.537641 
4424.000000	65.484571 
4423.000000	63.970494 
4422.000000	62.963557 
4421.000000	62.347960 
4420.000000	62.007045 
4419.000000	61.840128 
4418.000000	61.792016 
4417.000000	61.852097 
4416.000000	62.036895 
4415.000000	62.366437 
4414.000000	62.839746 
4413.000000	63.423752 
4412.000000	64.053416 
4411.000000	64.650344 
4410.000000	65.138888 
4409.000000	65.469241 
4408.000000	65.624976 
4407.000000	65.624833 
4406.000000	65.513753 
4405.000000	65.350151 
4404.000000	65.189957 
4403.000000	65.067291 
4402.000000	64.995789 
4401.000000	64.985442 
4400.000000	65.029811 
4399.000000	65.114974 
4398.000000	65.221047 
4397.000000	65.330100 
4396.000000	65.425896 
4395.000000	65.497827 
4394.000000	65.537261 
4393.000000	65.532040 
4392.000000	65.481925 
4391.000000	65.400147 
4390.000000	65.303921 
4389.000000	65.210652 
4388.000000	65.134692 
4387.000000	65.084147 
4386.000000	65.061163 
4385.000000	65.062403 
4384.000000	65.081763 
4383.000000	65.111851 
4382.000000	65.146517 
4381.000000	65.181398 
4380.000000	65.210843 
4379.000000	65.230345 
4378.000000	65.237569 
4377.000000	65.232133 
4376.000000	65.213632 
4375.000000	65.183544 
4374.000000	65.144801 
4373.000000	65.102148 
4372.000000	65.062069 
4371.000000	65.031528 
4370.000000	65.016889 
4369.000000	65.022492 
4368.000000	65.049862 
4367.000000	65.096640 
4366.000000	65.156960 
4365.000000	65.222191 
4364.000000	65.282487 
4363.000000	65.329384 
4362.000000	65.357375 
4361.000000	65.364956 
4360.000000	65.354466 
4359.000000	65.330672 
4358.000000	65.299296 
4357.000000	65.265774 
4356.000000	65.234041 
4355.000000	65.206146 
4354.000000	65.182352 
4353.000000	65.162706 
4352.000000	65.146589 
4351.000000	65.134000 
4350.000000	65.124869 
4349.000000	65.118861 
4348.000000	65.115499 
4347.000000	65.113663 
4346.000000	65.112137 
4345.000000	65.109133 
4344.000000	65.103459 
4343.000000	65.094757 
4342.000000	65.084004 
4341.000000	65.072941 
4340.000000	65.063786 
4339.000000	65.058517 
4338.000000	65.058374 
4337.000000	65.063524 
4336.000000	65.073227 
4335.000000	65.086245 
4334.000000	65.101361 
4333.000000	65.117573 
4332.000000	65.133976 
4331.000000	65.149831 
4330.000000	65.164303 
4329.000000	65.176653 
4328.000000	65.186452 
4327.000000	65.193247 
4326.000000	65.197706 
4325.000000	65.200066 
4324.000000	65.200281 
4323.000000	65.196967 
4322.000000	65.188074 
4321.000000	65.170550 
4320.000000	65.141415 
4319.000000	65.098619 
4318.000000	65.042233 
4317.000000	64.974832 
4316.000000	64.901471 
4315.000000	64.829182 
4314.000000	64.765667 
4313.000000	64.717745 
4312.000000	64.689970 
4311.000000	64.683961 
4310.000000	64.698028 
4309.000000	64.728331 
4308.000000	64.769887 
4307.000000	64.817738 
4306.000000	64.868164 
4305.000000	64.918589 
4304.000000	64.967894 
4303.000000	65.015363 
4302.000000	65.060281 
4301.000000	65.101814 
4300.000000	65.138435 
4299.000000	65.168666 
4298.000000	65.190553 
4297.000000	65.202641 
4296.000000	65.203833 
4295.000000	65.194177 
4294.000000	65.174961 
4293.000000	65.148591 
4292.000000	65.118598 
4291.000000	65.089392 
4290.000000	65.065383 
4289.000000	65.050506 
4288.000000	65.047335 
4287.000000	65.056848 
4286.000000	65.077733 
4285.000000	65.106654 
4284.000000	65.138959 
4283.000000	65.169453 
4282.000000	65.193629 
4281.000000	65.208101 
4280.000000	65.211582 
4279.000000	65.204620 
4278.000000	65.189194 
4277.000000	65.167856 
4276.000000	65.143036 
4275.000000	65.116524 
4274.000000	65.089845 
4273.000000	65.064287 
4272.000000	65.041208 
4271.000000	65.021991 
4270.000000	65.008258 
4269.000000	65.001153 
4268.000000	65.000891 
4267.000000	65.006589 
4266.000000	65.016150 
4265.000000	65.026569 
4264.000000	65.034508 
4263.000000	65.037131 
4262.000000	65.032553 
4261.000000	65.020608 
4260.000000	65.002560 
4259.000000	64.981222 
4258.000000	64.960026 
4257.000000	64.942193 
4256.000000	64.930081 
4255.000000	64.924740 
4254.000000	64.925813 
4253.000000	64.931750 
4252.000000	64.940381 
4251.000000	64.949560 
4250.000000	64.957833 
4249.000000	64.964461 
4248.000000	64.969491 
4247.000000	64.973664 
4246.000000	64.978027 
4245.000000	64.983463 
4244.000000	64.990878 
4243.000000	65.000486 
4242.000000	65.012216 
4241.000000	65.026283 
4240.000000	65.042662 
4239.000000	65.061545 
4238.000000	65.082454 
4237.000000	65.105104 
4236.000000	65.127754 
4235.000000	65.147686 
4234.000000	65.160989 
4233.000000	65.163755 
4232.000000	65.152573 
4231.000000	65.125608 
4230.000000	65.083384 
4229.000000	65.029358 
4228.000000	64.969110 
4227.000000	64.909529 
4226.000000	64.857339 
4225.000000	64.817857 
4224.000000	64.793992 
4223.000000	64.785957 
4222.000000	64.791297 
4221.000000	64.806032 
4220.000000	64.825773 
4219.000000	64.847016 
4218.000000	64.867234 
4217.000000	64.885783 
4216.000000	64.903426 
4215.000000	64.922094 
4214.000000	64.943242 
4213.000000	64.968061 
4212.000000	64.996743 
4211.000000	65.028810 
4210.000000	65.063238 
4209.000000	65.099048 
4208.000000	65.135693 
4207.000000	65.172719 
4206.000000	65.209937 
4205.000000	65.246486 
4204.000000	65.280842 
4203.000000	65.310215 
4202.000000	65.331053 
4201.000000	65.339660 
4200.000000	65.333318 
4199.000000	65.311121 
4198.000000	65.274620 
4197.000000	65.227866 
4196.000000	65.176630 
4195.000000	65.127325 
4194.000000	65.085577 
4193.000000	65.054607 
4192.000000	65.034818 
4191.000000	65.023970 
4190.000000	65.018057 
4189.000000	65.012812 
4188.000000	65.005087 
4187.000000	64.993596 
4186.000000	64.979577 
4185.000000	64.965748 
4184.000000	64.955449 
4183.000000	64.950871 
4182.000000	64.952468 
4181.000000	64.958453 
4180.000000	64.965152 
4179.000000	64.968204 
4178.000000	64.963603 
4177.000000	64.949011 
4176.000000	64.924240 
4175.000000	64.891195 
4174.000000	64.852976 
4173.000000	64.813089 
4172.000000	64.774274 
4171.000000	64.738106 
4170.000000	64.704895 
4169.000000	64.674496 
4168.000000	64.647150 
4167.000000	64.624118 
4166.000000	64.607930 
4165.000000	64.601945 
4164.000000	64.609599 
4163.000000	64.633035 
4162.000000	64.671897 
4161.000000	64.723157 
4160.000000	64.781022 
4159.000000	64.838171 
