PE IR       SPECTRUM    SPECTRUM    ASCII       PEDS        1.60        
  -1
BZ4CFA~1.ASC
17/04/07
22:34:29.00
17/04/07
22:34:29.00
tln
$BZ1503107-1_t0113$<tbV0>[7.8,13.0,8.0,0.0,27,1,0]
370.000000
64









2002,4.07    
MIRTGS : RIGHTBACK : INTERNAL 2
MIR : ON : INTERNAL 2
OPTKBR

0.200000
8
8.000000
FILLER
RATIO
SPECTRUM
UNLOCKED 256

DOUBLE
64
COMBINED
1
0
0


1.000000
RATIO


1
0
TRUE
51149
0
LEFT NOT FITTED RIGHT NOT FITTED 0
NONE
NONE
15600
12.000000
4.427000
51148
TRUE
1 0 8 72 0 0 0 0 

15798.010000






#HDR
-1
-1
#GR
CM-1
%T
0.00002384185791015625
0.0
5000.000000
-1.000000
4631
8
68.877291
50.346016
#DATA
5000.000000	65.471744 
4999.000000	65.237998 
4998.000000	65.029048 
4997.000000	64.859747 
4996.000000	64.744138 
4995.000000	64.692449 
4994.000000	64.709806 
4993.000000	64.793372 
4992.000000	64.932584 
4991.000000	65.109252 
4990.000000	65.299558 
4989.000000	65.476965 
4988.000000	65.615487 
4987.000000	65.693593 
4986.000000	65.696167 
4985.000000	65.616607 
4984.000000	65.457677 
4983.000000	65.231251 
4982.000000	64.955878 
4981.000000	64.654707 
4980.000000	64.353775 
4979.000000	64.079475 
4978.000000	63.855314 
4977.000000	63.699865 
4976.000000	63.625288 
4975.000000	63.635635 
4974.000000	63.725399 
4973.000000	63.881182 
4972.000000	64.081239 
4971.000000	64.301586 
4970.000000	64.516329 
4969.000000	64.706134 
4968.000000	64.857244 
4967.000000	64.967370 
4966.000000	65.043425 
4965.000000	65.099573 
4964.000000	65.152311 
4963.000000	65.215301 
4962.000000	65.296483 
4961.000000	65.394258 
4960.000000	65.498948 
4959.000000	65.594339 
4958.000000	65.663099 
4957.000000	65.691304 
4956.000000	65.672802 
4955.000000	65.610551 
4954.000000	65.515804 
4953.000000	65.404629 
4952.000000	65.293478 
4951.000000	65.195775 
4950.000000	65.118741 
4949.000000	65.062069 
4948.000000	65.019488 
4947.000000	64.983177 
4946.000000	64.946269 
4945.000000	64.904427 
4944.000000	64.858341 
4943.000000	64.812302 
4942.000000	64.774036 
4941.000000	64.750957 
4940.000000	64.748883 
4939.000000	64.768600 
4938.000000	64.806270 
4937.000000	64.854526 
4936.000000	64.903259 
4935.000000	64.941740 
4934.000000	64.961051 
4933.000000	64.956378 
4932.000000	64.927124 
4931.000000	64.876770 
4930.000000	64.812040 
4929.000000	64.741277 
4928.000000	64.672803 
4927.000000	64.613509 
4926.000000	64.567947 
4925.000000	64.538240 
4924.000000	64.524364 
4923.000000	64.525365 
4922.000000	64.539909 
4921.000000	64.567399 
4920.000000	64.608168 
4919.000000	64.663076 
4918.000000	64.732098 
4917.000000	64.814019 
4916.000000	64.905238 
4915.000000	65.000176 
4914.000000	65.091776 
4913.000000	65.172219 
4912.000000	65.234923 
4911.000000	65.274691 
4910.000000	65.289235 
4909.000000	65.279078 
4908.000000	65.247654 
4907.000000	65.200519 
4906.000000	65.144729 
4905.000000	65.087580 
4904.000000	65.035963 
4903.000000	64.995598 
4902.000000	64.970588 
4901.000000	64.963054 
4900.000000	64.972925 
4899.000000	64.997959 
4898.000000	65.034294 
4897.000000	65.076708 
4896.000000	65.119338 
4895.000000	65.156459 
4894.000000	65.183138 
4893.000000	65.196084 
4892.000000	65.193819 
4891.000000	65.176272 
4890.000000	65.144753 
4889.000000	65.101909 
4888.000000	65.050840 
4887.000000	64.995431 
4886.000000	64.939212 
4885.000000	64.885497 
4884.000000	64.836645 
4883.000000	64.794111 
4882.000000	64.758253 
4881.000000	64.728260 
4880.000000	64.703154 
4879.000000	64.682269 
4878.000000	64.665555 
4877.000000	64.653348 
4876.000000	64.646005 
4875.000000	64.643311 
4874.000000	64.644074 
4873.000000	64.646339 
4872.000000	64.646840 
4871.000000	64.642405 
4870.000000	64.630770 
4869.000000	64.612221 
4868.000000	64.589738 
4867.000000	64.569306 
4866.000000	64.558458 
4865.000000	64.564538 
4864.000000	64.592528 
4863.000000	64.643573 
4862.000000	64.714097 
4861.000000	64.796280 
4860.000000	64.880204 
4859.000000	64.955425 
4858.000000	65.013694 
4857.000000	65.049791 
4856.000000	65.062308 
4855.000000	65.053176 
4854.000000	65.026569 
4853.000000	64.988112 
4852.000000	64.943623 
4851.000000	64.898967 
4850.000000	64.859676 
4849.000000	64.830994 
4848.000000	64.817643 
4847.000000	64.823412 
4846.000000	64.850544 
4845.000000	64.898753 
4844.000000	64.964842 
4843.000000	65.042352 
4842.000000	65.122723 
4841.000000	65.196847 
4840.000000	65.256643 
4839.000000	65.297126 
4838.000000	65.316557 
4837.000000	65.316987 
4836.000000	65.302395 
4835.000000	65.278100 
4834.000000	65.248274 
4833.000000	65.215706 
4832.000000	65.180349 
4831.000000	65.141010 
4830.000000	65.095233 
4829.000000	65.041637 
4828.000000	64.980220 
4827.000000	64.913129 
4826.000000	64.844799 
4825.000000	64.781117 
4824.000000	64.727926 
4823.000000	64.689397 
4822.000000	64.667105 
4821.000000	64.659667 
4820.000000	64.662861 
4819.000000	64.670944 
4818.000000	64.678263 
4817.000000	64.680862 
4816.000000	64.676761 
4815.000000	64.666867 
4814.000000	64.654326 
4813.000000	64.643621 
4812.000000	64.638638 
4811.000000	64.641880 
4810.000000	64.654159 
4809.000000	64.674305 
4808.000000	64.699506 
4807.000000	64.726233 
4806.000000	64.751434 
4805.000000	64.772844 
4804.000000	64.789795 
4803.000000	64.802575 
4802.000000	64.811849 
4801.000000	64.818358 
4800.000000	64.822530 
4799.000000	64.824318 
4798.000000	64.823126 
4797.000000	64.818167 
4796.000000	64.809179 
4795.000000	64.795494 
4794.000000	64.776492 
4793.000000	64.751529 
4792.000000	64.720320 
4791.000000	64.682626 
4790.000000	64.638328 
4789.000000	64.588356 
4788.000000	64.534568 
4787.000000	64.478993 
4786.000000	64.423966 
4785.000000	64.371800 
4784.000000	64.324760 
4783.000000	64.284920 
4782.000000	64.254355 
4781.000000	64.234614 
4780.000000	64.227175 
4779.000000	64.232635 
4778.000000	64.250612 
4777.000000	64.279222 
4776.000000	64.315080 
4775.000000	64.353346 
4774.000000	64.388751 
4773.000000	64.415884 
4772.000000	64.431071 
4771.000000	64.433073 
4770.000000	64.423680 
4769.000000	64.407086 
4768.000000	64.389324 
4767.000000	64.377140 
4766.000000	64.376282 
4765.000000	64.390683 
4764.000000	64.422130 
4763.000000	64.470052 
4762.000000	64.532399 
4761.000000	64.605665 
4760.000000	64.685368 
4759.000000	64.766073 
4758.000000	64.842200 
4757.000000	64.908170 
4756.000000	64.958739 
4755.000000	64.990115 
4754.000000	65.000557 
4753.000000	64.990663 
4752.000000	64.963889 
4751.000000	64.925503 
4750.000000	64.882755 
4749.000000	64.842367 
4748.000000	64.810180 
4747.000000	64.788961 
4746.000000	64.778780 
4745.000000	64.776325 
4744.000000	64.776635 
4743.000000	64.774012 
4742.000000	64.763736 
4741.000000	64.743804 
4740.000000	64.715433 
4739.000000	64.682841 
4738.000000	64.652299 
4737.000000	64.630961 
4736.000000	64.624905 
4735.000000	64.637565 
4734.000000	64.668774 
4733.000000	64.714789 
4732.000000	64.768695 
4731.000000	64.821958 
4730.000000	64.865994 
4729.000000	64.894366 
4728.000000	64.903783 
4727.000000	64.893841 
4726.000000	64.867496 
4725.000000	64.829897 
4724.000000	64.787197 
4723.000000	64.744949 
4722.000000	64.707446 
4721.000000	64.676976 
4720.000000	64.654350 
4719.000000	64.639496 
4718.000000	64.631676 
4717.000000	64.630174 
4716.000000	64.634442 
4715.000000	64.644265 
4714.000000	64.659118 
4713.000000	64.677810 
4712.000000	64.698266 
4711.000000	64.717650 
4710.000000	64.733147 
4709.000000	64.742493 
4708.000000	64.744734 
4707.000000	64.740133 
4706.000000	64.730429 
4705.000000	64.717626 
4704.000000	64.703655 
4703.000000	64.689254 
4702.000000	64.673781 
4701.000000	64.655232 
4700.000000	64.630818 
4699.000000	64.598774 
4698.000000	64.559221 
4697.000000	64.515256 
4696.000000	64.472436 
4695.000000	64.438104 
4694.000000	64.419674 
4693.000000	64.422917 
4692.000000	64.450287 
4691.000000	64.499878 
4690.000000	64.565515 
4689.000000	64.637827 
4688.000000	64.706277 
4687.000000	64.760875 
4686.000000	64.794301 
4685.000000	64.802980 
4684.000000	64.787673 
4683.000000	64.752721 
4682.000000	64.705181 
4681.000000	64.653396 
4680.000000	64.605283 
4679.000000	64.567184 
4678.000000	64.542651 
4677.000000	64.532947 
4676.000000	64.536452 
4675.000000	64.549612 
4674.000000	64.567708 
4673.000000	64.585614 
4672.000000	64.599561 
4671.000000	64.606976 
4670.000000	64.607763 
4669.000000	64.603638 
4668.000000	64.597940 
4667.000000	64.594531 
4666.000000	64.596748 
4665.000000	64.606571 
4664.000000	64.623856 
4663.000000	64.646315 
4662.000000	64.670085 
4661.000000	64.690947 
4660.000000	64.705514 
4659.000000	64.712238 
4658.000000	64.711761 
4657.000000	64.706873 
4656.000000	64.702177 
4655.000000	64.702749 
4654.000000	64.712738 
4653.000000	64.734482 
4652.000000	64.768028 
4651.000000	64.810967 
4650.000000	64.859437 
4649.000000	64.908576 
4648.000000	64.953827 
4647.000000	64.991116 
4646.000000	65.018200 
4645.000000	65.034103 
4644.000000	65.038752 
4643.000000	65.033149 
4642.000000	65.018892 
4641.000000	64.998054 
4640.000000	64.973473 
4639.000000	64.947962 
4638.000000	64.924764 
4637.000000	64.906239 
4636.000000	64.893674 
4635.000000	64.886903 
4634.000000	64.884257 
4633.000000	64.883160 
4632.000000	64.880776 
4631.000000	64.875125 
4630.000000	64.865660 
4629.000000	64.853787 
4628.000000	64.842271 
4627.000000	64.834356 
4626.000000	64.832782 
4625.000000	64.838647 
4624.000000	64.851450 
4623.000000	64.868521 
4622.000000	64.886474 
4621.000000	64.902448 
4620.000000	64.914965 
4619.000000	64.924716 
4618.000000	64.933967 
4617.000000	64.945721 
4616.000000	64.962172 
4615.000000	64.983606 
4614.000000	65.008234 
4613.000000	65.032553 
4612.000000	65.052318 
4611.000000	65.064001 
4610.000000	65.066003 
4609.000000	65.059471 
4608.000000	65.048027 
4607.000000	65.037131 
4606.000000	65.032291 
4605.000000	65.037441 
4604.000000	65.053939 
4603.000000	65.080046 
4602.000000	65.111136 
4601.000000	65.140652 
4600.000000	65.161919 
4599.000000	65.169739 
4598.000000	65.161252 
4597.000000	65.137028 
4596.000000	65.100765 
4595.000000	65.058851 
4594.000000	65.018963 
4593.000000	64.988398 
4592.000000	64.973139 
4591.000000	64.975428 
4590.000000	64.994239 
4589.000000	65.024232 
4588.000000	65.057492 
4587.000000	65.085005 
4586.000000	65.098500 
4585.000000	65.093040 
4584.000000	65.067481 
4583.000000	65.025877 
4582.000000	64.976286 
4581.000000	64.929080 
4580.000000	64.894294 
4579.000000	64.879465 
4578.000000	64.887762 
4577.000000	64.917469 
4576.000000	64.962720 
4575.000000	65.015339 
4574.000000	65.067076 
4573.000000	65.111851 
4572.000000	65.146994 
4571.000000	65.173125 
4570.000000	65.193510 
4569.000000	65.211677 
4568.000000	65.230894 
4567.000000	65.252661 
4566.000000	65.276813 
4565.000000	65.301918 
4564.000000	65.325570 
4563.000000	65.346074 
4562.000000	65.361976 
4561.000000	65.373539 
4560.000000	65.381193 
4559.000000	65.385127 
4558.000000	65.384697 
4557.000000	65.378069 
4556.000000	65.363049 
4555.000000	65.338087 
4554.000000	65.303373 
4553.000000	65.261554 
4552.000000	65.218114 
4551.000000	65.180659 
4550.000000	65.157604 
4549.000000	65.156078 
4548.000000	65.180134 
4547.000000	65.229249 
4546.000000	65.297985 
4545.000000	65.376567 
4544.000000	65.452575 
4543.000000	65.513467 
4542.000000	65.548443 
4541.000000	65.551638 
4540.000000	65.523147 
4539.000000	65.469264 
4538.000000	65.400767 
4537.000000	65.330433 
4536.000000	65.270614 
4535.000000	65.229892 
4534.000000	65.212273 
4533.000000	65.215420 
4532.000000	65.232563 
4531.000000	65.253710 
4530.000000	65.269255 
4529.000000	65.271687 
4528.000000	65.257549 
4527.000000	65.228080 
4526.000000	65.188288 
4525.000000	65.145754 
4524.000000	65.108299 
4523.000000	65.082073 
4522.000000	65.070199 
4521.000000	65.072655 
4520.000000	65.086364 
4519.000000	65.106654 
4518.000000	65.128278 
4517.000000	65.146660 
4516.000000	65.158295 
4515.000000	65.160894 
4514.000000	65.153574 
4513.000000	65.135931 
4512.000000	65.108871 
4511.000000	65.073466 
4510.000000	65.032529 
4509.000000	64.990401 
4508.000000	64.953279 
4507.000000	64.928245 
4506.000000	64.922285 
4505.000000	64.940953 
4504.000000	64.986395 
4503.000000	65.056777 
4502.000000	65.145301 
4501.000000	65.240955 
4500.000000	65.330624 
4499.000000	65.401721 
4498.000000	65.445184 
4497.000000	65.456914 
4496.000000	65.439486 
4495.000000	65.400981 
4494.000000	65.351581 
4493.000000	65.301179 
4492.000000	65.257859 
4491.000000	65.226578 
4490.000000	65.208911 
4489.000000	65.203309 
4488.000000	65.208482 
4487.000000	65.221929 
4486.000000	65.240597 
4485.000000	65.260267 
4484.000000	65.275216 
4483.000000	65.279531 
4482.000000	65.268182 
4481.000000	65.238690 
4480.000000	65.191411 
4479.000000	65.130615 
4478.000000	65.063858 
4477.000000	65.000557 
4476.000000	64.948415 
4475.000000	64.915084 
4474.000000	64.907383 
4473.000000	64.928722 
4472.000000	64.977383 
4471.000000	65.052390 
4470.000000	65.154695 
4469.000000	65.281367 
4468.000000	65.426206 
4467.000000	65.587949 
4466.000000	65.768408 
4465.000000	65.964937 
4464.000000	66.171121 
4463.000000	66.378474 
4462.000000	66.575479 
4461.000000	66.755199 
4460.000000	66.909885 
4459.000000	67.026400 
4458.000000	67.091059 
4457.000000	67.097115 
4456.000000	67.042398 
4455.000000	66.935801 
4454.000000	66.788744 
4453.000000	66.619563 
4452.000000	66.438961 
4451.000000	66.250419 
4450.000000	66.044926 
4449.000000	65.808582 
4448.000000	65.520095 
4447.000000	65.161728 
4446.000000	64.715933 
4445.000000	64.174842 
4444.000000	63.517785 
4443.000000	62.716650 
4442.000000	61.730217 
4441.000000	60.524177 
4440.000000	59.079098 
4439.000000	57.425117 
4438.000000	55.648803 
4437.000000	53.911018 
4436.000000	52.433204 
4435.000000	51.461386 
4434.000000	51.214122 
4433.000000	51.819634 
4432.000000	53.266739 
4431.000000	55.392169 
4430.000000	57.886099 
4429.000000	60.370349 
4428.000000	62.465620 
4427.000000	63.888192 
4426.000000	64.501166 
4425.000000	64.346647 
4424.000000	63.613247 
4423.000000	62.589812 
4422.000000	61.581039 
4421.000000	60.842418 
4420.000000	60.525846 
4419.000000	60.664534 
4418.000000	61.192417 
4417.000000	61.970996 
4416.000000	62.842917 
4415.000000	63.670349 
4414.000000	64.368867 
4413.000000	64.900946 
4412.000000	65.275239 
4411.000000	65.519523 
4410.000000	65.669417 
4409.000000	65.750932 
4408.000000	65.777039 
4407.000000	65.764594 
4406.000000	65.724134 
4405.000000	65.670752 
4404.000000	65.615606 
4403.000000	65.572476 
4402.000000	65.549111 
4401.000000	65.547895 
4400.000000	65.564918 
4399.000000	65.589451 
4398.000000	65.610623 
4397.000000	65.625715 
4396.000000	65.633487 
4395.000000	65.630793 
4394.000000	65.618038 
4393.000000	65.599298 
4392.000000	65.578007 
4391.000000	65.555810 
4390.000000	65.532875 
4389.000000	65.507912 
4388.000000	65.483283 
4387.000000	65.464878 
4386.000000	65.461373 
4385.000000	65.481710 
4384.000000	65.528726 
4383.000000	65.598535 
4382.000000	65.683722 
4381.000000	65.773439 
4380.000000	65.854477 
4379.000000	65.914726 
4378.000000	65.946245 
4377.000000	65.946626 
4376.000000	65.918827 
4375.000000	65.870785 
4374.000000	65.814113 
4373.000000	65.760827 
4372.000000	65.721988 
4371.000000	65.703296 
4370.000000	65.705204 
4369.000000	65.721130 
4368.000000	65.740799 
4367.000000	65.750813 
4366.000000	65.738844 
4365.000000	65.695858 
4364.000000	65.618729 
4363.000000	65.511035 
4362.000000	65.382456 
4361.000000	65.247082 
4360.000000	65.120506 
4359.000000	65.017056 
4358.000000	64.947175 
4357.000000	64.915609 
4356.000000	64.920997 
4355.000000	64.956855 
4354.000000	65.013098 
4353.000000	65.078115 
4352.000000	65.141248 
4351.000000	65.193533 
4350.000000	65.229821 
4349.000000	65.247535 
4348.000000	65.247654 
4347.000000	65.233182 
4346.000000	65.209054 
4345.000000	65.180754 
4344.000000	65.153861 
4343.000000	65.133547 
4342.000000	65.123724 
4341.000000	65.127086 
4340.000000	65.144133 
4339.000000	65.173244 
4338.000000	65.210556 
4337.000000	65.250778 
4336.000000	65.287828 
4335.000000	65.316057 
4334.000000	65.331244 
4333.000000	65.331220 
4332.000000	65.315985 
4331.000000	65.287446 
4330.000000	65.249300 
4329.000000	65.206456 
4328.000000	65.163612 
4327.000000	65.125107 
4326.000000	65.094852 
4325.000000	65.075755 
4324.000000	65.069890 
4323.000000	65.077924 
4322.000000	65.099477 
4321.000000	65.132474 
4320.000000	65.173554 
4319.000000	65.217804 
4318.000000	65.259361 
4317.000000	65.291929 
4316.000000	65.309786 
4315.000000	65.308475 
4314.000000	65.285968 
4313.000000	65.242695 
4312.000000	65.181660 
4311.000000	65.108084 
4310.000000	65.028619 
4309.000000	64.950728 
4308.000000	64.881587 
4307.000000	64.827370 
4306.000000	64.792418 
4305.000000	64.778637 
4304.000000	64.785528 
4303.000000	64.809942 
4302.000000	64.846873 
4301.000000	64.889788 
4300.000000	64.932346 
4299.000000	64.968585 
4298.000000	64.994955 
4297.000000	65.010142 
4296.000000	65.015959 
4295.000000	65.016269 
4294.000000	65.016317 
4293.000000	65.021252 
4292.000000	65.034556 
4291.000000	65.057635 
4290.000000	65.088748 
4289.000000	65.124058 
4288.000000	65.157961 
4287.000000	65.184926 
4286.000000	65.200161 
4285.000000	65.200924 
4284.000000	65.186929 
4283.000000	65.160441 
4282.000000	65.125799 
4281.000000	65.088367 
4280.000000	65.053868 
4279.000000	65.027236 
4278.000000	65.011978 
4277.000000	65.009498 
4276.000000	65.019226 
4275.000000	65.038704 
4274.000000	65.063786 
4273.000000	65.089583 
4272.000000	65.110874 
4271.000000	65.123414 
4270.000000	65.124750 
4269.000000	65.114688 
4268.000000	65.094900 
4267.000000	65.068697 
4266.000000	65.040016 
4265.000000	65.012931 
4264.000000	64.990377 
4263.000000	64.974331 
4262.000000	64.965963 
4261.000000	64.965605 
4260.000000	64.973402 
4259.000000	64.989113 
4258.000000	65.012216 
4257.000000	65.041446 
4256.000000	65.074491 
4255.000000	65.107870 
4254.000000	65.137243 
4253.000000	65.157961 
4252.000000	65.165972 
4251.000000	65.158486 
4250.000000	65.134787 
4249.000000	65.096640 
4248.000000	65.047883 
4247.000000	64.993262 
4246.000000	64.937353 
4245.000000	64.884257 
4244.000000	64.836335 
4243.000000	64.794659 
4242.000000	64.758801 
4241.000000	64.727902 
4240.000000	64.701080 
4239.000000	64.677882 
4238.000000	64.658594 
4237.000000	64.643478 
4236.000000	64.633440 
4235.000000	64.629054 
4234.000000	64.630913 
4233.000000	64.638972 
4232.000000	64.652919 
4231.000000	64.671874 
4230.000000	64.694619 
4229.000000	64.719724 
4228.000000	64.745688 
4227.000000	64.770960 
4226.000000	64.794087 
4225.000000	64.813971 
4224.000000	64.829921 
4223.000000	64.842176 
4222.000000	64.851737 
4221.000000	64.860463 
4220.000000	64.870715 
4219.000000	64.884901 
4218.000000	64.905309 
4217.000000	64.932894 
4216.000000	64.966964 
4215.000000	65.005040 
4214.000000	65.043354 
4213.000000	65.077424 
4212.000000	65.102887 
4211.000000	65.116667 
4210.000000	65.117621 
4209.000000	65.106964 
4208.000000	65.087842 
4207.000000	65.064811 
4206.000000	65.042757 
4205.000000	65.025687 
4204.000000	65.015888 
4203.000000	65.013408 
4202.000000	65.016365 
4201.000000	65.021133 
4200.000000	65.023541 
4199.000000	65.019655 
4198.000000	65.007042 
4197.000000	64.985513 
4196.000000	64.957237 
4195.000000	64.926195 
4194.000000	64.897298 
4193.000000	64.875626 
4192.000000	64.865064 
4191.000000	64.867401 
4190.000000	64.881634 
4189.000000	64.904546 
4188.000000	64.930868 
4187.000000	64.954590 
4186.000000	64.970278 
4185.000000	64.974188 
4184.000000	64.965367 
4183.000000	64.945387 
4182.000000	64.918422 
4181.000000	64.890170 
4180.000000	64.866590 
4179.000000	64.852619 
4178.000000	64.851403 
4177.000000	64.863824 
4176.000000	64.888381 
4175.000000	64.921617 
4174.000000	64.958643 
4173.000000	64.994287 
4172.000000	65.023565 
4171.000000	65.042853 
4170.000000	65.050077 
4169.000000	65.044999 
4168.000000	65.029191 
4167.000000	65.005397 
4166.000000	64.977216 
4165.000000	64.948081 
4164.000000	64.921188 
4163.000000	64.898633 
4162.000000	64.881229 
4161.000000	64.868545 
4160.000000	64.859604 
4159.000000	64.853024 
