PE IR       SPECTRUM    SPECTRUM    ASCII       PEDS        1.60        
  -1
BZ6821~1.ASC
17/04/07
18:08:58.00
17/04/07
18:08:58.00
tln
$BZ1503107-1_t0060$<tbV0>[2.6,0.0,8.0,0.0,27,1,0]
370.000000
64









2002,4.07    
MIRTGS : RIGHTBACK : INTERNAL 2
MIR : ON : INTERNAL 2
OPTKBR

0.200000
8
8.000000
FILLER
RATIO
SPECTRUM
UNLOCKED 256

DOUBLE
64
COMBINED
1
0
0


1.000000
RATIO


1
0
TRUE
51149
0
LEFT NOT FITTED RIGHT NOT FITTED 0
NONE
NONE
15600
12.000000
4.427000
51148
TRUE
1 0 8 72 0 0 0 0 

15798.010000






#HDR
-1
-1
#GR
CM-1
%T
0.00002384185791015625
0.0
5000.000000
-1.000000
4631
8
81.288671
57.214546
#DATA
5000.000000	65.345454 
4999.000000	65.229749 
4998.000000	65.013432 
4997.000000	64.703536 
4996.000000	64.326143 
4995.000000	63.918781 
4994.000000	63.529157 
4993.000000	63.204169 
4992.000000	62.984561 
4991.000000	62.898230 
4990.000000	62.952923 
4989.000000	63.136601 
4988.000000	63.414168 
4987.000000	63.734388 
4986.000000	64.035940 
4985.000000	64.258790 
4984.000000	64.356040 
4983.000000	64.303207 
4982.000000	64.105534 
4981.000000	63.797259 
4980.000000	63.435983 
4979.000000	63.090133 
4978.000000	62.825393 
4977.000000	62.689566 
4976.000000	62.703418 
4975.000000	62.856698 
4974.000000	63.112902 
4973.000000	63.419842 
4972.000000	63.722944 
4971.000000	63.979482 
4970.000000	64.165949 
4969.000000	64.282178 
4968.000000	64.344501 
4967.000000	64.379763 
4966.000000	64.411950 
4965.000000	64.457130 
4964.000000	64.516735 
4963.000000	64.582681 
4962.000000	64.642930 
4961.000000	64.689397 
4960.000000	64.724397 
4959.000000	64.761829 
4958.000000	64.824795 
4957.000000	64.936423 
4956.000000	65.111064 
4955.000000	65.344309 
4954.000000	65.610480 
4953.000000	65.866422 
4952.000000	66.060948 
4951.000000	66.147780 
4950.000000	66.098356 
4949.000000	65.911197 
4948.000000	65.613341 
4947.000000	65.255951 
4946.000000	64.901447 
4945.000000	64.608359 
4944.000000	64.418482 
4943.000000	64.348983 
4942.000000	64.389848 
4941.000000	64.511656 
4940.000000	64.671778 
4939.000000	64.828348 
4938.000000	64.947080 
4937.000000	65.008401 
4936.000000	65.007233 
4935.000000	64.948534 
4934.000000	64.844608 
4933.000000	64.707922 
4932.000000	64.550209 
4931.000000	64.380216 
4930.000000	64.206171 
4929.000000	64.036870 
4928.000000	63.882637 
4927.000000	63.754653 
4926.000000	63.661932 
4925.000000	63.609337 
4924.000000	63.593173 
4923.000000	63.603258 
4922.000000	63.624000 
4921.000000	63.640213 
4920.000000	63.639473 
4919.000000	63.618159 
4918.000000	63.580703 
4917.000000	63.540816 
4916.000000	63.515257 
4915.000000	63.521838 
4914.000000	63.572216 
4913.000000	63.670992 
4912.000000	63.813996 
4911.000000	63.989138 
4910.000000	64.179229 
4909.000000	64.365196 
4908.000000	64.530539 
4907.000000	64.663314 
4906.000000	64.757847 
4905.000000	64.814209 
4904.000000	64.836883 
4903.000000	64.832997 
4902.000000	64.809775 
4901.000000	64.774727 
4900.000000	64.734148 
4899.000000	64.691829 
4898.000000	64.649319 
4897.000000	64.607691 
4896.000000	64.568209 
4895.000000	64.533901 
4894.000000	64.508843 
4893.000000	64.498782 
4892.000000	64.507961 
4891.000000	64.537429 
4890.000000	64.582991 
4889.000000	64.635062 
4888.000000	64.680552 
4887.000000	64.705657 
4886.000000	64.699697 
4885.000000	64.657855 
4884.000000	64.583325 
4883.000000	64.486742 
4882.000000	64.384555 
4881.000000	64.294695 
4880.000000	64.233613 
4879.000000	64.212489 
4878.000000	64.235329 
4877.000000	64.298105 
4876.000000	64.391326 
4875.000000	64.502453 
4874.000000	64.618062 
4873.000000	64.726209 
4872.000000	64.816927 
4871.000000	64.883327 
4870.000000	64.920616 
4869.000000	64.927148 
4868.000000	64.904713 
4867.000000	64.858484 
4866.000000	64.797401 
4865.000000	64.731907 
4864.000000	64.673280 
4863.000000	64.630508 
4862.000000	64.609336 
4861.000000	64.611053 
4860.000000	64.632892 
4859.000000	64.668965 
4858.000000	64.712452 
4857.000000	64.756608 
4856.000000	64.796257 
4855.000000	64.828515 
4854.000000	64.852356 
4853.000000	64.868783 
4852.000000	64.879560 
4851.000000	64.887142 
4850.000000	64.893794 
4849.000000	64.901614 
4848.000000	64.911985 
4847.000000	64.925956 
4846.000000	64.943289 
4845.000000	64.961862 
4844.000000	64.977240 
4843.000000	64.982867 
4842.000000	64.971470 
4841.000000	64.936995 
4840.000000	64.876818 
4839.000000	64.792847 
4838.000000	64.692020 
4837.000000	64.585328 
4836.000000	64.486432 
4835.000000	64.407896 
4834.000000	64.359855 
4833.000000	64.347267 
4832.000000	64.369750 
4831.000000	64.421749 
4830.000000	64.493942 
4829.000000	64.575028 
4828.000000	64.654088 
4827.000000	64.721775 
4826.000000	64.772248 
4825.000000	64.803075 
4824.000000	64.815211 
4823.000000	64.811563 
4822.000000	64.797091 
4821.000000	64.777278 
4820.000000	64.757800 
4819.000000	64.743304 
4818.000000	64.737176 
4817.000000	64.740824 
4816.000000	64.753866 
4815.000000	64.774227 
4814.000000	64.798688 
4813.000000	64.823460 
4812.000000	64.845013 
4811.000000	64.861083 
4810.000000	64.870476 
4809.000000	64.873576 
4808.000000	64.872050 
4807.000000	64.868283 
4806.000000	64.864540 
4805.000000	64.862298 
4804.000000	64.862513 
4803.000000	64.864468 
4802.000000	64.866113 
4801.000000	64.864397 
4800.000000	64.856576 
4799.000000	64.840030 
4798.000000	64.813256 
4797.000000	64.776110 
4796.000000	64.729881 
4795.000000	64.677381 
4794.000000	64.622449 
4793.000000	64.569163 
4792.000000	64.521431 
4791.000000	64.482164 
4790.000000	64.453148 
4789.000000	64.434742 
4788.000000	64.426207 
4787.000000	64.425849 
4786.000000	64.431715 
4785.000000	64.441490 
4784.000000	64.453363 
4783.000000	64.465761 
4782.000000	64.477944 
4781.000000	64.488816 
4780.000000	64.498066 
4779.000000	64.505577 
4778.000000	64.512276 
4777.000000	64.519119 
4776.000000	64.528393 
4775.000000	64.542436 
4774.000000	64.564037 
4773.000000	64.595770 
4772.000000	64.638662 
4771.000000	64.691805 
4770.000000	64.752149 
4769.000000	64.815044 
4768.000000	64.874601 
4767.000000	64.925122 
4766.000000	64.962315 
4765.000000	64.984059 
4764.000000	64.990735 
4763.000000	64.984679 
4762.000000	64.970159 
4761.000000	64.951753 
4760.000000	64.933538 
4759.000000	64.917516 
4758.000000	64.904236 
4757.000000	64.892172 
4756.000000	64.878726 
4755.000000	64.860844 
4754.000000	64.836025 
4753.000000	64.803338 
4752.000000	64.763689 
4751.000000	64.720487 
4750.000000	64.678382 
4749.000000	64.643669 
4748.000000	64.622497 
4747.000000	64.620113 
4746.000000	64.639353 
4745.000000	64.680027 
4744.000000	64.738559 
4743.000000	64.808344 
4742.000000	64.880752 
4741.000000	64.947104 
4740.000000	65.000510 
4739.000000	65.037131 
4738.000000	65.056824 
4737.000000	65.063381 
4736.000000	65.062856 
4735.000000	65.061926 
4734.000000	65.065264 
4733.000000	65.074968 
4732.000000	65.089154 
4731.000000	65.103220 
4730.000000	65.110611 
4729.000000	65.105175 
4728.000000	65.082907 
4727.000000	65.043878 
4726.000000	64.991927 
4725.000000	64.934086 
4724.000000	64.878654 
4723.000000	64.833354 
4722.000000	64.803361 
4721.000000	64.790153 
4720.000000	64.791679 
4719.000000	64.803314 
4718.000000	64.819431 
4717.000000	64.835023 
4716.000000	64.846944 
4715.000000	64.854407 
4714.000000	64.858126 
4713.000000	64.859318 
4712.000000	64.858317 
4711.000000	64.853930 
4710.000000	64.843201 
4709.000000	64.822340 
4708.000000	64.788055 
4707.000000	64.739346 
4706.000000	64.678788 
4705.000000	64.612770 
4704.000000	64.550375 
4703.000000	64.501452 
4702.000000	64.474511 
4701.000000	64.474725 
4700.000000	64.501762 
4699.000000	64.550971 
4698.000000	64.614152 
4697.000000	64.681673 
4696.000000	64.744615 
4695.000000	64.796519 
4694.000000	64.834189 
4693.000000	64.857912 
4692.000000	64.870381 
4691.000000	64.875841 
4690.000000	64.878153 
4689.000000	64.881062 
4688.000000	64.887452 
4687.000000	64.899420 
4686.000000	64.918398 
4685.000000	64.945411 
4684.000000	64.980697 
4683.000000	65.023612 
4682.000000	65.071773 
4681.000000	65.120935 
4680.000000	65.164899 
4679.000000	65.196871 
4678.000000	65.210103 
4677.000000	65.200161 
4676.000000	65.165328 
4675.000000	65.107512 
4674.000000	65.031981 
4673.000000	64.946746 
4672.000000	64.861202 
4671.000000	64.784193 
4670.000000	64.723110 
4669.000000	64.682650 
4668.000000	64.664983 
4667.000000	64.669442 
4666.000000	64.693856 
4665.000000	64.734482 
4664.000000	64.787769 
4663.000000	64.850330 
4662.000000	64.918994 
4661.000000	64.990329 
4660.000000	65.059995 
4659.000000	65.122437 
4658.000000	65.171122 
4657.000000	65.199470 
4656.000000	65.202307 
4655.000000	65.177130 
4654.000000	65.125346 
4653.000000	65.052270 
4652.000000	64.966750 
4651.000000	64.879512 
4650.000000	64.801549 
4649.000000	64.741969 
4648.000000	64.706611 
4647.000000	64.697122 
4646.000000	64.711022 
4645.000000	64.742732 
4644.000000	64.784717 
4643.000000	64.829540 
4642.000000	64.870667 
4641.000000	64.904379 
4640.000000	64.929103 
4639.000000	64.946627 
4638.000000	64.960289 
4637.000000	64.974832 
4636.000000	64.994764 
4635.000000	65.023207 
4634.000000	65.061092 
4633.000000	65.105986 
4632.000000	65.152335 
4631.000000	65.192270 
4630.000000	65.217638 
4629.000000	65.222215 
4628.000000	65.203428 
4627.000000	65.163540 
4626.000000	65.109300 
4625.000000	65.050506 
4624.000000	64.997649 
4623.000000	64.959549 
4622.000000	64.941263 
4621.000000	64.943075 
4620.000000	64.960789 
4619.000000	64.987826 
4618.000000	65.016698 
4617.000000	65.040731 
4616.000000	65.055966 
4615.000000	65.061116 
4614.000000	65.058088 
4613.000000	65.050196 
4612.000000	65.041732 
4611.000000	65.035533 
4610.000000	65.034031 
4609.000000	65.038537 
4608.000000	65.049934 
4607.000000	65.068936 
4606.000000	65.095758 
4605.000000	65.129995 
4604.000000	65.170049 
4603.000000	65.213131 
4602.000000	65.255117 
4601.000000	65.291523 
4600.000000	65.317964 
4599.000000	65.331506 
4598.000000	65.331625 
4597.000000	65.320801 
4596.000000	65.304017 
4595.000000	65.287733 
4594.000000	65.279006 
4593.000000	65.282893 
4592.000000	65.302228 
4591.000000	65.335464 
4590.000000	65.377354 
4589.000000	65.419483 
4588.000000	65.452527 
4587.000000	65.468335 
4586.000000	65.461921 
4585.000000	65.433263 
4584.000000	65.387201 
4583.000000	65.333008 
4582.000000	65.282201 
4581.000000	65.246272 
4580.000000	65.234160 
4579.000000	65.249586 
4578.000000	65.290403 
4577.000000	65.349030 
4576.000000	65.414261 
4575.000000	65.473604 
4574.000000	65.516281 
4573.000000	65.534973 
4572.000000	65.527272 
4571.000000	65.495395 
4570.000000	65.445590 
4569.000000	65.385675 
4568.000000	65.323686 
4567.000000	65.266799 
4566.000000	65.219807 
4565.000000	65.185904 
4564.000000	65.165781 
4563.000000	65.158510 
4562.000000	65.162110 
4561.000000	65.174078 
4560.000000	65.192437 
4559.000000	65.215134 
4558.000000	65.241360 
4557.000000	65.270495 
4556.000000	65.303158 
4555.000000	65.340495 
4554.000000	65.384006 
4553.000000	65.434384 
4552.000000	65.491628 
4551.000000	65.554165 
4550.000000	65.618920 
4549.000000	65.681385 
4548.000000	65.736079 
4547.000000	65.777277 
4546.000000	65.800285 
4545.000000	65.802097 
4544.000000	65.782284 
4543.000000	65.743064 
4542.000000	65.689158 
4541.000000	65.627336 
4540.000000	65.565657 
4539.000000	65.512609 
4538.000000	65.476202 
4537.000000	65.462517 
4536.000000	65.474557 
4535.000000	65.511727 
4534.000000	65.570354 
4533.000000	65.643382 
4532.000000	65.721487 
4531.000000	65.794372 
4530.000000	65.852355 
4529.000000	65.887951 
4528.000000	65.896987 
4527.000000	65.879225 
4526.000000	65.837931 
4525.000000	65.780067 
4524.000000	65.714764 
4523.000000	65.651655 
4522.000000	65.598869 
4521.000000	65.561676 
4520.000000	65.541601 
4519.000000	65.536308 
4518.000000	65.540766 
4517.000000	65.548729 
4516.000000	65.555143 
4515.000000	65.556883 
4514.000000	65.554666 
4513.000000	65.551781 
4512.000000	65.554308 
4511.000000	65.568065 
4510.000000	65.598487 
4509.000000	65.648841 
4508.000000	65.719079 
4507.000000	65.805983 
4506.000000	65.902543 
4505.000000	65.999674 
4504.000000	66.086673 
4503.000000	66.153335 
4502.000000	66.191267 
4501.000000	66.195702 
4500.000000	66.165924 
4499.000000	66.105580 
4498.000000	66.022133 
4497.000000	65.925717 
4496.000000	65.827417 
4495.000000	65.737819 
4494.000000	65.666294 
4493.000000	65.620422 
4492.000000	65.605211 
4491.000000	65.622401 
4490.000000	65.670728 
4489.000000	65.745139 
4488.000000	65.838551 
4487.000000	65.941095 
4486.000000	66.041135 
4485.000000	66.126203 
4484.000000	66.183304 
4483.000000	66.202306 
4482.000000	66.179013 
4481.000000	66.115093 
4480.000000	66.016745 
4479.000000	65.895152 
4478.000000	65.766954 
4477.000000	65.647673 
4476.000000	65.546560 
4475.000000	65.470814 
4474.000000	65.426754 
4473.000000	65.415978 
4472.000000	65.436911 
4471.000000	65.477395 
4470.000000	65.516662 
4469.000000	65.532112 
4468.000000	65.505790 
4467.000000	65.430164 
4466.000000	65.312027 
4465.000000	65.172886 
4464.000000	65.042924 
4463.000000	64.955735 
4462.000000	64.936137 
4461.000000	64.989614 
4460.000000	65.099859 
4459.000000	65.236234 
4458.000000	65.355467 
4457.000000	65.421867 
4456.000000	65.400481 
4455.000000	65.274715 
4454.000000	65.028429 
4453.000000	64.654779 
4452.000000	64.140462 
4451.000000	63.462615 
4450.000000	62.608766 
4449.000000	61.578536 
4448.000000	60.422158 
4447.000000	59.239411 
4446.000000	58.188056 
4445.000000	57.454848 
4444.000000	57.214546 
4443.000000	57.580685 
4442.000000	58.563613 
4441.000000	60.051083 
4440.000000	61.810851 
4439.000000	63.535594 
4438.000000	64.903211 
4437.000000	65.653991 
4436.000000	65.649104 
4435.000000	64.904880 
4434.000000	63.586187 
4433.000000	61.963701 
4432.000000	60.338759 
4431.000000	58.980083 
4430.000000	58.064460 
4429.000000	57.654380 
4428.000000	57.715725 
4427.000000	58.133935 
4426.000000	58.778572 
4425.000000	59.517097 
4424.000000	60.244536 
4423.000000	60.895347 
4422.000000	61.426353 
4421.000000	61.834359 
4420.000000	62.129712 
4419.000000	62.347722 
4418.000000	62.531328 
4417.000000	62.724709 
4416.000000	62.961125 
4415.000000	63.259220 
4414.000000	63.618493 
4413.000000	64.018034 
4412.000000	64.421248 
4411.000000	64.786148 
4410.000000	65.074157 
4409.000000	65.260434 
4408.000000	65.338230 
4407.000000	65.318036 
4406.000000	65.225315 
4405.000000	65.097308 
4404.000000	64.971947 
4403.000000	64.879131 
4402.000000	64.836525 
4401.000000	64.847660 
4400.000000	64.905714 
4399.000000	65.005660 
4398.000000	65.138220 
4397.000000	65.292406 
4396.000000	65.456128 
4395.000000	65.615582 
4394.000000	65.758204 
4393.000000	65.873956 
4392.000000	65.954518 
4391.000000	65.993428 
4390.000000	65.989279 
4389.000000	65.946292 
4388.000000	65.871310 
4387.000000	65.773129 
4386.000000	65.663290 
4385.000000	65.554380 
4384.000000	65.458297 
4383.000000	65.384674 
4382.000000	65.340876 
4381.000000	65.330362 
4380.000000	65.351223 
4379.000000	65.396833 
4378.000000	65.458130 
4377.000000	65.524697 
4376.000000	65.584611 
4375.000000	65.628862 
4374.000000	65.651583 
4373.000000	65.652489 
4372.000000	65.635704 
4371.000000	65.609741 
4370.000000	65.585136 
4369.000000	65.572047 
4368.000000	65.577769 
4367.000000	65.604853 
4366.000000	65.651106 
4365.000000	65.709185 
4364.000000	65.768766 
4363.000000	65.818881 
4362.000000	65.851116 
4361.000000	65.860819 
4360.000000	65.848278 
4359.000000	65.818452 
4358.000000	65.779471 
4357.000000	65.740942 
4356.000000	65.711402 
4355.000000	65.696787 
4354.000000	65.698814 
4353.000000	65.716361 
4352.000000	65.744662 
4351.000000	65.777420 
4350.000000	65.807127 
4349.000000	65.827345 
4348.000000	65.832877 
4347.000000	65.820646 
4346.000000	65.789961 
4345.000000	65.741848 
4344.000000	65.679669 
4343.000000	65.608859 
4342.000000	65.536046 
4341.000000	65.468263 
4340.000000	65.411758 
4339.000000	65.371179 
4338.000000	65.348672 
4337.000000	65.343904 
4336.000000	65.354323 
4335.000000	65.375995 
4334.000000	65.404772 
4333.000000	65.437126 
4332.000000	65.470433 
4331.000000	65.503096 
4330.000000	65.534138 
4329.000000	65.562844 
4328.000000	65.588665 
4327.000000	65.610718 
4326.000000	65.628051 
4325.000000	65.639114 
4324.000000	65.643048 
4323.000000	65.638923 
4322.000000	65.626478 
4321.000000	65.605568 
4320.000000	65.576696 
4319.000000	65.540409 
4318.000000	65.497565 
4317.000000	65.449619 
4316.000000	65.398836 
4315.000000	65.348410 
4314.000000	65.302109 
4313.000000	65.264105 
4312.000000	65.237975 
4311.000000	65.226817 
4310.000000	65.232253 
4309.000000	65.254902 
4308.000000	65.294003 
4307.000000	65.348100 
4306.000000	65.414524 
4305.000000	65.489387 
4304.000000	65.567183 
4303.000000	65.641236 
4302.000000	65.703701 
4301.000000	65.746378 
4300.000000	65.761804 
4299.000000	65.745282 
4298.000000	65.695452 
4297.000000	65.615773 
4296.000000	65.513682 
4295.000000	65.400314 
4294.000000	65.287709 
4293.000000	65.187358 
4292.000000	65.107512 
4291.000000	65.052103 
4290.000000	65.020346 
4289.000000	65.008068 
4288.000000	65.008759 
4287.000000	65.015363 
4286.000000	65.022444 
4285.000000	65.026783 
4284.000000	65.028023 
4283.000000	65.027356 
4282.000000	65.027880 
4281.000000	65.032958 
4280.000000	65.045809 
4279.000000	65.068674 
4278.000000	65.102720 
4277.000000	65.147876 
4276.000000	65.203070 
4275.000000	65.265917 
4274.000000	65.333199 
4273.000000	65.400815 
4272.000000	65.464019 
4271.000000	65.517759 
4270.000000	65.557432 
4269.000000	65.579295 
4268.000000	65.582013 
4267.000000	65.565586 
4266.000000	65.532183 
4265.000000	65.484690 
4264.000000	65.427494 
4263.000000	65.363955 
4262.000000	65.296459 
4261.000000	65.225887 
4260.000000	65.152812 
4259.000000	65.077519 
4258.000000	65.000844 
4257.000000	64.925074 
4256.000000	64.854025 
4255.000000	64.792609 
4254.000000	64.745950 
4253.000000	64.717864 
4252.000000	64.709877 
4251.000000	64.720511 
4250.000000	64.745783 
4249.000000	64.779210 
4248.000000	64.814066 
4247.000000	64.844393 
4246.000000	64.867162 
4245.000000	64.881801 
4244.000000	64.891099 
4243.000000	64.899730 
4242.000000	64.913105 
4241.000000	64.935588 
4240.000000	64.969205 
4239.000000	65.013432 
4238.000000	65.064764 
4237.000000	65.117979 
4236.000000	65.167021 
4235.000000	65.206313 
4234.000000	65.232133 
4233.000000	65.243506 
4232.000000	65.242195 
4231.000000	65.232014 
4230.000000	65.218329 
4229.000000	65.206670 
4228.000000	65.201282 
4227.000000	65.204191 
4226.000000	65.214824 
4225.000000	65.230154 
4224.000000	65.245294 
4223.000000	65.254878 
4222.000000	65.254330 
4221.000000	65.241122 
4220.000000	65.215373 
4219.000000	65.180134 
4218.000000	65.140604 
4217.000000	65.103054 
4216.000000	65.073513 
4215.000000	65.056490 
4214.000000	65.053582 
4213.000000	65.063905 
4212.000000	65.084457 
4211.000000	65.110754 
4210.000000	65.138030 
4209.000000	65.162205 
4208.000000	65.180802 
4207.000000	65.192675 
4206.000000	65.197944 
4205.000000	65.197348 
4204.000000	65.191984 
4203.000000	65.182423 
4202.000000	65.168499 
4201.000000	65.149521 
4200.000000	65.124559 
4199.000000	65.092945 
4198.000000	65.055036 
4197.000000	65.012097 
4196.000000	64.966464 
4195.000000	64.921522 
4194.000000	64.881014 
4193.000000	64.848852 
4192.000000	64.828109 
4191.000000	64.820575 
4190.000000	64.826035 
4189.000000	64.841890 
4188.000000	64.863562 
4187.000000	64.885139 
4186.000000	64.900612 
4185.000000	64.904856 
4184.000000	64.894986 
4183.000000	64.870691 
4182.000000	64.834308 
4181.000000	64.790272 
4180.000000	64.743852 
4179.000000	64.699697 
4178.000000	64.661502 
4177.000000	64.631485 
4176.000000	64.610409 
4175.000000	64.597916 
4174.000000	64.593219 
4173.000000	64.595723 
4172.000000	64.605021 
4171.000000	64.621067 
4170.000000	64.642953 
4169.000000	64.669108 
4168.000000	64.696907 
4167.000000	64.723587 
4166.000000	64.746594 
4165.000000	64.764618 
4164.000000	64.778304 
4163.000000	64.789819 
4162.000000	64.802002 
4161.000000	64.816999 
4160.000000	64.835858 
4159.000000	64.856934 
