PE IR       SPECTRUM    SPECTRUM    ASCII       PEDS        1.60        
  -1
BZBB70~1.ASC
17/04/07
21:28:12.00
17/04/07
21:28:12.00
tln
$BZ1503107-1_t0100$<tbV0>[13.0,10.4,8.0,0.0,27,1,0]
370.000000
64









2002,4.07    
MIRTGS : RIGHTBACK : INTERNAL 2
MIR : ON : INTERNAL 2
OPTKBR

0.200000
8
8.000000
FILLER
RATIO
SPECTRUM
UNLOCKED 256

DOUBLE
64
COMBINED
1
0
0


1.000000
RATIO


1
0
TRUE
51149
0
LEFT NOT FITTED RIGHT NOT FITTED 0
NONE
NONE
15600
12.000000
4.427000
51148
TRUE
1 0 8 72 0 0 0 0 

15798.010000






#HDR
-1
-1
#GR
CM-1
%T
0.00002384185791015625
0.0
5000.000000
-1.000000
4631
8
77.706694
50.846934
#DATA
5000.000000	65.036201 
4999.000000	64.873409 
4998.000000	64.759850 
4997.000000	64.706325 
4996.000000	64.716887 
4995.000000	64.785289 
4994.000000	64.898920 
4993.000000	65.039467 
4992.000000	65.188241 
4991.000000	65.329599 
4990.000000	65.451431 
4989.000000	65.547657 
4988.000000	65.610647 
4987.000000	65.630292 
4986.000000	65.591216 
4985.000000	65.476107 
4984.000000	65.267229 
4983.000000	64.953231 
4982.000000	64.536762 
4981.000000	64.038443 
4980.000000	63.495922 
4979.000000	62.959384 
4978.000000	62.481546 
4977.000000	62.108826 
4976.000000	61.871194 
4975.000000	61.779165 
4974.000000	61.819386 
4973.000000	61.964321 
4972.000000	62.176728 
4971.000000	62.422728 
4970.000000	62.675571 
4969.000000	62.922263 
4968.000000	63.157129 
4967.000000	63.383817 
4966.000000	63.603663 
4965.000000	63.818883 
4964.000000	64.026451 
4963.000000	64.223122 
4962.000000	64.405393 
4961.000000	64.575386 
4960.000000	64.742255 
4959.000000	64.920711 
4958.000000	65.127682 
4957.000000	65.376186 
4956.000000	65.669751 
4955.000000	65.998888 
4954.000000	66.339898 
4953.000000	66.656970 
4952.000000	66.908454 
4951.000000	67.057347 
4950.000000	67.079615 
4949.000000	66.969132 
4948.000000	66.741681 
4947.000000	66.434097 
4946.000000	66.097617 
4945.000000	65.788626 
4944.000000	65.555953 
4943.000000	65.436267 
4942.000000	65.441012 
4941.000000	65.559053 
4940.000000	65.754532 
4939.000000	65.976810 
4938.000000	66.170525 
4937.000000	66.288256 
4936.000000	66.300058 
4935.000000	66.196060 
4934.000000	65.992116 
4933.000000	65.723443 
4932.000000	65.436577 
4931.000000	65.177178 
4930.000000	64.982056 
4929.000000	64.871788 
4928.000000	64.847683 
4927.000000	64.893770 
4926.000000	64.983534 
4925.000000	65.087199 
4924.000000	65.177774 
4923.000000	65.236878 
4922.000000	65.255403 
4921.000000	65.235233 
4920.000000	65.181827 
4919.000000	65.106296 
4918.000000	65.021634 
4917.000000	64.941692 
4916.000000	64.880800 
4915.000000	64.849281 
4914.000000	64.853596 
4913.000000	64.892315 
4912.000000	64.959001 
4911.000000	65.039443 
4910.000000	65.114235 
4909.000000	65.162849 
4908.000000	65.167713 
4907.000000	65.119433 
4906.000000	65.018892 
4905.000000	64.878726 
4904.000000	64.720559 
4903.000000	64.570736 
4902.000000	64.454483 
4901.000000	64.390873 
4900.000000	64.388513 
4899.000000	64.443635 
4898.000000	64.541053 
4897.000000	64.658665 
4896.000000	64.772200 
4895.000000	64.859104 
4894.000000	64.904046 
4893.000000	64.899110 
4892.000000	64.847254 
4891.000000	64.759945 
4890.000000	64.655709 
4889.000000	64.555168 
4888.000000	64.476919 
4887.000000	64.433789 
4886.000000	64.430618 
4885.000000	64.464569 
4884.000000	64.526534 
4883.000000	64.604043 
4882.000000	64.685130 
4881.000000	64.760947 
4880.000000	64.827728 
4879.000000	64.886450 
4878.000000	64.940977 
4877.000000	64.995169 
4876.000000	65.050840 
4875.000000	65.105986 
4874.000000	65.155100 
4873.000000	65.190291 
4872.000000	65.203905 
4871.000000	65.190649 
4870.000000	65.150523 
4869.000000	65.088438 
4868.000000	65.012741 
4867.000000	64.933228 
4866.000000	64.858388 
4865.000000	64.794182 
4864.000000	64.743566 
4863.000000	64.706993 
4862.000000	64.683365 
4861.000000	64.671230 
4860.000000	64.670133 
4859.000000	64.679908 
4858.000000	64.700770 
4857.000000	64.731431 
4856.000000	64.767670 
4855.000000	64.802956 
4854.000000	64.829087 
4853.000000	64.838361 
4852.000000	64.825320 
4851.000000	64.788866 
4850.000000	64.732789 
4849.000000	64.664912 
4848.000000	64.595317 
4847.000000	64.533591 
4846.000000	64.486432 
4845.000000	64.456677 
4844.000000	64.442658 
4843.000000	64.439487 
4842.000000	64.440584 
4841.000000	64.440035 
4840.000000	64.434194 
4839.000000	64.421510 
4838.000000	64.403390 
4837.000000	64.382171 
4836.000000	64.361715 
4835.000000	64.345049 
4834.000000	64.335489 
4833.000000	64.335298 
4832.000000	64.346623 
4831.000000	64.371633 
4830.000000	64.411616 
4829.000000	64.466452 
4828.000000	64.534306 
4827.000000	64.611077 
4826.000000	64.691829 
4825.000000	64.771318 
4824.000000	64.845800 
4823.000000	64.913487 
4822.000000	64.974808 
4821.000000	65.031218 
4820.000000	65.084457 
4819.000000	65.134739 
4818.000000	65.179252 
4817.000000	65.212035 
4816.000000	65.225648 
4815.000000	65.212845 
4814.000000	65.169262 
4813.000000	65.095400 
4812.000000	64.998173 
4811.000000	64.889764 
4810.000000	64.785838 
4809.000000	64.702081 
4808.000000	64.650416 
4807.000000	64.636993 
4806.000000	64.661359 
4805.000000	64.716792 
4804.000000	64.792132 
4803.000000	64.874458 
4802.000000	64.951586 
4801.000000	65.014791 
4800.000000	65.059137 
4799.000000	65.084934 
4798.000000	65.095949 
4797.000000	65.098667 
4796.000000	65.099763 
4795.000000	65.104913 
4794.000000	65.117406 
4793.000000	65.137743 
4792.000000	65.163731 
4791.000000	65.191626 
4790.000000	65.216779 
4789.000000	65.234923 
4788.000000	65.242624 
4787.000000	65.238118 
4786.000000	65.220928 
4785.000000	65.191841 
4784.000000	65.152096 
4783.000000	65.103101 
4782.000000	65.046358 
4781.000000	64.983391 
4780.000000	64.916539 
4779.000000	64.848494 
4778.000000	64.783120 
4777.000000	64.725375 
4776.000000	64.680504 
4775.000000	64.652657 
4774.000000	64.644765 
4773.000000	64.656758 
4772.000000	64.686703 
4771.000000	64.730834 
4770.000000	64.784026 
4769.000000	64.840555 
4768.000000	64.895391 
4767.000000	64.944767 
4766.000000	64.986276 
4765.000000	65.018391 
4764.000000	65.040326 
4763.000000	65.051412 
4762.000000	65.051436 
4761.000000	65.040349 
4760.000000	65.019154 
4759.000000	64.989829 
4758.000000	64.955854 
4757.000000	64.921879 
4756.000000	64.893412 
4755.000000	64.875793 
4754.000000	64.873170 
4753.000000	64.887452 
4752.000000	64.918279 
4751.000000	64.962339 
4750.000000	65.014624 
4749.000000	65.068364 
4748.000000	65.116214 
4747.000000	65.151166 
4746.000000	65.167832 
4745.000000	65.162897 
4744.000000	65.135598 
4743.000000	65.088129 
4742.000000	65.025234 
4741.000000	64.954137 
4740.000000	64.883351 
4739.000000	64.821720 
4738.000000	64.776921 
4737.000000	64.754390 
4736.000000	64.755988 
4735.000000	64.779472 
4734.000000	64.818763 
4733.000000	64.865207 
4732.000000	64.909076 
4731.000000	64.941143 
4730.000000	64.954853 
4729.000000	64.946699 
4728.000000	64.917612 
4727.000000	64.871883 
4726.000000	64.817070 
4725.000000	64.762043 
4724.000000	64.715671 
4723.000000	64.685177 
4722.000000	64.674305 
4721.000000	64.683127 
4720.000000	64.708089 
4719.000000	64.742970 
4718.000000	64.780759 
4717.000000	64.815449 
4716.000000	64.843344 
4715.000000	64.863657 
4714.000000	64.878201 
4713.000000	64.890146 
4712.000000	64.902710 
4711.000000	64.917802 
4710.000000	64.935040 
4709.000000	64.952063 
4708.000000	64.965176 
4707.000000	64.970946 
4706.000000	64.967513 
4705.000000	64.955520 
4704.000000	64.938497 
4703.000000	64.921665 
4702.000000	64.910340 
4701.000000	64.908409 
4700.000000	64.916825 
4699.000000	64.933586 
4698.000000	64.954161 
4697.000000	64.972901 
4696.000000	64.984750 
4695.000000	64.986824 
4694.000000	64.978814 
4693.000000	64.963674 
4692.000000	64.946436 
4691.000000	64.933538 
4690.000000	64.930725 
4689.000000	64.942216 
4688.000000	64.969515 
4687.000000	65.010452 
4686.000000	65.059638 
4685.000000	65.109014 
4684.000000	65.149831 
4683.000000	65.173888 
4682.000000	65.175724 
4681.000000	65.153431 
4680.000000	65.109753 
4679.000000	65.051436 
4678.000000	64.988303 
4677.000000	64.931392 
4676.000000	64.890599 
4675.000000	64.873075 
4674.000000	64.881491 
4673.000000	64.913678 
4672.000000	64.963173 
4671.000000	65.021204 
4670.000000	65.078377 
4669.000000	65.126228 
4668.000000	65.159511 
4667.000000	65.176582 
4666.000000	65.179681 
4665.000000	65.173172 
4664.000000	65.163445 
4663.000000	65.156936 
4662.000000	65.159153 
4661.000000	65.173459 
4660.000000	65.200304 
4659.000000	65.237450 
4658.000000	65.280485 
4657.000000	65.324068 
4656.000000	65.362858 
4655.000000	65.392780 
4654.000000	65.411448 
4653.000000	65.418672 
4652.000000	65.415978 
4651.000000	65.405941 
4650.000000	65.391492 
4649.000000	65.374803 
4648.000000	65.357327 
4647.000000	65.338945 
4646.000000	65.319156 
4645.000000	65.296411 
4644.000000	65.269017 
4643.000000	65.235447 
4642.000000	65.195059 
4641.000000	65.148282 
4640.000000	65.096759 
4639.000000	65.043544 
4638.000000	64.992046 
4637.000000	64.946651 
4636.000000	64.911818 
4635.000000	64.891314 
4634.000000	64.887452 
4633.000000	64.900755 
4632.000000	64.929652 
4631.000000	64.970636 
4630.000000	65.018725 
4629.000000	65.068387 
4628.000000	65.114545 
4627.000000	65.153145 
4626.000000	65.181708 
4625.000000	65.199303 
4624.000000	65.206456 
4623.000000	65.204262 
4622.000000	65.194535 
4621.000000	65.179347 
4620.000000	65.160560 
4619.000000	65.140461 
4618.000000	65.121173 
4617.000000	65.105366 
4616.000000	65.095043 
4615.000000	65.092134 
4614.000000	65.097069 
4613.000000	65.109014 
4612.000000	65.125441 
4611.000000	65.142631 
4610.000000	65.156435 
4609.000000	65.162920 
4608.000000	65.159463 
4607.000000	65.145421 
4606.000000	65.122151 
4605.000000	65.092635 
4604.000000	65.060877 
4603.000000	65.031051 
4602.000000	65.006732 
4601.000000	64.990353 
4600.000000	64.983057 
4599.000000	64.984607 
4598.000000	64.993786 
4597.000000	65.008258 
4596.000000	65.025258 
4595.000000	65.041232 
4594.000000	65.052509 
4593.000000	65.055537 
4592.000000	65.047192 
4591.000000	65.025615 
4590.000000	64.990520 
4589.000000	64.943885 
4588.000000	64.889764 
4587.000000	64.833807 
4586.000000	64.782619 
4585.000000	64.741873 
4584.000000	64.715480 
4583.000000	64.704132 
4582.000000	64.705324 
4581.000000	64.713788 
4580.000000	64.722847 
4579.000000	64.726257 
4578.000000	64.719724 
4577.000000	64.702486 
4576.000000	64.677381 
4575.000000	64.649844 
4574.000000	64.626741 
4573.000000	64.614272 
4572.000000	64.616560 
4571.000000	64.634561 
4570.000000	64.665913 
4569.000000	64.706158 
4568.000000	64.749550 
4567.000000	64.791178 
4566.000000	64.827442 
4565.000000	64.856982 
4564.000000	64.879631 
4563.000000	64.896035 
4562.000000	64.906454 
4561.000000	64.910101 
4560.000000	64.905571 
4559.000000	64.891433 
4558.000000	64.867329 
4557.000000	64.834833 
4556.000000	64.797973 
4555.000000	64.762926 
4554.000000	64.737033 
4553.000000	64.727210 
4552.000000	64.738917 
4551.000000	64.774894 
4550.000000	64.834213 
4549.000000	64.912366 
4548.000000	65.002012 
4547.000000	65.093946 
4546.000000	65.178537 
4545.000000	65.247321 
4544.000000	65.294194 
4543.000000	65.316271 
4542.000000	65.314364 
4541.000000	65.292119 
4540.000000	65.255427 
4539.000000	65.210342 
4538.000000	65.163683 
4537.000000	65.119957 
4536.000000	65.082025 
4535.000000	65.049767 
4534.000000	65.021848 
4533.000000	64.995288 
4532.000000	64.966726 
4531.000000	64.933228 
4530.000000	64.893054 
4529.000000	64.845776 
4528.000000	64.792299 
4527.000000	64.734554 
4526.000000	64.674925 
4525.000000	64.615726 
4524.000000	64.558911 
4523.000000	64.505982 
4522.000000	64.458084 
4521.000000	64.416098 
4520.000000	64.381122 
4519.000000	64.353752 
4518.000000	64.334940 
4517.000000	64.325165 
4516.000000	64.325475 
4515.000000	64.336109 
4514.000000	64.358139 
4513.000000	64.392089 
4512.000000	64.439105 
4511.000000	64.499568 
4510.000000	64.573526 
4509.000000	64.660263 
4508.000000	64.757347 
4507.000000	64.860916 
4506.000000	64.964652 
4505.000000	65.060067 
4504.000000	65.138411 
4503.000000	65.192008 
4502.000000	65.217256 
4501.000000	65.215873 
4500.000000	65.195226 
4499.000000	65.167450 
4498.000000	65.144109 
4497.000000	65.133237 
4496.000000	65.136933 
4495.000000	65.151357 
4494.000000	65.169596 
4493.000000	65.184330 
4492.000000	65.192890 
4491.000000	65.197372 
4490.000000	65.202760 
4489.000000	65.215754 
4488.000000	65.240049 
4487.000000	65.276789 
4486.000000	65.325665 
4485.000000	65.383315 
4484.000000	65.445899 
4483.000000	65.507435 
4482.000000	65.560102 
4481.000000	65.596103 
4480.000000	65.609622 
4479.000000	65.597987 
4478.000000	65.561580 
4477.000000	65.506243 
4476.000000	65.442657 
4475.000000	65.384554 
4474.000000	65.345859 
4473.000000	65.337395 
4472.000000	65.364861 
4471.000000	65.424418 
4470.000000	65.504884 
4469.000000	65.586781 
4468.000000	65.647912 
4467.000000	65.684843 
4466.000000	65.709400 
4465.000000	65.744662 
4464.000000	65.811085 
4463.000000	65.910673 
4462.000000	66.024684 
4461.000000	66.105794 
4460.000000	66.103386 
4459.000000	65.981292 
4458.000000	65.737509 
4457.000000	65.419054 
4456.000000	65.105438 
4455.000000	64.886116 
4454.000000	64.838576 
4453.000000	64.995527 
4452.000000	65.349674 
4451.000000	65.850925 
4450.000000	66.431093 
4449.000000	67.027521 
4448.000000	67.590546 
4447.000000	68.096232 
4446.000000	68.527436 
4445.000000	68.869113 
4444.000000	69.074058 
4443.000000	69.063854 
4442.000000	68.733882 
4441.000000	67.985033 
4440.000000	66.763329 
4439.000000	65.094065 
4438.000000	63.104271 
4437.000000	61.010050 
4436.000000	59.077835 
4435.000000	57.571077 
4434.000000	56.682538 
4433.000000	56.500506 
4432.000000	56.986594 
4431.000000	57.995772 
4430.000000	59.308695 
4429.000000	60.691499 
4428.000000	61.937427 
4427.000000	62.916040 
4426.000000	63.570427 
4425.000000	63.933444 
4424.000000	64.086055 
4423.000000	64.139437 
4422.000000	64.190173 
4421.000000	64.303231 
4420.000000	64.499855 
4419.000000	64.760804 
4418.000000	65.046095 
4417.000000	65.304851 
4416.000000	65.497684 
4415.000000	65.600371 
4414.000000	65.611100 
4413.000000	65.542459 
4412.000000	65.417528 
4411.000000	65.262603 
4410.000000	65.101957 
4409.000000	64.953708 
4408.000000	64.828205 
4407.000000	64.736628 
4406.000000	64.685034 
4405.000000	64.672207 
4404.000000	64.690995 
4403.000000	64.732956 
4402.000000	64.787054 
4401.000000	64.838123 
4400.000000	64.873194 
4399.000000	64.881682 
4398.000000	64.860033 
4397.000000	64.813756 
4396.000000	64.752817 
4395.000000	64.685082 
4394.000000	64.620923 
4393.000000	64.571595 
4392.000000	64.546179 
4391.000000	64.550399 
4390.000000	64.584827 
4389.000000	64.645099 
4388.000000	64.721727 
4387.000000	64.802074 
4386.000000	64.873409 
4385.000000	64.925694 
4384.000000	64.952421 
4383.000000	64.952635 
4382.000000	64.930844 
4381.000000	64.896297 
4380.000000	64.860534 
4379.000000	64.834928 
4378.000000	64.827871 
4377.000000	64.843440 
4376.000000	64.881610 
4375.000000	64.938259 
4374.000000	65.006780 
4373.000000	65.079712 
4372.000000	65.150642 
4371.000000	65.215253 
4370.000000	65.271615 
4369.000000	65.320014 
4368.000000	65.361666 
4367.000000	65.398216 
4366.000000	65.431046 
4365.000000	65.460562 
4364.000000	65.486359 
4363.000000	65.507102 
4362.000000	65.521121 
4361.000000	65.526652 
4360.000000	65.522217 
4359.000000	65.506887 
4358.000000	65.480566 
4357.000000	65.444087 
4356.000000	65.399336 
4355.000000	65.349698 
4354.000000	65.299272 
4353.000000	65.252804 
4352.000000	65.214228 
4351.000000	65.185952 
4350.000000	65.168356 
4349.000000	65.159296 
4348.000000	65.155124 
4347.000000	65.151357 
4346.000000	65.144276 
4345.000000	65.131831 
4344.000000	65.114259 
4343.000000	65.093946 
4342.000000	65.074419 
4341.000000	65.058660 
4340.000000	65.048480 
4339.000000	65.043997 
4338.000000	65.043091 
4337.000000	65.041875 
4336.000000	65.036177 
4335.000000	65.022921 
4334.000000	65.000939 
4333.000000	64.971876 
4332.000000	64.939975 
4331.000000	64.911246 
4330.000000	64.892005 
4329.000000	64.887738 
4328.000000	64.901304 
4327.000000	64.932775 
4326.000000	64.979314 
4325.000000	65.035939 
4324.000000	65.096592 
4323.000000	65.155220 
4322.000000	65.207314 
4321.000000	65.249896 
4320.000000	65.281558 
4319.000000	65.302133 
4318.000000	65.312147 
4317.000000	65.312099 
4316.000000	65.302419 
4315.000000	65.283179 
4314.000000	65.254759 
4313.000000	65.217947 
4312.000000	65.174961 
4311.000000	65.129017 
4310.000000	65.084457 
4309.000000	65.046238 
4308.000000	65.019249 
4307.000000	65.007352 
4306.000000	65.012717 
4305.000000	65.035223 
4304.000000	65.072441 
4303.000000	65.120148 
4302.000000	65.172839 
4301.000000	65.224480 
4300.000000	65.269756 
4299.000000	65.304541 
4298.000000	65.326571 
4297.000000	65.335416 
4296.000000	65.332198 
4295.000000	65.319657 
4294.000000	65.300488 
4293.000000	65.277385 
4292.000000	65.251374 
4291.000000	65.223050 
4290.000000	65.191268 
4289.000000	65.154671 
4288.000000	65.111398 
4287.000000	65.060377 
4286.000000	65.001296 
4285.000000	64.934992 
4284.000000	64.863634 
4283.000000	64.790678 
4282.000000	64.720869 
4281.000000	64.659547 
4280.000000	64.612030 
4279.000000	64.582729 
4278.000000	64.573979 
4277.000000	64.585542 
4276.000000	64.613747 
4275.000000	64.652800 
4274.000000	64.695239 
4273.000000	64.734292 
4272.000000	64.764261 
4271.000000	64.782929 
4270.000000	64.791607 
4269.000000	64.795064 
4268.000000	64.799666 
4267.000000	64.811587 
4266.000000	64.835309 
4265.000000	64.871931 
4264.000000	64.919090 
4263.000000	64.971303 
4262.000000	65.021562 
4261.000000	65.063285 
4260.000000	65.092444 
4259.000000	65.107655 
4258.000000	65.110206 
4257.000000	65.103793 
4256.000000	65.093016 
4255.000000	65.082025 
4254.000000	65.073394 
4253.000000	65.068316 
4252.000000	65.066313 
4251.000000	65.065884 
4250.000000	65.064716 
4249.000000	65.060758 
4248.000000	65.052270 
4247.000000	65.037894 
4246.000000	65.016651 
4245.000000	64.987635 
4244.000000	64.950323 
4243.000000	64.904689 
4242.000000	64.851570 
4241.000000	64.792990 
4240.000000	64.732551 
4239.000000	64.675021 
4238.000000	64.626121 
4237.000000	64.591264 
4236.000000	64.574956 
4235.000000	64.579367 
4234.000000	64.604234 
4233.000000	64.646530 
4232.000000	64.701437 
4231.000000	64.763045 
4230.000000	64.825391 
4229.000000	64.883065 
4228.000000	64.932012 
4227.000000	64.969706 
4226.000000	64.994740 
4225.000000	65.006494 
4224.000000	65.005135 
4223.000000	64.991307 
4222.000000	64.966416 
4221.000000	64.932632 
4220.000000	64.893102 
4219.000000	64.851975 
4218.000000	64.814186 
4217.000000	64.784979 
4216.000000	64.768886 
4215.000000	64.769482 
4214.000000	64.788556 
4213.000000	64.826202 
4212.000000	64.880323 
4211.000000	64.947462 
4210.000000	65.023064 
4209.000000	65.101957 
4208.000000	65.178442 
4207.000000	65.247178 
4206.000000	65.303683 
4205.000000	65.344500 
4204.000000	65.367865 
4203.000000	65.373563 
4202.000000	65.362977 
4201.000000	65.338063 
4200.000000	65.301060 
4199.000000	65.253686 
4198.000000	65.197277 
4197.000000	65.133190 
4196.000000	65.063190 
4195.000000	64.989972 
4194.000000	64.917349 
4193.000000	64.850401 
4192.000000	64.794802 
4191.000000	64.755678 
4190.000000	64.736723 
4189.000000	64.739060 
4188.000000	64.761328 
4187.000000	64.799022 
4186.000000	64.846348 
4185.000000	64.896631 
4184.000000	64.944005 
4183.000000	64.984154 
4182.000000	65.014839 
4181.000000	65.035843 
4180.000000	65.048456 
4179.000000	65.054225 
4178.000000	65.055179 
4177.000000	65.053439 
4176.000000	65.050554 
4175.000000	65.047645 
4174.000000	65.044999 
4173.000000	65.042400 
4172.000000	65.039110 
4171.000000	65.033960 
4170.000000	65.025663 
4169.000000	65.013170 
4168.000000	64.996194 
4167.000000	64.975404 
4166.000000	64.951896 
4165.000000	64.927196 
4164.000000	64.903044 
4163.000000	64.881181 
4162.000000	64.862751 
4161.000000	64.848208 
4160.000000	64.837670 
4159.000000	64.830970 
