PE IR       SPECTRUM    SPECTRUM    ASCII       PEDS        1.60        
  -1
BZ6FA5~1.ASC
17/04/07
21:13:43.00
17/04/07
21:13:43.00
tln
$BZ1503107-1_t0097$<tbV0>[-7.8,7.8,8.0,0.0,27,1,0]
370.000000
64









2002,4.07    
MIRTGS : RIGHTBACK : INTERNAL 2
MIR : ON : INTERNAL 2
OPTKBR

0.200000
8
8.000000
FILLER
RATIO
SPECTRUM
UNLOCKED 256

DOUBLE
64
COMBINED
1
0
0


1.000000
RATIO


1
0
TRUE
51149
0
LEFT NOT FITTED RIGHT NOT FITTED 0
NONE
NONE
15600
12.000000
4.427000
51148
TRUE
1 0 8 72 0 0 0 0 

15798.010000






#HDR
-1
-1
#GR
CM-1
%T
0.00002384185791015625
0.0
5000.000000
-1.000000
4631
8
71.061730
40.149116
#DATA
5000.000000	63.504815 
4999.000000	63.475990 
4998.000000	63.437652 
4997.000000	63.377857 
4996.000000	63.290071 
4995.000000	63.174819 
4994.000000	63.042306 
4993.000000	62.909889 
4992.000000	62.799119 
4991.000000	62.730336 
4990.000000	62.716674 
4989.000000	62.760400 
4988.000000	62.851047 
4987.000000	62.967300 
4986.000000	63.081884 
4985.000000	63.168358 
4984.000000	63.204669 
4983.000000	63.178062 
4982.000000	63.087391 
4981.000000	62.943458 
4980.000000	62.765073 
4979.000000	62.576532 
4978.000000	62.403178 
4977.000000	62.268710 
4976.000000	62.193346 
4975.000000	62.191271 
4974.000000	62.269210 
4973.000000	62.424731 
4972.000000	62.647485 
4971.000000	62.918305 
4970.000000	63.210940 
4969.000000	63.495755 
4968.000000	63.741946 
4967.000000	63.924741 
4966.000000	64.027619 
4965.000000	64.048051 
4964.000000	63.996124 
4963.000000	63.895249 
4962.000000	63.776683 
4961.000000	63.675808 
4960.000000	63.625192 
4959.000000	63.650226 
4958.000000	63.764858 
4957.000000	63.969397 
4956.000000	64.249897 
4955.000000	64.580726 
4954.000000	64.927196 
4953.000000	65.248465 
4952.000000	65.502405 
4951.000000	65.650844 
4950.000000	65.665841 
4949.000000	65.533447 
4948.000000	65.258502 
4947.000000	64.866447 
4946.000000	64.400386 
4945.000000	63.915157 
4944.000000	63.467860 
4943.000000	63.110923 
4942.000000	62.880158 
4941.000000	62.792396 
4940.000000	62.839555 
4939.000000	62.992620 
4938.000000	63.207292 
4937.000000	63.432908 
4936.000000	63.623762 
4935.000000	63.743662 
4934.000000	63.778877 
4933.000000	63.737249 
4932.000000	63.645958 
4931.000000	63.541531 
4930.000000	63.460969 
4929.000000	63.431668 
4928.000000	63.465714 
4927.000000	63.558268 
4926.000000	63.692641 
4925.000000	63.845968 
4924.000000	63.997387 
4923.000000	64.132833 
4922.000000	64.247083 
4921.000000	64.343261 
4920.000000	64.426398 
4919.000000	64.502573 
4918.000000	64.574503 
4917.000000	64.641976 
4916.000000	64.703702 
4915.000000	64.756488 
4914.000000	64.799070 
4913.000000	64.829254 
4912.000000	64.850187 
4911.000000	64.861083 
4910.000000	64.857530 
4909.000000	64.830207 
4908.000000	64.767265 
4907.000000	64.658260 
4906.000000	64.498519 
4905.000000	64.293098 
4904.000000	64.057850 
4903.000000	63.818430 
4902.000000	63.605856 
4901.000000	63.448333 
4900.000000	63.364911 
4899.000000	63.362431 
4898.000000	63.433766 
4897.000000	63.559603 
4896.000000	63.713240 
4895.000000	63.865900 
4894.000000	63.993549 
4893.000000	64.078617 
4892.000000	64.115428 
4891.000000	64.107680 
4890.000000	64.069128 
4889.000000	64.016699 
4888.000000	63.969182 
4887.000000	63.942909 
4886.000000	63.948535 
4885.000000	63.991093 
4884.000000	64.067363 
4883.000000	64.169144 
4882.000000	64.282274 
4881.000000	64.391040 
4880.000000	64.479446 
4879.000000	64.534902 
4878.000000	64.548897 
4877.000000	64.518404 
4876.000000	64.444065 
4875.000000	64.329361 
4874.000000	64.180278 
4873.000000	64.004659 
4872.000000	63.811469 
4871.000000	63.611197 
4870.000000	63.416767 
4869.000000	63.242745 
4868.000000	63.103151 
4867.000000	63.010096 
4866.000000	62.970781 
4865.000000	62.986683 
4864.000000	63.052177 
4863.000000	63.155889 
4862.000000	63.280916 
4861.000000	63.409090 
4860.000000	63.523483 
4859.000000	63.611149 
4858.000000	63.664007 
4857.000000	63.678884 
4856.000000	63.656282 
4855.000000	63.599586 
4854.000000	63.513684 
4853.000000	63.405370 
4852.000000	63.283014 
4851.000000	63.157272 
4850.000000	63.040733 
4849.000000	62.946534 
4848.000000	62.886834 
4847.000000	62.869882 
4846.000000	62.898683 
4845.000000	62.969231 
4844.000000	63.071489 
4843.000000	63.191175 
4842.000000	63.313174 
4841.000000	63.423585 
4840.000000	63.513135 
4839.000000	63.578844 
4838.000000	63.623523 
4837.000000	63.652729 
4836.000000	63.673114 
4835.000000	63.690376 
4834.000000	63.707304 
4833.000000	63.724112 
4832.000000	63.738322 
4831.000000	63.747382 
4830.000000	63.748550 
4829.000000	63.741564 
4828.000000	63.727378 
4827.000000	63.708400 
4826.000000	63.688325 
4825.000000	63.671302 
4824.000000	63.661456 
4823.000000	63.661909 
4822.000000	63.674187 
4821.000000	63.697910 
4820.000000	63.731074 
4819.000000	63.770627 
4818.000000	63.812828 
4817.000000	63.854527 
4816.000000	63.893175 
4815.000000	63.928222 
4814.000000	63.961005 
4813.000000	63.994574 
4812.000000	64.032411 
4811.000000	64.077186 
4810.000000	64.130306 
4809.000000	64.190125 
4808.000000	64.252281 
4807.000000	64.309716 
4806.000000	64.355182 
4805.000000	64.381790 
4804.000000	64.385342 
4803.000000	64.364647 
4802.000000	64.322185 
4801.000000	64.263486 
4800.000000	64.195823 
4799.000000	64.127588 
4798.000000	64.066815 
4797.000000	64.019989 
4796.000000	63.991212 
4795.000000	63.981199 
4794.000000	63.987326 
4793.000000	64.003920 
4792.000000	64.023375 
4791.000000	64.037561 
4790.000000	64.039468 
4789.000000	64.024281 
4788.000000	63.990759 
4787.000000	63.941597 
4786.000000	63.883161 
4785.000000	63.823556 
4784.000000	63.771414 
4783.000000	63.734579 
4782.000000	63.718175 
4781.000000	63.723564 
4780.000000	63.747906 
4779.000000	63.785195 
4778.000000	63.826823 
4777.000000	63.863730 
4776.000000	63.887810 
4775.000000	63.893127 
4774.000000	63.877391 
4773.000000	63.841605 
4772.000000	63.790345 
4771.000000	63.730144 
4770.000000	63.669085 
4769.000000	63.615393 
4768.000000	63.575625 
4767.000000	63.553476 
4766.000000	63.549900 
4765.000000	63.562774 
4764.000000	63.587117 
4763.000000	63.615846 
4762.000000	63.640952 
4761.000000	63.654994 
4760.000000	63.651704 
4759.000000	63.627815 
4758.000000	63.582801 
4757.000000	63.520145 
4756.000000	63.446378 
4755.000000	63.371014 
4754.000000	63.304638 
4753.000000	63.257312 
4752.000000	63.236498 
4751.000000	63.246178 
4750.000000	63.285803 
4749.000000	63.351392 
4748.000000	63.436079 
4747.000000	63.532185 
4746.000000	63.632249 
4745.000000	63.730835 
4744.000000	63.824295 
4743.000000	63.911032 
4742.000000	63.990473 
4741.000000	64.062166 
4740.000000	64.124751 
4739.000000	64.176130 
4738.000000	64.213299 
4737.000000	64.233255 
4736.000000	64.233541 
4735.000000	64.213824 
4734.000000	64.175772 
4733.000000	64.123439 
4732.000000	64.062476 
4731.000000	63.999199 
4730.000000	63.939523 
4729.000000	63.888335 
4728.000000	63.848662 
4727.000000	63.821697 
4726.000000	63.806748 
4725.000000	63.801884 
4724.000000	63.804793 
4723.000000	63.813066 
4722.000000	63.825583 
4721.000000	63.841724 
4720.000000	63.862419 
4719.000000	63.888788 
4718.000000	63.922142 
4717.000000	63.962650 
4716.000000	64.008784 
4715.000000	64.057040 
4714.000000	64.102149 
4713.000000	64.138150 
4712.000000	64.158916 
4711.000000	64.159655 
4710.000000	64.137840 
4709.000000	64.093780 
4708.000000	64.030742 
4707.000000	63.954424 
4706.000000	63.872146 
4705.000000	63.791537 
4704.000000	63.719582 
4703.000000	63.661432 
4702.000000	63.619613 
4701.000000	63.594651 
4700.000000	63.584947 
4699.000000	63.588571 
4698.000000	63.602924 
4697.000000	63.626527 
4696.000000	63.658428 
4695.000000	63.698673 
4694.000000	63.747024 
4693.000000	63.802981 
4692.000000	63.864612 
4691.000000	63.929224 
4690.000000	63.993287 
4689.000000	64.053320 
4688.000000	64.106178 
4687.000000	64.149856 
4686.000000	64.183688 
4685.000000	64.207935 
4684.000000	64.223456 
4683.000000	64.231443 
4682.000000	64.233016 
4681.000000	64.228987 
4680.000000	64.219951 
4679.000000	64.207196 
4678.000000	64.192748 
4677.000000	64.179468 
4676.000000	64.170551 
4675.000000	64.169192 
4674.000000	64.177608 
4673.000000	64.196681 
4672.000000	64.225530 
4671.000000	64.261579 
4670.000000	64.300990 
4669.000000	64.339661 
4668.000000	64.373826 
4667.000000	64.400506 
4666.000000	64.418029 
4665.000000	64.425921 
4664.000000	64.424729 
4663.000000	64.415764 
4662.000000	64.400649 
4661.000000	64.380931 
4660.000000	64.357948 
4659.000000	64.332842 
4658.000000	64.305996 
4657.000000	64.277148 
4656.000000	64.245629 
4655.000000	64.210343 
4654.000000	64.170026 
4653.000000	64.123821 
4652.000000	64.071393 
4651.000000	64.013957 
4650.000000	63.954043 
4649.000000	63.895535 
4648.000000	63.842940 
4647.000000	63.801026 
4646.000000	63.773369 
4645.000000	63.762187 
4644.000000	63.767313 
4643.000000	63.786935 
4642.000000	63.817286 
4641.000000	63.854503 
4640.000000	63.894963 
4639.000000	63.936281 
4638.000000	63.977003 
4637.000000	64.016628 
4636.000000	64.054775 
4635.000000	64.090681 
4634.000000	64.122629 
4633.000000	64.148259 
4632.000000	64.164781 
4631.000000	64.170384 
4630.000000	64.164996 
4629.000000	64.150404 
4628.000000	64.130234 
4627.000000	64.109420 
4626.000000	64.092922 
4625.000000	64.084601 
4624.000000	64.086103 
4623.000000	64.096617 
4622.000000	64.113497 
4621.000000	64.133143 
4620.000000	64.151906 
4619.000000	64.167475 
4618.000000	64.178514 
4617.000000	64.184761 
4616.000000	64.186644 
4615.000000	64.184069 
4614.000000	64.176940 
4613.000000	64.164924 
4612.000000	64.147949 
4611.000000	64.126586 
4610.000000	64.102697 
4609.000000	64.079451 
4608.000000	64.060759 
4607.000000	64.050626 
4606.000000	64.052486 
4605.000000	64.068198 
4604.000000	64.097571 
4603.000000	64.137911 
4602.000000	64.184284 
4601.000000	64.230132 
4600.000000	64.268684 
4599.000000	64.294004 
4598.000000	64.301681 
4597.000000	64.289879 
4596.000000	64.259457 
4595.000000	64.213728 
4594.000000	64.158272 
4593.000000	64.099240 
4592.000000	64.042925 
4591.000000	63.993692 
4590.000000	63.954067 
4589.000000	63.923859 
4588.000000	63.900589 
4587.000000	63.880848 
4586.000000	63.861846 
4585.000000	63.841938 
4584.000000	63.821196 
4583.000000	63.801050 
4582.000000	63.783311 
4581.000000	63.769769 
4580.000000	63.761281 
4579.000000	63.758397 
4578.000000	63.761162 
4577.000000	63.770055 
4576.000000	63.786101 
4575.000000	63.810849 
4574.000000	63.845753 
4573.000000	63.891339 
4572.000000	63.946270 
4571.000000	64.006662 
4570.000000	64.066314 
4569.000000	64.117765 
4568.000000	64.153361 
4567.000000	64.167475 
4566.000000	64.156818 
4565.000000	64.122366 
4564.000000	64.067840 
4563.000000	63.998293 
4562.000000	63.919782 
4561.000000	63.837981 
4560.000000	63.758492 
4559.000000	63.686275 
4558.000000	63.626408 
4557.000000	63.584160 
4556.000000	63.563728 
4555.000000	63.567471 
4554.000000	63.594579 
4553.000000	63.640522 
4552.000000	63.697576 
4551.000000	63.756012 
4550.000000	63.806295 
4549.000000	63.841271 
4548.000000	63.858151 
4547.000000	63.859200 
4546.000000	63.850831 
4545.000000	63.841938 
4544.000000	63.841581 
4543.000000	63.856601 
4542.000000	63.889408 
4541.000000	63.938212 
4540.000000	63.998103 
4539.000000	64.062833 
4538.000000	64.126563 
4537.000000	64.185285 
4536.000000	64.237642 
4535.000000	64.284086 
4534.000000	64.325737 
4533.000000	64.363217 
4532.000000	64.395642 
4531.000000	64.420700 
4530.000000	64.435243 
4529.000000	64.436578 
4528.000000	64.423799 
4527.000000	64.398479 
4526.000000	64.365172 
4525.000000	64.329552 
4524.000000	64.297056 
4523.000000	64.271211 
4522.000000	64.252495 
4521.000000	64.238667 
4520.000000	64.225101 
4519.000000	64.206361 
4518.000000	64.177322 
4517.000000	64.134788 
4516.000000	64.078044 
4515.000000	64.008593 
4514.000000	63.930463 
4513.000000	63.849449 
4512.000000	63.772296 
4511.000000	63.705468 
4510.000000	63.653540 
4509.000000	63.618588 
4508.000000	63.599634 
4507.000000	63.592433 
4506.000000	63.591289 
4505.000000	63.589930 
4504.000000	63.583564 
4503.000000	63.569259 
4502.000000	63.547658 
4501.000000	63.522195 
4500.000000	63.498306 
4499.000000	63.481354 
4498.000000	63.475108 
4497.000000	63.480353 
4496.000000	63.493943 
4495.000000	63.509821 
4494.000000	63.521194 
4493.000000	63.522195 
4492.000000	63.510823 
4491.000000	63.488411 
4490.000000	63.457274 
4489.000000	63.420557 
4488.000000	63.380813 
4487.000000	63.340759 
4486.000000	63.302588 
4485.000000	63.268685 
4484.000000	63.244557 
4483.000000	63.234734 
4482.000000	63.241910 
4481.000000	63.265657 
4480.000000	63.297414 
4479.000000	63.328909 
4478.000000	63.359284 
4477.000000	63.388204 
4476.000000	63.413786 
4475.000000	63.434433 
4474.000000	63.448476 
4473.000000	63.452672 
4472.000000	63.444352 
4471.000000	63.415503 
4470.000000	63.354539 
4469.000000	63.261055 
4468.000000	63.147878 
4467.000000	63.035964 
4466.000000	62.951970 
4465.000000	62.919282 
4464.000000	62.955927 
4463.000000	63.065862 
4462.000000	63.243818 
4461.000000	63.482666 
4460.000000	63.771319 
4459.000000	64.103317 
4458.000000	64.461421 
4457.000000	64.828109 
4456.000000	65.158462 
4455.000000	65.402793 
4454.000000	65.474963 
4453.000000	65.284299 
4452.000000	64.726161 
4451.000000	63.693690 
4450.000000	62.145352 
4449.000000	60.104012 
4448.000000	57.755637 
4447.000000	55.431509 
4446.000000	53.571176 
4445.000000	52.634215 
4444.000000	52.936816 
4443.000000	54.561662 
4442.000000	57.287859 
4441.000000	60.639333 
4440.000000	64.041113 
4439.000000	66.955685 
4438.000000	69.050097 
4437.000000	70.236301 
4436.000000	70.628213 
4435.000000	70.481276 
4434.000000	70.037817 
4433.000000	69.491481 
4432.000000	68.953824 
4431.000000	68.443012 
4430.000000	67.983984 
4429.000000	67.559075 
4428.000000	67.175149 
4427.000000	66.829228 
4426.000000	66.510343 
4425.000000	66.209816 
4424.000000	65.917372 
4423.000000	65.633487 
4422.000000	65.370678 
4421.000000	65.145421 
4420.000000	64.970016 
4419.000000	64.849352 
4418.000000	64.775300 
4417.000000	64.733099 
4416.000000	64.703702 
4415.000000	64.672780 
4414.000000	64.634323 
4413.000000	64.585351 
4412.000000	64.528155 
4411.000000	64.467716 
4410.000000	64.411497 
4409.000000	64.376401 
4408.000000	64.379692 
4407.000000	64.425301 
4406.000000	64.505290 
4405.000000	64.607787 
4404.000000	64.712619 
4403.000000	64.796423 
4402.000000	64.835548 
4401.000000	64.809918 
4400.000000	64.709281 
4399.000000	64.537262 
4398.000000	64.310050 
4397.000000	64.051437 
4396.000000	63.791441 
4395.000000	63.560748 
4394.000000	63.385009 
4393.000000	63.280034 
4392.000000	63.251137 
4391.000000	63.293623 
4390.000000	63.393688 
4389.000000	63.531732 
4388.000000	63.686633 
4387.000000	63.839554 
4386.000000	63.975715 
4385.000000	64.086246 
4384.000000	64.167404 
4383.000000	64.220190 
4382.000000	64.248704 
4381.000000	64.258408 
4380.000000	64.255189 
4379.000000	64.243507 
4378.000000	64.226865 
4377.000000	64.206624 
4376.000000	64.184117 
4375.000000	64.159822 
4374.000000	64.134955 
4373.000000	64.111065 
4372.000000	64.090156 
4371.000000	64.074444 
4370.000000	64.065670 
4369.000000	64.064741 
4368.000000	64.071226 
4367.000000	64.083528 
4366.000000	64.098644 
4365.000000	64.113640 
4364.000000	64.126205 
4363.000000	64.134740 
4362.000000	64.138174 
4361.000000	64.136648 
4360.000000	64.131069 
4359.000000	64.122366 
4358.000000	64.111161 
4357.000000	64.097356 
4356.000000	64.080381 
4355.000000	64.060354 
4354.000000	64.037775 
4353.000000	64.014053 
4352.000000	63.990783 
4351.000000	63.969945 
4350.000000	63.952994 
4349.000000	63.940072 
4348.000000	63.930583 
4347.000000	63.923335 
4346.000000	63.917303 
4345.000000	63.911867 
4344.000000	63.906955 
4343.000000	63.903236 
4342.000000	63.901543 
4341.000000	63.902330 
4340.000000	63.905596 
4339.000000	63.910436 
4338.000000	63.915491 
4337.000000	63.919162 
4336.000000	63.920331 
4335.000000	63.918542 
4334.000000	63.914537 
4333.000000	63.910007 
4332.000000	63.907480 
4331.000000	63.909554 
4330.000000	63.918375 
4329.000000	63.934898 
4328.000000	63.958692 
4327.000000	63.987517 
4326.000000	64.018082 
4325.000000	64.045953 
4324.000000	64.066505 
4323.000000	64.075279 
4322.000000	64.069151 
4321.000000	64.046716 
4320.000000	64.008307 
4319.000000	63.956165 
4318.000000	63.894486 
4317.000000	63.828730 
4316.000000	63.764476 
4315.000000	63.706970 
4314.000000	63.660359 
4313.000000	63.627147 
4312.000000	63.608169 
4311.000000	63.602852 
4310.000000	63.609242 
4309.000000	63.624954 
4308.000000	63.647580 
4307.000000	63.674688 
4306.000000	63.704109 
4305.000000	63.733863 
4304.000000	63.762211 
4303.000000	63.787269 
4302.000000	63.807320 
4301.000000	63.821125 
4300.000000	63.828349 
4299.000000	63.829684 
4298.000000	63.827204 
4297.000000	63.824176 
4296.000000	63.824319 
4295.000000	63.831210 
4294.000000	63.847112 
4293.000000	63.872575 
4292.000000	63.905763 
4291.000000	63.943243 
4290.000000	63.980412 
4289.000000	64.012527 
4288.000000	64.035797 
4287.000000	64.048743 
4286.000000	64.051461 
4285.000000	64.045357 
4284.000000	64.032721 
4283.000000	64.015960 
4282.000000	63.996815 
4281.000000	63.975930 
4280.000000	63.953185 
4279.000000	63.927984 
4278.000000	63.899827 
4277.000000	63.868784 
4276.000000	63.835573 
4275.000000	63.801646 
4274.000000	63.768863 
4273.000000	63.739323 
4272.000000	63.714504 
4271.000000	63.695454 
4270.000000	63.682627 
4269.000000	63.676500 
4268.000000	63.676834 
4267.000000	63.683819 
4266.000000	63.697695 
4265.000000	63.719344 
4264.000000	63.749074 
4263.000000	63.787555 
4262.000000	63.834881 
4261.000000	63.890767 
4260.000000	63.953781 
4259.000000	64.021396 
4258.000000	64.090061 
4257.000000	64.154839 
4256.000000	64.210343 
4255.000000	64.251208 
4254.000000	64.273285 
4253.000000	64.274334 
4252.000000	64.254736 
4251.000000	64.217782 
4250.000000	64.169096 
4249.000000	64.116334 
4248.000000	64.067459 
4247.000000	64.029598 
4246.000000	64.007139 
4245.000000	64.001631 
4244.000000	64.011168 
4243.000000	64.031028 
4242.000000	64.054536 
4241.000000	64.074683 
4240.000000	64.086055 
4239.000000	64.085245 
4238.000000	64.072227 
4237.000000	64.049291 
4236.000000	64.020895 
4235.000000	63.992023 
4234.000000	63.966989 
4233.000000	63.948154 
4232.000000	63.935542 
4231.000000	63.927197 
4230.000000	63.919472 
4229.000000	63.908529 
4228.000000	63.891315 
4227.000000	63.866901 
4226.000000	63.836479 
4225.000000	63.803315 
4224.000000	63.772320 
4223.000000	63.749122 
4222.000000	63.738536 
4221.000000	63.743567 
4220.000000	63.764524 
4219.000000	63.798809 
4218.000000	63.841867 
4217.000000	63.887381 
4216.000000	63.928556 
4215.000000	63.959455 
4214.000000	63.976049 
4213.000000	63.976812 
4212.000000	63.962364 
4211.000000	63.935756 
4210.000000	63.901352 
4209.000000	63.864302 
4208.000000	63.829588 
4207.000000	63.801240 
4206.000000	63.782143 
4205.000000	63.773465 
4204.000000	63.774633 
4203.000000	63.783764 
4202.000000	63.798236 
4201.000000	63.814949 
4200.000000	63.830900 
4199.000000	63.843679 
4198.000000	63.851976 
4197.000000	63.855886 
4196.000000	63.857030 
4195.000000	63.857889 
4194.000000	63.861441 
4193.000000	63.870429 
4192.000000	63.886809 
4191.000000	63.911199 
4190.000000	63.942933 
4189.000000	63.980507 
4188.000000	64.021611 
4187.000000	64.063811 
4186.000000	64.104771 
4185.000000	64.142632 
4184.000000	64.176130 
4183.000000	64.204311 
4182.000000	64.227223 
4181.000000	64.245772 
4180.000000	64.261722 
4179.000000	64.277362 
4178.000000	64.294862 
4177.000000	64.315938 
4176.000000	64.340972 
4175.000000	64.368915 
4174.000000	64.397025 
4173.000000	64.421439 
4172.000000	64.437794 
4171.000000	64.442229 
4170.000000	64.432382 
4169.000000	64.407825 
4168.000000	64.370512 
4167.000000	64.324164 
4166.000000	64.273333 
4165.000000	64.222645 
4164.000000	64.175844 
4163.000000	64.135599 
4162.000000	64.103293 
4161.000000	64.078998 
4160.000000	64.062309 
4159.000000	64.052104 
