PE IR       SPECTRUM    SPECTRUM    ASCII       PEDS        1.60        
  -1
BZ6B23~1.ASC
17/04/07
15:09:50.00
17/04/07
15:09:50.00
tln
$BZ1503107-1_t0023$<tbV0>[13.0,-7.8,8.0,0.0,27,1,0]
370.000000
64









2002,4.07    
MIRTGS : RIGHTBACK : INTERNAL 2
MIR : ON : INTERNAL 2
OPTKBR

0.200000
8
8.000000
FILLER
RATIO
SPECTRUM
UNLOCKED 256

DOUBLE
64
COMBINED
1
0
0


1.000000
RATIO


1
0
TRUE
51149
0
LEFT NOT FITTED RIGHT NOT FITTED 0
NONE
NONE
15600
12.000000
4.427000
51148
TRUE
1 0 8 72 0 0 0 0 

15798.010000






#HDR
-1
-1
#GR
CM-1
%T
0.00002384185791015625
0.0
5000.000000
-1.000000
4631
8
83.535909
54.158449
#DATA
5000.000000	64.898610 
4999.000000	64.603781 
4998.000000	64.336514 
4997.000000	64.119815 
4996.000000	63.969802 
4995.000000	63.895130 
4994.000000	63.896846 
4993.000000	63.968491 
4992.000000	64.099144 
4991.000000	64.274096 
4990.000000	64.477515 
4989.000000	64.691805 
4988.000000	64.901494 
4987.000000	65.092420 
4986.000000	65.255212 
4985.000000	65.384578 
4984.000000	65.480351 
4983.000000	65.545701 
4982.000000	65.586304 
4981.000000	65.607452 
4980.000000	65.612673 
4979.000000	65.601706 
4978.000000	65.571451 
4977.000000	65.516209 
4976.000000	65.430736 
4975.000000	65.312123 
4974.000000	65.162825 
4973.000000	64.990663 
4972.000000	64.808249 
4971.000000	64.631152 
4970.000000	64.475226 
4969.000000	64.353680 
4968.000000	64.273238 
4967.000000	64.234399 
4966.000000	64.231848 
4965.000000	64.255809 
4964.000000	64.294123 
4963.000000	64.335417 
4962.000000	64.370656 
4961.000000	64.395117 
4960.000000	64.407730 
4959.000000	64.410400 
4958.000000	64.405918 
4957.000000	64.397406 
4956.000000	64.387059 
4955.000000	64.375638 
4954.000000	64.362645 
4953.000000	64.346909 
4952.000000	64.327573 
4951.000000	64.304828 
4950.000000	64.281058 
4949.000000	64.260697 
4948.000000	64.249777 
4947.000000	64.254689 
4946.000000	64.280390 
4945.000000	64.329099 
4944.000000	64.398956 
4943.000000	64.484214 
4942.000000	64.575338 
4941.000000	64.660501 
4940.000000	64.728212 
4939.000000	64.770126 
4938.000000	64.782691 
4937.000000	64.767217 
4936.000000	64.730715 
4935.000000	64.683842 
4934.000000	64.639472 
4933.000000	64.609932 
4932.000000	64.605164 
4931.000000	64.630722 
4930.000000	64.688467 
4929.000000	64.776468 
4928.000000	64.889717 
4927.000000	65.020847 
4926.000000	65.161013 
4925.000000	65.300107 
4924.000000	65.427255 
4923.000000	65.530991 
4922.000000	65.600132 
4921.000000	65.625381 
4920.000000	65.601301 
4919.000000	65.528154 
4918.000000	65.413141 
4917.000000	65.269708 
4916.000000	65.117192 
4915.000000	64.975762 
4914.000000	64.864039 
4913.000000	64.793729 
4912.000000	64.768671 
4911.000000	64.783024 
4910.000000	64.823579 
4909.000000	64.872789 
4908.000000	64.912915 
4907.000000	64.930605 
4906.000000	64.919567 
4905.000000	64.880919 
4904.000000	64.821648 
4903.000000	64.752101 
4902.000000	64.682698 
4901.000000	64.620995 
4900.000000	64.570093 
4899.000000	64.529824 
4898.000000	64.497971 
4897.000000	64.472317 
4896.000000	64.452147 
4895.000000	64.438891 
4894.000000	64.435982 
4893.000000	64.446425 
4892.000000	64.472484 
4891.000000	64.513683 
4890.000000	64.567995 
4889.000000	64.630770 
4888.000000	64.697408 
4887.000000	64.763498 
4886.000000	64.826464 
4885.000000	64.886307 
4884.000000	64.943861 
4883.000000	64.999723 
4882.000000	65.052843 
4881.000000	65.100598 
4880.000000	65.137600 
4879.000000	65.157175 
4878.000000	65.152525 
4877.000000	65.119051 
4876.000000	65.055322 
4875.000000	64.964509 
4874.000000	64.853763 
4873.000000	64.733648 
4872.000000	64.616346 
4871.000000	64.513969 
4870.000000	64.436984 
4869.000000	64.392542 
4868.000000	64.383101 
4867.000000	64.406895 
4866.000000	64.457821 
4865.000000	64.527630 
4864.000000	64.607119 
4863.000000	64.688444 
4862.000000	64.765095 
4861.000000	64.833760 
4860.000000	64.893150 
4859.000000	64.943933 
4858.000000	64.987611 
4857.000000	65.024995 
4856.000000	65.056133 
4855.000000	65.078997 
4854.000000	65.090847 
4853.000000	65.088129 
4852.000000	65.068268 
4851.000000	65.030264 
4850.000000	64.975810 
4849.000000	64.909100 
4848.000000	64.836740 
4847.000000	64.766740 
4846.000000	64.706897 
4845.000000	64.663791 
4844.000000	64.641118 
4843.000000	64.639449 
4842.000000	64.655733 
4841.000000	64.683604 
4840.000000	64.714932 
4839.000000	64.740991 
4838.000000	64.755511 
4837.000000	64.755415 
4836.000000	64.742636 
4835.000000	64.722681 
4834.000000	64.704203 
4833.000000	64.696717 
4832.000000	64.707970 
4831.000000	64.741873 
4830.000000	64.797019 
4829.000000	64.867329 
4828.000000	64.942741 
4827.000000	65.011858 
4826.000000	65.063905 
4825.000000	65.091395 
4824.000000	65.091252 
4823.000000	65.065503 
4822.000000	65.020370 
4821.000000	64.964580 
4820.000000	64.907789 
4819.000000	64.858293 
4818.000000	64.822030 
4817.000000	64.801239 
4816.000000	64.795184 
4815.000000	64.800095 
4814.000000	64.810276 
4813.000000	64.819312 
4812.000000	64.821076 
4811.000000	64.811491 
4810.000000	64.788460 
4809.000000	64.753508 
4808.000000	64.710235 
4807.000000	64.664793 
4806.000000	64.623999 
4805.000000	64.594602 
4804.000000	64.581489 
4803.000000	64.587140 
4802.000000	64.610934 
4801.000000	64.649796 
4800.000000	64.698863 
4799.000000	64.752626 
4798.000000	64.805841 
4797.000000	64.854669 
4796.000000	64.896798 
4795.000000	64.931392 
4794.000000	64.958500 
4793.000000	64.978408 
4792.000000	64.990830 
4791.000000	64.994692 
4790.000000	64.988183 
4789.000000	64.969944 
4788.000000	64.939618 
4787.000000	64.898324 
4786.000000	64.848709 
4785.000000	64.795327 
4784.000000	64.743638 
4783.000000	64.699172 
4782.000000	64.666557 
4781.000000	64.648199 
4780.000000	64.644646 
4779.000000	64.654135 
4778.000000	64.673924 
4777.000000	64.700412 
4776.000000	64.730811 
4775.000000	64.763140 
4774.000000	64.796853 
4773.000000	64.831995 
4772.000000	64.869141 
4771.000000	64.908123 
4770.000000	64.948248 
4769.000000	64.987730 
4768.000000	65.024685 
4767.000000	65.057659 
4766.000000	65.086269 
4765.000000	65.111207 
4764.000000	65.134596 
4763.000000	65.158796 
4762.000000	65.185952 
4761.000000	65.216326 
4760.000000	65.248155 
4759.000000	65.277409 
4758.000000	65.298867 
4757.000000	65.307188 
4756.000000	65.298843 
4755.000000	65.273022 
4754.000000	65.232467 
4753.000000	65.182662 
4752.000000	65.130615 
4751.000000	65.083456 
4750.000000	65.047121 
4749.000000	65.025019 
4748.000000	65.017533 
4747.000000	65.022730 
4746.000000	65.037298 
4745.000000	65.057563 
4744.000000	65.080142 
4743.000000	65.102624 
4742.000000	65.123915 
4741.000000	65.143394 
4740.000000	65.160703 
4739.000000	65.175437 
4738.000000	65.186858 
4737.000000	65.194749 
4736.000000	65.199065 
4735.000000	65.200209 
4734.000000	65.198421 
4733.000000	65.194034 
4732.000000	65.186977 
4731.000000	65.176105 
4730.000000	65.160179 
4729.000000	65.138220 
4728.000000	65.110993 
4727.000000	65.080881 
4726.000000	65.052604 
4725.000000	65.032172 
4724.000000	65.026378 
4723.000000	65.040349 
4722.000000	65.077686 
4721.000000	65.138673 
4720.000000	65.221452 
4719.000000	65.321207 
4718.000000	65.432572 
4717.000000	65.550279 
4716.000000	65.669703 
4715.000000	65.787076 
4714.000000	65.898895 
4713.000000	66.000938 
4712.000000	66.087818 
4711.000000	66.152620 
4710.000000	66.188168 
4709.000000	66.188406 
4708.000000	66.150426 
4707.000000	66.075515 
4706.000000	65.970277 
4705.000000	65.845608 
4704.000000	65.715575 
4703.000000	65.594577 
4702.000000	65.495562 
4701.000000	65.426754 
4700.000000	65.391206 
4699.000000	65.386033 
4698.000000	65.403676 
4697.000000	65.433597 
4696.000000	65.464282 
4695.000000	65.486073 
4694.000000	65.492367 
4693.000000	65.480709 
4692.000000	65.452003 
4691.000000	65.410470 
4690.000000	65.361881 
4689.000000	65.312314 
4688.000000	65.266418 
4687.000000	65.227103 
4686.000000	65.195012 
4685.000000	65.168881 
4684.000000	65.146374 
4683.000000	65.125131 
4682.000000	65.103840 
4681.000000	65.082192 
4680.000000	65.061140 
4679.000000	65.042018 
4678.000000	65.026307 
4677.000000	65.014648 
4676.000000	65.007233 
4675.000000	65.003108 
4674.000000	65.000963 
4673.000000	64.999628 
4672.000000	64.998126 
4671.000000	64.995670 
4670.000000	64.991760 
4669.000000	64.985990 
4668.000000	64.978075 
4667.000000	64.967465 
4666.000000	64.954280 
4665.000000	64.938926 
4664.000000	64.923191 
4663.000000	64.910149 
4662.000000	64.903664 
4661.000000	64.907479 
4660.000000	64.924025 
4659.000000	64.953684 
4658.000000	64.994287 
4657.000000	65.041446 
4656.000000	65.089893 
4655.000000	65.134835 
4654.000000	65.173506 
4653.000000	65.205693 
4652.000000	65.233373 
4651.000000	65.259432 
4650.000000	65.286779 
4649.000000	65.316271 
4648.000000	65.346026 
4647.000000	65.371465 
4646.000000	65.386986 
4645.000000	65.386939 
4644.000000	65.368056 
4643.000000	65.330195 
4642.000000	65.277481 
4641.000000	65.216803 
4640.000000	65.156507 
4639.000000	65.103936 
4638.000000	65.063929 
4637.000000	65.037488 
4636.000000	65.022134 
4635.000000	65.012526 
4634.000000	65.002608 
4633.000000	64.987111 
4632.000000	64.963293 
4631.000000	64.931249 
4630.000000	64.893865 
4629.000000	64.855813 
4628.000000	64.822602 
4627.000000	64.798879 
4626.000000	64.787650 
4625.000000	64.789676 
4624.000000	64.803695 
4623.000000	64.826774 
4622.000000	64.855170 
4621.000000	64.885306 
4620.000000	64.914131 
4619.000000	64.939212 
4618.000000	64.959263 
4617.000000	64.973664 
4616.000000	64.982628 
4615.000000	64.986991 
4614.000000	64.987397 
4613.000000	64.984583 
4612.000000	64.978480 
4611.000000	64.969325 
4610.000000	64.956331 
4609.000000	64.938068 
4608.000000	64.912962 
4607.000000	64.880275 
4606.000000	64.840221 
4605.000000	64.794540 
4604.000000	64.746761 
4603.000000	64.701914 
4602.000000	64.666247 
4601.000000	64.645934 
4600.000000	64.645433 
4599.000000	64.666318 
4598.000000	64.706730 
4597.000000	64.761161 
4596.000000	64.821267 
4595.000000	64.877200 
4594.000000	64.919567 
4593.000000	64.941692 
4592.000000	64.940381 
4591.000000	64.917659 
4590.000000	64.879536 
4589.000000	64.836120 
4588.000000	64.798521 
4587.000000	64.777636 
4586.000000	64.781975 
4585.000000	64.816093 
4584.000000	64.879918 
4583.000000	64.968323 
4582.000000	65.072631 
4581.000000	65.181279 
4580.000000	65.282034 
4579.000000	65.362977 
4578.000000	65.414309 
4577.000000	65.429830 
4576.000000	65.407490 
4575.000000	65.349483 
4574.000000	65.261507 
4573.000000	65.152978 
4572.000000	65.035009 
4571.000000	64.918780 
4570.000000	64.813661 
4569.000000	64.727044 
4568.000000	64.662885 
4567.000000	64.622163 
4566.000000	64.603137 
4565.000000	64.602065 
4564.000000	64.614582 
4563.000000	64.636135 
4562.000000	64.662742 
4561.000000	64.690232 
4560.000000	64.715194 
4559.000000	64.734411 
4558.000000	64.745187 
4557.000000	64.744663 
4556.000000	64.731264 
4555.000000	64.704966 
4554.000000	64.667677 
4553.000000	64.623236 
4552.000000	64.577794 
4551.000000	64.539027 
4550.000000	64.514565 
4549.000000	64.510583 
4548.000000	64.530897 
4547.000000	64.575886 
4546.000000	64.642238 
4545.000000	64.723682 
4544.000000	64.811873 
4543.000000	64.898037 
4542.000000	64.974927 
4541.000000	65.037846 
4540.000000	65.084457 
4539.000000	65.114927 
4538.000000	65.132188 
4537.000000	65.139389 
4536.000000	65.139222 
4535.000000	65.132212 
4534.000000	65.118122 
4533.000000	65.094137 
4532.000000	65.057134 
4531.000000	65.003442 
4530.000000	64.931106 
4529.000000	64.840173 
4528.000000	64.733910 
4527.000000	64.618206 
4526.000000	64.500737 
4525.000000	64.390754 
4524.000000	64.297604 
4523.000000	64.229297 
4522.000000	64.191150 
4521.000000	64.185118 
4520.000000	64.210057 
4519.000000	64.261221 
4518.000000	64.331960 
4517.000000	64.413881 
4516.000000	64.499235 
4515.000000	64.581179 
4514.000000	64.655423 
4513.000000	64.719724 
4512.000000	64.774394 
4511.000000	64.820790 
4510.000000	64.860796 
4509.000000	64.896535 
4508.000000	64.928436 
4507.000000	64.956355 
4506.000000	64.977598 
4505.000000	64.988827 
4504.000000	64.985346 
4503.000000	64.963936 
4502.000000	64.921712 
4501.000000	64.857792 
4500.000000	64.773321 
4499.000000	64.672088 
4498.000000	64.559245 
4497.000000	64.440894 
4496.000000	64.323759 
4495.000000	64.214968 
4494.000000	64.121198 
4493.000000	64.048910 
4492.000000	64.003777 
4491.000000	63.990473 
4490.000000	64.010858 
4489.000000	64.063668 
4488.000000	64.143943 
4487.000000	64.243364 
4486.000000	64.350318 
4485.000000	64.452171 
4484.000000	64.535880 
4483.000000	64.591646 
4482.000000	64.614391 
4481.000000	64.605283 
4480.000000	64.570975 
4479.000000	64.522504 
4478.000000	64.473056 
4477.000000	64.434933 
4476.000000	64.416790 
4475.000000	64.423155 
4474.000000	64.454627 
4473.000000	64.507007 
4472.000000	64.573097 
4471.000000	64.642739 
4470.000000	64.705562 
4469.000000	64.751958 
4468.000000	64.775800 
4467.000000	64.777874 
4466.000000	64.766144 
4465.000000	64.754366 
4464.000000	64.758038 
4463.000000	64.791417 
4462.000000	64.862179 
4461.000000	64.966344 
4460.000000	65.090489 
4459.000000	65.215897 
4458.000000	65.322303 
4457.000000	65.399622 
4456.000000	65.443253 
4455.000000	65.447068 
4454.000000	65.410614 
4453.000000	65.348553 
4452.000000	65.273046 
4451.000000	65.186381 
4450.000000	65.085601 
4449.000000	64.964318 
4448.000000	64.817690 
4447.000000	64.648294 
4446.000000	64.464592 
4445.000000	64.281105 
4444.000000	64.112615 
4443.000000	63.971233 
4442.000000	63.858485 
4441.000000	63.763332 
4440.000000	63.678002 
4439.000000	63.592314 
4438.000000	63.494229 
4437.000000	63.366413 
4436.000000	63.167524 
4435.000000	62.863969 
4434.000000	62.404513 
4433.000000	61.798119 
4432.000000	61.114239 
4431.000000	60.522699 
4430.000000	60.259628 
4429.000000	60.590457 
4428.000000	61.743783 
4427.000000	63.833260 
4426.000000	66.807055 
4425.000000	70.425939 
4424.000000	74.300885 
4423.000000	77.953791 
4422.000000	80.922794 
4421.000000	82.845067 
4420.000000	83.535909 
4419.000000	83.011198 
4418.000000	81.477403 
4417.000000	79.259586 
4416.000000	76.723861 
4415.000000	74.203205 
4414.000000	71.938276 
4413.000000	70.064997 
4412.000000	68.611860 
4411.000000	67.551136 
4410.000000	66.818881 
4409.000000	66.342306 
4408.000000	66.060614 
4407.000000	65.906691 
4406.000000	65.835118 
4405.000000	65.796828 
4404.000000	65.764880 
4403.000000	65.711283 
4402.000000	65.627169 
4401.000000	65.511083 
4400.000000	65.374183 
4399.000000	65.227127 
4398.000000	65.084552 
4397.000000	64.961266 
4396.000000	64.867281 
4395.000000	64.803123 
4394.000000	64.765191 
4393.000000	64.750027 
4392.000000	64.749002 
4391.000000	64.748311 
4390.000000	64.742946 
4389.000000	64.738535 
4388.000000	64.743423 
4387.000000	64.766287 
4386.000000	64.810085 
4385.000000	64.870285 
4384.000000	64.942979 
4383.000000	65.022730 
4382.000000	65.095663 
4381.000000	65.145730 
4380.000000	65.165996 
4379.000000	65.155982 
4378.000000	65.118670 
4377.000000	65.060782 
4376.000000	64.992308 
4375.000000	64.922308 
4374.000000	64.857006 
4373.000000	64.798712 
4372.000000	64.747405 
4371.000000	64.700508 
4370.000000	64.655017 
4369.000000	64.609074 
4368.000000	64.563393 
4367.000000	64.521169 
4366.000000	64.486956 
4365.000000	64.466238 
4364.000000	64.463186 
4363.000000	64.479303 
4362.000000	64.512181 
4361.000000	64.556264 
4360.000000	64.603567 
4359.000000	64.645743 
4358.000000	64.675927 
4357.000000	64.690041 
4356.000000	64.687347 
4355.000000	64.670324 
4354.000000	64.643311 
4353.000000	64.611244 
4352.000000	64.578104 
4351.000000	64.546537 
4350.000000	64.517235 
4349.000000	64.489650 
4348.000000	64.462900 
4347.000000	64.436721 
4346.000000	64.412426 
4345.000000	64.392709 
4344.000000	64.381361 
4343.000000	64.381623 
4342.000000	64.395761 
4341.000000	64.423918 
4340.000000	64.464092 
4339.000000	64.511775 
4338.000000	64.561605 
4337.000000	64.608502 
4336.000000	64.648509 
4335.000000	64.679694 
4334.000000	64.702200 
4333.000000	64.718031 
4332.000000	64.730000 
4331.000000	64.740800 
4330.000000	64.752101 
4329.000000	64.763808 
4328.000000	64.774799 
4327.000000	64.782953 
4326.000000	64.786314 
4325.000000	64.783239 
4324.000000	64.773607 
4323.000000	64.758515 
4322.000000	64.740395 
4321.000000	64.721965 
4320.000000	64.705681 
4319.000000	64.693212 
4318.000000	64.685320 
4317.000000	64.681887 
4316.000000	64.682006 
4315.000000	64.684963 
4314.000000	64.690709 
4313.000000	64.699983 
4312.000000	64.714050 
4311.000000	64.734125 
4310.000000	64.760780 
4309.000000	64.792752 
4308.000000	64.826798 
4307.000000	64.857530 
4306.000000	64.878392 
4305.000000	64.883327 
4304.000000	64.868330 
4303.000000	64.832401 
4302.000000	64.778161 
4301.000000	64.711785 
4300.000000	64.641690 
4299.000000	64.576697 
4298.000000	64.524769 
4297.000000	64.491271 
4296.000000	64.478778 
4295.000000	64.486336 
4294.000000	64.510941 
4293.000000	64.548516 
4292.000000	64.595293 
4291.000000	64.647960 
4290.000000	64.704871 
4289.000000	64.765167 
4288.000000	64.828729 
4287.000000	64.894986 
4286.000000	64.962387 
4285.000000	65.028047 
4284.000000	65.087938 
4283.000000	65.137600 
4282.000000	65.172576 
4281.000000	65.189385 
4280.000000	65.186429 
4279.000000	65.164446 
4278.000000	65.126562 
4277.000000	65.077733 
4276.000000	65.024375 
4275.000000	64.972662 
4274.000000	64.927697 
4273.000000	64.892005 
4272.000000	64.865612 
4271.000000	64.845776 
4270.000000	64.827895 
4269.000000	64.806628 
4268.000000	64.777374 
4267.000000	64.737844 
4266.000000	64.688038 
4265.000000	64.631509 
4264.000000	64.573621 
4263.000000	64.521479 
4262.000000	64.481973 
4261.000000	64.460396 
4260.000000	64.459037 
4259.000000	64.477109 
4258.000000	64.510989 
4257.000000	64.554977 
4256.000000	64.602446 
4255.000000	64.647555 
4254.000000	64.686346 
4253.000000	64.717102 
4252.000000	64.740395 
4251.000000	64.758610 
4250.000000	64.774894 
4249.000000	64.792060 
4248.000000	64.811635 
4247.000000	64.833378 
4246.000000	64.855456 
4245.000000	64.875149 
4244.000000	64.889669 
4243.000000	64.897084 
4242.000000	64.896917 
4241.000000	64.890623 
4240.000000	64.881086 
4239.000000	64.871382 
4238.000000	64.864420 
4237.000000	64.862084 
4236.000000	64.864873 
4235.000000	64.871859 
4234.000000	64.881443 
4233.000000	64.892148 
4232.000000	64.902734 
4231.000000	64.912700 
4230.000000	64.922261 
4229.000000	64.932227 
4228.000000	64.943599 
4227.000000	64.956951 
4226.000000	64.972186 
4225.000000	64.988398 
4224.000000	65.004014 
4223.000000	65.016913 
4222.000000	65.024828 
4221.000000	65.025901 
4220.000000	65.019154 
4219.000000	65.004777 
4218.000000	64.984035 
4217.000000	64.959168 
4216.000000	64.933395 
4215.000000	64.910316 
4214.000000	64.892983 
4213.000000	64.883947 
4212.000000	64.884829 
4211.000000	64.895987 
4210.000000	64.916419 
4209.000000	64.944291 
4208.000000	64.977049 
4207.000000	65.012145 
4206.000000	65.047335 
4205.000000	65.080761 
4204.000000	65.110921 
4203.000000	65.137028 
4202.000000	65.159010 
4201.000000	65.176916 
4200.000000	65.190839 
4199.000000	65.201258 
4198.000000	65.208768 
4197.000000	65.214061 
4196.000000	65.217638 
4195.000000	65.219926 
4194.000000	65.220880 
4193.000000	65.220451 
4192.000000	65.217995 
4191.000000	65.212512 
4190.000000	65.202569 
4189.000000	65.187311 
4188.000000	65.166473 
4187.000000	65.140199 
4186.000000	65.109658 
4185.000000	65.076589 
4184.000000	65.044045 
4183.000000	65.014767 
4182.000000	64.992618 
4181.000000	64.981317 
4180.000000	64.985179 
4179.000000	65.007448 
4178.000000	65.051150 
4177.000000	65.118026 
4176.000000	65.208053 
4175.000000	65.318679 
4174.000000	65.444803 
4173.000000	65.578699 
4172.000000	65.710806 
4171.000000	65.830564 
4170.000000	65.927672 
4169.000000	65.993261 
4168.000000	66.021823 
4167.000000	66.011047 
4166.000000	65.962529 
4165.000000	65.880584 
4164.000000	65.773010 
4163.000000	65.648555 
4162.000000	65.517115 
4161.000000	65.387558 
4160.000000	65.268158 
4159.000000	65.164542 
