PE IR       SPECTRUM    SPECTRUM    ASCII       PEDS        1.60        
  -1
BZ6CA3~1.ASC
17/04/07
17:40:37.00
17/04/07
17:40:37.00
tln
$BZ1503107-1_t0054$<tbV0>[-10.4,-2.6,8.0,0.0,27,1,0]
370.000000
64









2002,4.07    
MIRTGS : RIGHTBACK : INTERNAL 2
MIR : ON : INTERNAL 2
OPTKBR

0.200000
8
8.000000
FILLER
RATIO
SPECTRUM
UNLOCKED 256

DOUBLE
64
COMBINED
1
0
0


1.000000
RATIO


1
0
TRUE
51149
0
LEFT NOT FITTED RIGHT NOT FITTED 0
NONE
NONE
15600
12.000000
4.427000
51148
TRUE
1 0 8 72 0 0 0 0 

15798.010000






#HDR
-1
-1
#GR
CM-1
%T
0.00002384185791015625
0.0
5000.000000
-1.000000
4631
8
67.136693
45.094490
#DATA
5000.000000	64.839482 
4999.000000	64.776444 
4998.000000	64.763164 
4997.000000	64.798521 
4996.000000	64.867973 
4995.000000	64.949083 
4994.000000	65.018129 
4993.000000	65.057349 
4992.000000	65.060186 
4991.000000	65.031433 
4990.000000	64.987373 
4989.000000	64.949250 
4988.000000	64.939308 
4987.000000	64.973068 
4986.000000	65.058755 
4985.000000	65.195155 
4984.000000	65.374422 
4983.000000	65.583610 
4982.000000	65.808629 
4981.000000	66.034698 
4980.000000	66.245841 
4979.000000	66.424298 
4978.000000	66.550326 
4977.000000	66.603922 
4976.000000	66.568803 
4975.000000	66.435360 
4974.000000	66.205978 
4973.000000	65.894865 
4972.000000	65.529465 
4971.000000	65.144610 
4970.000000	64.777755 
4969.000000	64.462351 
4968.000000	64.222216 
4967.000000	64.069151 
4966.000000	64.001512 
4965.000000	64.008617 
4964.000000	64.074158 
4963.000000	64.180898 
4962.000000	64.312338 
4961.000000	64.455938 
4960.000000	64.601826 
4959.000000	64.742803 
4958.000000	64.871406 
4957.000000	64.983224 
4956.000000	65.075826 
4955.000000	65.150713 
4954.000000	65.212035 
4953.000000	65.266466 
4952.000000	65.319871 
4951.000000	65.375590 
4950.000000	65.431928 
4949.000000	65.482926 
4948.000000	65.518617 
4947.000000	65.529060 
4946.000000	65.506005 
4945.000000	65.446662 
4944.000000	65.353560 
4943.000000	65.236449 
4942.000000	65.108013 
4941.000000	64.980435 
4940.000000	64.863443 
4939.000000	64.763092 
4938.000000	64.680838 
4937.000000	64.614176 
4936.000000	64.559483 
4935.000000	64.514946 
4934.000000	64.479804 
4933.000000	64.454531 
4932.000000	64.439249 
4931.000000	64.432454 
4930.000000	64.431166 
4929.000000	64.430880 
4928.000000	64.426684 
4927.000000	64.414811 
4926.000000	64.395093 
4925.000000	64.371752 
4924.000000	64.352130 
4923.000000	64.345264 
4922.000000	64.359331 
4921.000000	64.399361 
4920.000000	64.464783 
4919.000000	64.550042 
4918.000000	64.646291 
4917.000000	64.743089 
4916.000000	64.831304 
4915.000000	64.904403 
4914.000000	64.959478 
4913.000000	64.996933 
4912.000000	65.019130 
4911.000000	65.029954 
4910.000000	65.033102 
4909.000000	65.032482 
4908.000000	65.032267 
4907.000000	65.036034 
4906.000000	65.046858 
4905.000000	65.066933 
4904.000000	65.097713 
4903.000000	65.138816 
4902.000000	65.188050 
4901.000000	65.241432 
4900.000000	65.293741 
4899.000000	65.339875 
4898.000000	65.375494 
4897.000000	65.398144 
4896.000000	65.406775 
4895.000000	65.402126 
4894.000000	65.385007 
4893.000000	65.356540 
4892.000000	65.316772 
4891.000000	65.265774 
4890.000000	65.203070 
4889.000000	65.129494 
4888.000000	65.047049 
4887.000000	64.959478 
4886.000000	64.872097 
4885.000000	64.790415 
4884.000000	64.720082 
4883.000000	64.666056 
4882.000000	64.631438 
4881.000000	64.616560 
4880.000000	64.619421 
4879.000000	64.635920 
4878.000000	64.660191 
4877.000000	64.685392 
4876.000000	64.704942 
4875.000000	64.713358 
4874.000000	64.706850 
4873.000000	64.684033 
4872.000000	64.646196 
4871.000000	64.597105 
4870.000000	64.542388 
4869.000000	64.488887 
4868.000000	64.443659 
4867.000000	64.412832 
4866.000000	64.400601 
4865.000000	64.408588 
4864.000000	64.435482 
4863.000000	64.477491 
4862.000000	64.529275 
4861.000000	64.585089 
4860.000000	64.638900 
4859.000000	64.685964 
4858.000000	64.723443 
4857.000000	64.749932 
4856.000000	64.764952 
4855.000000	64.768719 
4854.000000	64.762020 
4853.000000	64.745664 
4852.000000	64.720296 
4851.000000	64.687204 
4850.000000	64.648771 
4849.000000	64.608120 
4848.000000	64.569044 
4847.000000	64.535403 
4846.000000	64.510655 
4845.000000	64.496946 
4844.000000	64.494824 
4843.000000	64.502549 
4842.000000	64.517045 
4841.000000	64.534950 
4840.000000	64.553952 
4839.000000	64.572620 
4838.000000	64.591979 
4837.000000	64.614367 
4836.000000	64.643192 
4835.000000	64.681768 
4834.000000	64.731788 
4833.000000	64.792680 
4832.000000	64.861202 
4831.000000	64.932060 
4830.000000	64.998674 
4829.000000	65.054845 
4828.000000	65.095973 
4827.000000	65.120053 
4826.000000	65.128612 
4825.000000	65.126013 
4824.000000	65.118575 
4823.000000	65.112948 
4822.000000	65.113997 
4821.000000	65.123772 
4820.000000	65.140509 
4819.000000	65.158867 
4818.000000	65.170693 
4817.000000	65.166831 
4816.000000	65.139460 
4815.000000	65.084218 
4814.000000	65.001559 
4813.000000	64.897465 
4812.000000	64.782214 
4811.000000	64.668893 
4810.000000	64.571046 
4809.000000	64.500141 
4808.000000	64.462947 
4807.000000	64.461255 
4806.000000	64.492130 
4805.000000	64.548563 
4804.000000	64.620709 
4803.000000	64.698386 
4802.000000	64.772391 
4801.000000	64.836001 
4800.000000	64.884614 
4799.000000	64.916753 
4798.000000	64.932918 
4797.000000	64.935684 
4796.000000	64.928531 
4795.000000	64.915871 
4794.000000	64.902210 
4793.000000	64.891791 
4792.000000	64.887833 
4791.000000	64.891910 
4790.000000	64.903450 
4789.000000	64.919972 
4788.000000	64.937758 
4787.000000	64.952635 
4786.000000	64.960908 
4785.000000	64.960527 
4784.000000	64.950871 
4783.000000	64.932680 
4782.000000	64.907360 
4781.000000	64.876317 
4780.000000	64.840722 
4779.000000	64.800953 
4778.000000	64.757537 
4777.000000	64.711594 
4776.000000	64.665555 
4775.000000	64.623355 
4774.000000	64.589929 
4773.000000	64.570426 
4772.000000	64.568686 
4771.000000	64.586138 
4770.000000	64.620757 
4769.000000	64.667057 
4768.000000	64.717578 
4767.000000	64.764308 
4766.000000	64.800620 
4765.000000	64.822745 
4764.000000	64.830470 
4763.000000	64.826869 
4762.000000	64.817237 
4761.000000	64.807486 
4760.000000	64.802837 
4759.000000	64.806246 
4758.000000	64.818239 
4757.000000	64.836335 
4756.000000	64.856100 
4755.000000	64.872002 
4754.000000	64.878726 
4753.000000	64.872550 
4752.000000	64.851999 
4751.000000	64.818978 
4750.000000	64.777493 
4749.000000	64.734196 
4748.000000	64.696192 
4747.000000	64.670705 
4746.000000	64.663362 
4745.000000	64.677309 
4744.000000	64.712262 
4743.000000	64.764690 
4742.000000	64.828562 
4741.000000	64.896202 
4740.000000	64.959788 
4739.000000	65.012431 
4738.000000	65.049433 
4737.000000	65.068769 
4736.000000	65.070796 
4735.000000	65.058016 
4734.000000	65.033912 
4733.000000	65.002822 
4732.000000	64.968323 
4731.000000	64.933443 
4730.000000	64.899492 
4729.000000	64.866709 
4728.000000	64.834213 
4727.000000	64.801120 
4726.000000	64.767003 
4725.000000	64.732146 
4724.000000	64.698457 
4723.000000	64.668989 
4722.000000	64.647769 
4721.000000	64.638185 
4720.000000	64.642381 
4719.000000	64.660429 
4718.000000	64.689826 
4717.000000	64.725470 
4716.000000	64.760971 
4715.000000	64.789676 
4714.000000	64.806509 
4713.000000	64.808917 
4712.000000	64.797711 
4711.000000	64.776420 
4710.000000	64.750385 
4709.000000	64.725208 
4708.000000	64.704847 
4707.000000	64.691019 
4706.000000	64.682912 
4705.000000	64.678072 
4704.000000	64.673328 
4703.000000	64.666724 
4702.000000	64.658045 
4701.000000	64.650249 
4700.000000	64.648103 
4699.000000	64.658308 
4698.000000	64.687061 
4697.000000	64.738726 
4696.000000	64.814233 
4695.000000	64.909982 
4694.000000	65.018129 
4693.000000	65.127515 
4692.000000	65.226149 
4691.000000	65.302968 
4690.000000	65.350079 
4689.000000	65.364527 
4688.000000	65.348720 
4687.000000	65.309524 
4686.000000	65.256619 
4685.000000	65.200376 
4684.000000	65.149593 
4683.000000	65.110278 
4682.000000	65.084576 
4681.000000	65.071249 
4680.000000	65.066647 
4679.000000	65.066504 
4678.000000	65.067148 
4677.000000	65.066289 
4676.000000	65.063476 
4675.000000	65.059280 
4674.000000	65.055012 
4673.000000	65.051007 
4672.000000	65.046930 
4671.000000	65.041017 
4670.000000	65.031743 
4669.000000	65.017628 
4668.000000	64.999318 
4667.000000	64.979696 
4666.000000	64.963889 
4665.000000	64.957833 
4664.000000	64.967298 
4663.000000	64.995980 
4662.000000	65.044212 
4661.000000	65.108084 
4660.000000	65.180444 
4659.000000	65.251922 
4658.000000	65.312838 
4657.000000	65.355062 
4656.000000	65.373516 
4655.000000	65.366721 
4654.000000	65.336799 
4653.000000	65.288257 
4652.000000	65.226554 
4651.000000	65.157055 
4650.000000	65.084505 
4649.000000	65.013027 
4648.000000	64.946722 
4647.000000	64.889454 
4646.000000	64.845561 
4645.000000	64.818358 
4644.000000	64.809799 
4643.000000	64.819192 
4642.000000	64.842462 
4641.000000	64.873528 
4640.000000	64.904451 
4639.000000	64.928555 
4638.000000	64.941263 
4637.000000	64.941811 
4636.000000	64.932990 
4635.000000	64.920473 
4634.000000	64.910984 
4633.000000	64.909815 
4632.000000	64.918875 
4631.000000	64.936304 
4630.000000	64.956665 
4629.000000	64.973115 
4628.000000	64.979314 
4627.000000	64.971446 
4626.000000	64.949083 
4625.000000	64.915204 
4624.000000	64.874815 
4623.000000	64.833211 
4622.000000	64.794802 
4621.000000	64.761447 
4620.000000	64.732909 
4619.000000	64.707493 
4618.000000	64.682745 
4617.000000	64.656400 
4616.000000	64.627909 
4615.000000	64.597964 
4614.000000	64.570116 
4613.000000	64.549112 
4612.000000	64.540934 
4611.000000	64.550614 
4610.000000	64.581871 
4609.000000	64.635729 
4608.000000	64.709997 
4607.000000	64.799165 
4606.000000	64.895272 
4605.000000	64.989233 
4604.000000	65.071940 
4603.000000	65.135955 
4602.000000	65.176820 
4601.000000	65.193724 
4600.000000	65.189790 
4599.000000	65.170764 
4598.000000	65.143847 
4597.000000	65.115714 
4596.000000	65.091896 
4595.000000	65.074896 
4594.000000	65.065097 
4593.000000	65.059900 
4592.000000	65.056180 
4591.000000	65.049934 
4590.000000	65.037298 
4589.000000	65.015411 
4588.000000	64.982891 
4587.000000	64.940309 
4586.000000	64.889979 
4585.000000	64.835858 
4584.000000	64.782571 
4583.000000	64.734339 
4582.000000	64.694046 
4581.000000	64.662528 
4580.000000	64.638638 
4579.000000	64.619874 
4578.000000	64.603257 
4577.000000	64.586257 
4576.000000	64.567732 
4575.000000	64.548778 
4574.000000	64.532732 
4573.000000	64.523673 
4572.000000	64.525413 
4571.000000	64.540600 
4570.000000	64.569854 
4569.000000	64.611101 
4568.000000	64.660096 
4567.000000	64.711475 
4566.000000	64.759778 
4565.000000	64.800953 
4564.000000	64.832520 
4563.000000	64.852952 
4562.000000	64.862370 
4561.000000	64.861536 
4560.000000	64.852523 
4559.000000	64.838099 
4558.000000	64.821720 
4557.000000	64.807605 
4556.000000	64.799094 
4555.000000	64.798498 
4554.000000	64.805960 
4553.000000	64.819526 
4552.000000	64.835000 
4551.000000	64.846944 
4550.000000	64.850187 
4549.000000	64.841365 
4548.000000	64.819312 
4547.000000	64.785766 
4546.000000	64.744853 
4545.000000	64.702725 
4544.000000	64.665651 
4543.000000	64.639115 
4542.000000	64.626550 
4541.000000	64.629244 
4540.000000	64.646601 
4539.000000	64.676499 
4538.000000	64.716053 
4537.000000	64.761853 
4536.000000	64.810609 
4535.000000	64.858746 
4534.000000	64.902162 
4533.000000	64.936685 
4532.000000	64.958667 
4531.000000	64.965391 
4530.000000	64.955544 
4529.000000	64.929890 
4528.000000	64.891481 
4527.000000	64.845561 
4526.000000	64.798784 
4525.000000	64.758634 
4524.000000	64.732146 
4523.000000	64.724683 
4522.000000	64.738917 
4521.000000	64.774465 
4520.000000	64.827728 
4519.000000	64.892387 
4518.000000	64.960503 
4517.000000	65.023756 
4516.000000	65.075087 
4515.000000	65.109682 
4514.000000	65.125823 
4513.000000	65.124344 
4512.000000	65.108299 
4511.000000	65.082311 
4510.000000	65.051031 
4509.000000	65.018367 
4508.000000	64.986419 
4507.000000	64.956116 
4506.000000	64.926719 
4505.000000	64.897489 
4504.000000	64.867520 
4503.000000	64.836478 
4502.000000	64.805221 
4501.000000	64.776110 
4500.000000	64.751529 
4499.000000	64.733362 
4498.000000	64.721655 
4497.000000	64.714503 
4496.000000	64.708042 
4495.000000	64.697933 
4494.000000	64.680719 
4493.000000	64.655375 
4492.000000	64.624452 
4491.000000	64.593887 
4490.000000	64.570450 
4489.000000	64.560770 
4488.000000	64.569735 
4487.000000	64.599227 
4486.000000	64.647555 
4485.000000	64.709639 
4484.000000	64.779210 
4483.000000	64.848709 
4482.000000	64.911532 
4481.000000	64.961028 
4480.000000	64.991331 
4479.000000	64.997553 
4478.000000	64.976310 
4477.000000	64.926671 
4476.000000	64.851355 
4475.000000	64.755797 
4474.000000	64.647173 
4473.000000	64.535593 
4472.000000	64.433336 
4471.000000	64.351296 
4470.000000	64.297819 
4469.000000	64.275789 
4468.000000	64.283227 
4467.000000	64.315819 
4466.000000	64.369535 
4465.000000	64.441514 
4464.000000	64.532065 
4463.000000	64.646267 
4462.000000	64.791202 
4461.000000	64.967226 
4460.000000	65.168595 
4459.000000	65.391087 
4458.000000	65.621948 
4457.000000	65.841317 
4456.000000	66.021656 
4455.000000	66.128993 
4454.000000	66.136479 
4453.000000	66.027760 
4452.000000	65.813946 
4451.000000	65.534114 
4450.000000	65.252661 
4449.000000	65.049958 
4448.000000	64.994835 
4447.000000	65.127420 
4446.000000	65.441370 
4445.000000	65.883278 
4444.000000	66.364693 
4443.000000	66.783452 
4442.000000	67.056369 
4441.000000	67.136693 
4440.000000	67.026090 
4439.000000	66.760039 
4438.000000	66.396594 
4437.000000	65.980434 
4436.000000	65.514898 
4435.000000	64.958286 
4434.000000	64.230442 
4433.000000	63.255262 
4432.000000	61.996841 
4431.000000	60.496711 
4430.000000	58.886098 
4429.000000	57.365798 
4428.000000	56.160640 
4427.000000	55.467605 
4426.000000	55.390715 
4425.000000	55.924320 
4424.000000	56.942725 
4423.000000	58.238530 
4422.000000	59.566736 
4421.000000	60.708284 
4420.000000	61.513710 
4419.000000	61.932969 
4418.000000	62.009716 
4417.000000	61.862540 
4416.000000	61.640024 
4415.000000	61.483168 
4414.000000	61.486458 
4413.000000	61.687803 
4412.000000	62.063264 
4411.000000	62.553977 
4410.000000	63.081121 
4409.000000	63.573718 
4408.000000	63.981366 
4407.000000	64.280939 
4406.000000	64.477539 
4405.000000	64.587903 
4404.000000	64.638972 
4403.000000	64.657902 
4402.000000	64.666509 
4401.000000	64.678740 
4400.000000	64.699196 
4399.000000	64.735007 
4398.000000	64.785599 
4397.000000	64.846968 
4396.000000	64.911365 
4395.000000	64.971518 
4394.000000	65.019893 
4393.000000	65.050411 
4392.000000	65.060305 
4391.000000	65.050196 
4390.000000	65.024852 
4389.000000	64.992570 
4388.000000	64.956903 
4387.000000	64.916467 
4386.000000	64.869666 
4385.000000	64.816093 
4384.000000	64.759182 
4383.000000	64.706182 
4382.000000	64.666795 
4381.000000	64.650940 
4380.000000	64.663887 
4379.000000	64.705848 
4378.000000	64.773011 
4377.000000	64.857053 
4376.000000	64.945340 
4375.000000	65.024805 
4374.000000	65.085554 
4373.000000	65.121793 
4372.000000	65.131878 
4371.000000	65.119409 
4370.000000	65.091490 
4369.000000	65.057778 
4368.000000	65.027666 
4367.000000	65.009665 
4366.000000	65.010118 
4365.000000	65.032792 
4364.000000	65.078711 
4363.000000	65.146183 
4362.000000	65.231156 
4361.000000	65.327215 
4360.000000	65.425896 
4359.000000	65.516948 
4358.000000	65.589618 
4357.000000	65.634322 
4356.000000	65.644288 
4355.000000	65.617156 
4354.000000	65.555286 
4353.000000	65.466475 
4352.000000	65.361618 
4351.000000	65.253400 
4350.000000	65.152788 
4349.000000	65.067887 
4348.000000	65.001749 
4347.000000	64.953160 
4346.000000	64.917159 
4345.000000	64.886903 
4344.000000	64.856338 
4343.000000	64.822006 
4342.000000	64.783930 
4341.000000	64.744663 
4340.000000	64.709234 
4339.000000	64.682841 
4338.000000	64.670109 
4337.000000	64.673233 
4336.000000	64.692473 
4335.000000	64.725971 
4334.000000	64.770913 
4333.000000	64.824080 
4332.000000	64.882111 
4331.000000	64.941835 
4330.000000	64.999485 
4329.000000	65.050935 
4328.000000	65.092134 
4327.000000	65.119385 
4326.000000	65.129899 
4325.000000	65.122556 
4324.000000	65.098524 
4323.000000	65.060782 
4322.000000	65.014696 
4321.000000	64.965844 
4320.000000	64.919185 
4319.000000	64.878082 
4318.000000	64.844179 
4317.000000	64.817452 
4316.000000	64.796423 
4315.000000	64.779782 
4314.000000	64.767098 
4313.000000	64.759516 
4312.000000	64.759325 
4311.000000	64.769625 
4310.000000	64.792776 
4309.000000	64.829897 
4308.000000	64.879822 
4307.000000	64.938950 
4306.000000	65.001559 
4305.000000	65.060710 
4304.000000	65.109515 
4303.000000	65.142393 
4302.000000	65.156221 
4301.000000	65.151214 
4300.000000	65.130567 
4299.000000	65.100026 
4298.000000	65.066099 
4297.000000	65.035057 
4296.000000	65.011286 
4295.000000	64.996886 
4294.000000	64.990997 
4293.000000	64.990997 
4292.000000	64.992976 
4291.000000	64.993429 
4290.000000	64.989972 
4289.000000	64.981865 
4288.000000	64.970278 
4287.000000	64.957737 
4286.000000	64.947319 
4285.000000	64.941287 
4284.000000	64.940667 
4283.000000	64.944553 
4282.000000	64.950871 
4281.000000	64.956808 
4280.000000	64.959645 
4279.000000	64.957642 
4278.000000	64.950418 
4277.000000	64.939284 
4276.000000	64.926743 
4275.000000	64.916062 
4274.000000	64.910602 
4273.000000	64.913010 
4272.000000	64.924764 
4271.000000	64.945554 
4270.000000	64.973425 
4269.000000	65.005159 
4268.000000	65.036821 
4267.000000	65.064954 
4266.000000	65.087080 
4265.000000	65.102386 
4264.000000	65.111875 
4263.000000	65.117692 
4262.000000	65.122461 
4261.000000	65.127658 
4260.000000	65.133619 
4259.000000	65.138411 
4258.000000	65.138649 
4257.000000	65.130114 
4256.000000	65.109395 
4255.000000	65.074777 
4254.000000	65.027427 
4253.000000	64.971590 
4252.000000	64.914226 
4251.000000	64.863514 
4250.000000	64.827227 
4249.000000	64.811134 
4248.000000	64.817833 
4247.000000	64.846348 
4246.000000	64.892411 
4245.000000	64.949488 
4244.000000	65.009903 
4243.000000	65.066432 
4242.000000	65.113043 
4241.000000	65.145635 
4240.000000	65.162324 
4239.000000	65.162992 
4238.000000	65.149235 
4237.000000	65.123486 
4236.000000	65.088891 
4235.000000	65.049362 
4234.000000	65.009021 
4233.000000	64.972209 
4232.000000	64.943003 
4231.000000	64.925026 
4230.000000	64.920783 
4229.000000	64.931344 
4228.000000	64.956283 
4227.000000	64.993596 
4226.000000	65.039968 
4225.000000	65.091109 
4224.000000	65.142321 
4223.000000	65.189003 
4222.000000	65.227437 
4221.000000	65.254926 
4220.000000	65.270304 
4219.000000	65.273547 
4218.000000	65.266442 
4217.000000	65.251326 
4216.000000	65.231060 
4215.000000	65.207624 
4214.000000	65.183043 
4213.000000	65.158057 
4212.000000	65.132999 
4211.000000	65.107417 
4210.000000	65.080833 
4209.000000	65.053033 
4208.000000	65.024638 
4207.000000	64.996790 
4206.000000	64.971041 
4205.000000	64.948678 
4204.000000	64.930200 
4203.000000	64.915227 
4202.000000	64.902496 
4201.000000	64.890503 
4200.000000	64.878034 
4199.000000	64.864635 
4198.000000	64.850902 
4197.000000	64.838242 
4196.000000	64.828705 
4195.000000	64.823913 
4194.000000	64.825248 
4193.000000	64.833688 
4192.000000	64.850139 
4191.000000	64.875125 
4190.000000	64.908862 
4189.000000	64.951133 
4188.000000	65.000462 
4187.000000	65.054202 
4186.000000	65.108013 
4185.000000	65.155959 
4184.000000	65.191411 
4183.000000	65.208530 
4182.000000	65.203642 
4181.000000	65.176224 
4180.000000	65.129661 
4179.000000	65.071225 
4178.000000	65.010118 
4177.000000	64.955735 
4176.000000	64.915418 
4175.000000	64.893031 
4174.000000	64.888215 
4173.000000	64.896917 
4172.000000	64.912557 
4171.000000	64.927983 
4170.000000	64.937043 
4169.000000	64.936041 
4168.000000	64.924192 
4167.000000	64.903664 
4166.000000	64.878511 
4165.000000	64.854001 
4164.000000	64.834856 
4163.000000	64.824604 
4162.000000	64.824938 
4161.000000	64.835476 
4160.000000	64.854383 
4159.000000	64.878606 
