PE IR       SPECTRUM    SPECTRUM    ASCII       PEDS        1.60        
  -1
BZ6F23~1.ASC
17/04/07
15:28:19.00
17/04/07
15:28:19.00
tln
$BZ1503107-1_t0027$<tbV0>[2.6,-7.8,8.0,0.0,27,1,0]
370.000000
64









2002,4.07    
MIRTGS : RIGHTBACK : INTERNAL 2
MIR : ON : INTERNAL 2
OPTKBR

0.200000
8
8.000000
FILLER
RATIO
SPECTRUM
UNLOCKED 256

DOUBLE
64
COMBINED
1
0
0


1.000000
RATIO


1
0
TRUE
51149
0
LEFT NOT FITTED RIGHT NOT FITTED 0
NONE
NONE
15600
12.000000
4.427000
51148
TRUE
1 0 8 72 0 0 0 0 

15798.010000






#HDR
-1
-1
#GR
CM-1
%T
0.00002384185791015625
0.0
5000.000000
-1.000000
4631
8
81.244802
24.918127
#DATA
5000.000000	64.905118 
4999.000000	64.675927 
4998.000000	64.468455 
4997.000000	64.296364 
4996.000000	64.167451 
4995.000000	64.084005 
4994.000000	64.044022 
4993.000000	64.042329 
4992.000000	64.072585 
4991.000000	64.127564 
4990.000000	64.200043 
4989.000000	64.280819 
4988.000000	64.361906 
4987.000000	64.435696 
4986.000000	64.496684 
4985.000000	64.541077 
4984.000000	64.567947 
4983.000000	64.578819 
4982.000000	64.576792 
4981.000000	64.565777 
4980.000000	64.549922 
4979.000000	64.532756 
4978.000000	64.517331 
4977.000000	64.505577 
4976.000000	64.499068 
4975.000000	64.498209 
4974.000000	64.503312 
4973.000000	64.513540 
4972.000000	64.526700 
4971.000000	64.539504 
4970.000000	64.548540 
4969.000000	64.550638 
4968.000000	64.543080 
4967.000000	64.524960 
4966.000000	64.498138 
4965.000000	64.465785 
4964.000000	64.431715 
4963.000000	64.399194 
4962.000000	64.370203 
4961.000000	64.345312 
4960.000000	64.323878 
4959.000000	64.304900 
4958.000000	64.287781 
4957.000000	64.273118 
4956.000000	64.262700 
4955.000000	64.258575 
4954.000000	64.262413 
4953.000000	64.274621 
4952.000000	64.294171 
4951.000000	64.317893 
4950.000000	64.341878 
4949.000000	64.362859 
4948.000000	64.379525 
4947.000000	64.393639 
4946.000000	64.409041 
4945.000000	64.431118 
4944.000000	64.463806 
4943.000000	64.508962 
4942.000000	64.563584 
4941.000000	64.619970 
4940.000000	64.666724 
4939.000000	64.691758 
4938.000000	64.685249 
4937.000000	64.642691 
4936.000000	64.566802 
4935.000000	64.467597 
4934.000000	64.360857 
4933.000000	64.264893 
4932.000000	64.196109 
4931.000000	64.165377 
4930.000000	64.175009 
4929.000000	64.218258 
4928.000000	64.281201 
4927.000000	64.346528 
4926.000000	64.397239 
4925.000000	64.421153 
4924.000000	64.413166 
4923.000000	64.376664 
4922.000000	64.321160 
4921.000000	64.260792 
4920.000000	64.209342 
4919.000000	64.178442 
4918.000000	64.175415 
4917.000000	64.202141 
4916.000000	64.256405 
4915.000000	64.331555 
4914.000000	64.419579 
4913.000000	64.510703 
4912.000000	64.595818 
4911.000000	64.666199 
4910.000000	64.713597 
4909.000000	64.731717 
4908.000000	64.716529 
4907.000000	64.668273 
4906.000000	64.591503 
4905.000000	64.495825 
4904.000000	64.394974 
4903.000000	64.304518 
4902.000000	64.239144 
4901.000000	64.209866 
4900.000000	64.221882 
4899.000000	64.273476 
4898.000000	64.356327 
4897.000000	64.457273 
4896.000000	64.560842 
4895.000000	64.651894 
4894.000000	64.718675 
4893.000000	64.753437 
4892.000000	64.755010 
4891.000000	64.727425 
4890.000000	64.680314 
4889.000000	64.625978 
4888.000000	64.577937 
4887.000000	64.548039 
4886.000000	64.544582 
4885.000000	64.572143 
4884.000000	64.629769 
4883.000000	64.712691 
4882.000000	64.812040 
4881.000000	64.916825 
4880.000000	65.015578 
4879.000000	65.098571 
4878.000000	65.158200 
4877.000000	65.189981 
4876.000000	65.192890 
4875.000000	65.169239 
4874.000000	65.124273 
4873.000000	65.065407 
4872.000000	65.001130 
4871.000000	64.939785 
4870.000000	64.889240 
4869.000000	64.855003 
4868.000000	64.839410 
4867.000000	64.841461 
4866.000000	64.856815 
4865.000000	64.880156 
4864.000000	64.906406 
4863.000000	64.932727 
4862.000000	64.958596 
4861.000000	64.985775 
4860.000000	65.017223 
4859.000000	65.054917 
4858.000000	65.098714 
4857.000000	65.144586 
4856.000000	65.185213 
4855.000000	65.210962 
4854.000000	65.212678 
4853.000000	65.183806 
4852.000000	65.122795 
4851.000000	65.033864 
4850.000000	64.926695 
4849.000000	64.814877 
4848.000000	64.713191 
4847.000000	64.634728 
4846.000000	64.588403 
4845.000000	64.577984 
4844.000000	64.601731 
4843.000000	64.653444 
4842.000000	64.723992 
4841.000000	64.802837 
4840.000000	64.880156 
4839.000000	64.947271 
4838.000000	64.998841 
4837.000000	65.032315 
4836.000000	65.048623 
4835.000000	65.050983 
4834.000000	65.044116 
4833.000000	65.033125 
4832.000000	65.022349 
4831.000000	65.014910 
4830.000000	65.011835 
4829.000000	65.012812 
4828.000000	65.016245 
4827.000000	65.020322 
4826.000000	65.024018 
4825.000000	65.027594 
4824.000000	65.032768 
4823.000000	65.042185 
4822.000000	65.058660 
4821.000000	65.084290 
4820.000000	65.119576 
4819.000000	65.162825 
4818.000000	65.210294 
4817.000000	65.256500 
4816.000000	65.295624 
4815.000000	65.322136 
4814.000000	65.331411 
4813.000000	65.320682 
4812.000000	65.289235 
4811.000000	65.239191 
4810.000000	65.175557 
4809.000000	65.105581 
4808.000000	65.037822 
4807.000000	64.980697 
4806.000000	64.941716 
4805.000000	64.925193 
4804.000000	64.931988 
4803.000000	64.958429 
4802.000000	64.997196 
4801.000000	65.038967 
4800.000000	65.074062 
4799.000000	65.095019 
4798.000000	65.097975 
4797.000000	65.083599 
4796.000000	65.056610 
4795.000000	65.024065 
4794.000000	64.993524 
4793.000000	64.970874 
4792.000000	64.959049 
4791.000000	64.957880 
4790.000000	64.964509 
4789.000000	64.975070 
4788.000000	64.985489 
4787.000000	64.992308 
4786.000000	64.993500 
4785.000000	64.988040 
4784.000000	64.976644 
4783.000000	64.960312 
4782.000000	64.941167 
4781.000000	64.921593 
4780.000000	64.904522 
4779.000000	64.893126 
4778.000000	64.890575 
4777.000000	64.899635 
4776.000000	64.921832 
4775.000000	64.956903 
4774.000000	65.002441 
4773.000000	65.054059 
4772.000000	65.106081 
4771.000000	65.152573 
4770.000000	65.188360 
4769.000000	65.210223 
4768.000000	65.217041 
4767.000000	65.210056 
4766.000000	65.192317 
4765.000000	65.168309 
4764.000000	65.143370 
4763.000000	65.122938 
4762.000000	65.112161 
4761.000000	65.115261 
4760.000000	65.134906 
4759.000000	65.171647 
4758.000000	65.223765 
4757.000000	65.287184 
4756.000000	65.356445 
4755.000000	65.424895 
4754.000000	65.485906 
4753.000000	65.533208 
4752.000000	65.562033 
4751.000000	65.569591 
4750.000000	65.555548 
4749.000000	65.522217 
4748.000000	65.474128 
4747.000000	65.417671 
4746.000000	65.360188 
4745.000000	65.309095 
4744.000000	65.270900 
4743.000000	65.250420 
4742.000000	65.250062 
4741.000000	65.269851 
4740.000000	65.307283 
4739.000000	65.357518 
4738.000000	65.414190 
4737.000000	65.470290 
4736.000000	65.519142 
4735.000000	65.554809 
4734.000000	65.572619 
4733.000000	65.569400 
4732.000000	65.543985 
4731.000000	65.497255 
4730.000000	65.432620 
4729.000000	65.356326 
4728.000000	65.276455 
4727.000000	65.202522 
4726.000000	65.143179 
4725.000000	65.105271 
4724.000000	65.092086 
4723.000000	65.102291 
4722.000000	65.131163 
4721.000000	65.171837 
4720.000000	65.217018 
4719.000000	65.260457 
4718.000000	65.298581 
4717.000000	65.330457 
4716.000000	65.357589 
4715.000000	65.382266 
4714.000000	65.406084 
4713.000000	65.428709 
4712.000000	65.447854 
4711.000000	65.459609 
4710.000000	65.460133 
4709.000000	65.446710 
4708.000000	65.419316 
4707.000000	65.380573 
4706.000000	65.335130 
4705.000000	65.288472 
4704.000000	65.245389 
4703.000000	65.209150 
4702.000000	65.181159 
4701.000000	65.160846 
4700.000000	65.147066 
4699.000000	65.137743 
4698.000000	65.130591 
4697.000000	65.123581 
4696.000000	65.114879 
4695.000000	65.103483 
4694.000000	65.088820 
4693.000000	65.071439 
4692.000000	65.052461 
4691.000000	65.033984 
4690.000000	65.018558 
4689.000000	65.008521 
4688.000000	65.005660 
4687.000000	65.009856 
4686.000000	65.019154 
4685.000000	65.029859 
4684.000000	65.037536 
4683.000000	65.038204 
4682.000000	65.029597 
4681.000000	65.012145 
4680.000000	64.988970 
4679.000000	64.964723 
4678.000000	64.944791 
4677.000000	64.933538 
4676.000000	64.933633 
4675.000000	64.945745 
4674.000000	64.967870 
4673.000000	64.997243 
4672.000000	65.029382 
4671.000000	65.059685 
4670.000000	65.083217 
4669.000000	65.095353 
4668.000000	65.092515 
4667.000000	65.072631 
4666.000000	65.036129 
4665.000000	64.985752 
4664.000000	64.927721 
4663.000000	64.871048 
4662.000000	64.826178 
4661.000000	64.802908 
4660.000000	64.808273 
4659.000000	64.844751 
4658.000000	64.909172 
4657.000000	64.993214 
4656.000000	65.085506 
4655.000000	65.174341 
4654.000000	65.250158 
4653.000000	65.307450 
4652.000000	65.345358 
4651.000000	65.366649 
4650.000000	65.376377 
4649.000000	65.379238 
4648.000000	65.378165 
4647.000000	65.372753 
4646.000000	65.361046 
4645.000000	65.338993 
4644.000000	65.303468 
4643.000000	65.252327 
4642.000000	65.187215 
4641.000000	65.111517 
4640.000000	65.030503 
4639.000000	64.949178 
4638.000000	64.871406 
4637.000000	64.799094 
4636.000000	64.732313 
4635.000000	64.669728 
4634.000000	64.609861 
4633.000000	64.551830 
4632.000000	64.496397 
4631.000000	64.445447 
4630.000000	64.401912 
4629.000000	64.368748 
4628.000000	64.348697 
4627.000000	64.342784 
4626.000000	64.350724 
4625.000000	64.370846 
4624.000000	64.400911 
4623.000000	64.437556 
4622.000000	64.477610 
4621.000000	64.518141 
4620.000000	64.557337 
4619.000000	64.593696 
4618.000000	64.627122 
4617.000000	64.658522 
4616.000000	64.689826 
4615.000000	64.723825 
4614.000000	64.762234 
4613.000000	64.805507 
4612.000000	64.851427 
4611.000000	64.896106 
4610.000000	64.933228 
4609.000000	64.955520 
4608.000000	64.956617 
4607.000000	64.933180 
4606.000000	64.885210 
4605.000000	64.816451 
4604.000000	64.734268 
4603.000000	64.648103 
4602.000000	64.567279 
4601.000000	64.499092 
4600.000000	64.447999 
4599.000000	64.414787 
4598.000000	64.397048 
4597.000000	64.390087 
4596.000000	64.388608 
4595.000000	64.387822 
4594.000000	64.384126 
4593.000000	64.375877 
4592.000000	64.361977 
4591.000000	64.343333 
4590.000000	64.321351 
4589.000000	64.298915 
4588.000000	64.278674 
4587.000000	64.264440 
4586.000000	64.260363 
4585.000000	64.270257 
4584.000000	64.296460 
4583.000000	64.339113 
4582.000000	64.395904 
4581.000000	64.461612 
4580.000000	64.528775 
4579.000000	64.589357 
4578.000000	64.636254 
4577.000000	64.665412 
4576.000000	64.676570 
4575.000000	64.673233 
4574.000000	64.661455 
4573.000000	64.648938 
4572.000000	64.642405 
4571.000000	64.645838 
4570.000000	64.659118 
4569.000000	64.679265 
4568.000000	64.700436 
4567.000000	64.716339 
4566.000000	64.721155 
4565.000000	64.711737 
4564.000000	64.687323 
4563.000000	64.650058 
4562.000000	64.603424 
4561.000000	64.551115 
4560.000000	64.496231 
4559.000000	64.440774 
4558.000000	64.385867 
4557.000000	64.332056 
4556.000000	64.280605 
4555.000000	64.233922 
4554.000000	64.195704 
4553.000000	64.170169 
4552.000000	64.161944 
4551.000000	64.174723 
4550.000000	64.210176 
4549.000000	64.267253 
4548.000000	64.342498 
4547.000000	64.430308 
4546.000000	64.523625 
4545.000000	64.614677 
4544.000000	64.696431 
4543.000000	64.762544 
4542.000000	64.808416 
4541.000000	64.830780 
4540.000000	64.827942 
4539.000000	64.799714 
4538.000000	64.748048 
4537.000000	64.676570 
4536.000000	64.591503 
4535.000000	64.499831 
4534.000000	64.410066 
4533.000000	64.329171 
4532.000000	64.262294 
4531.000000	64.211392 
4530.000000	64.175081 
4529.000000	64.149618 
4528.000000	64.129853 
4527.000000	64.111447 
4526.000000	64.092063 
4525.000000	64.071869 
4524.000000	64.053344 
4523.000000	64.040088 
4522.000000	64.035439 
4521.000000	64.041519 
4520.000000	64.058303 
4519.000000	64.083456 
4518.000000	64.112854 
4517.000000	64.141821 
4516.000000	64.166402 
4515.000000	64.183902 
4514.000000	64.193582 
4513.000000	64.196801 
4512.000000	64.196133 
4511.000000	64.193964 
4510.000000	64.191722 
4509.000000	64.189338 
4508.000000	64.185190 
4507.000000	64.176940 
4506.000000	64.162635 
4505.000000	64.141702 
4504.000000	64.115762 
4503.000000	64.089274 
4502.000000	64.067244 
4501.000000	64.054131 
4500.000000	64.052295 
4499.000000	64.061379 
4498.000000	64.077901 
4497.000000	64.096188 
4496.000000	64.110016 
4495.000000	64.114356 
4494.000000	64.105772 
4493.000000	64.083647 
4492.000000	64.050531 
4491.000000	64.011526 
4490.000000	63.972282 
4489.000000	63.937926 
4488.000000	63.912582 
4487.000000	63.897871 
4486.000000	63.892865 
4485.000000	63.894343 
4484.000000	63.897013 
4483.000000	63.896179 
4482.000000	63.889050 
4481.000000	63.876008 
4480.000000	63.859844 
4479.000000	63.845944 
4478.000000	63.840746 
4477.000000	63.849616 
4476.000000	63.875079 
4475.000000	63.915729 
4474.000000	63.966369 
4473.000000	64.018774 
4472.000000	64.063882 
4471.000000	64.094209 
4470.000000	64.106082 
4469.000000	64.102578 
4468.000000	64.093565 
4467.000000	64.092993 
4466.000000	64.115810 
4465.000000	64.175486 
4464.000000	64.279437 
4463.000000	64.426898 
4462.000000	64.606261 
4461.000000	64.800310 
4460.000000	64.985275 
4459.000000	65.133047 
4458.000000	65.217781 
4457.000000	65.223002 
4456.000000	65.144824 
4455.000000	64.991235 
4454.000000	64.782977 
4453.000000	64.557456 
4452.000000	64.349603 
4451.000000	64.180541 
4450.000000	64.058279 
4449.000000	63.976144 
4448.000000	63.922524 
4447.000000	63.889765 
4446.000000	63.874363 
4445.000000	63.877487 
4444.000000	63.911914 
4443.000000	63.998436 
4442.000000	64.151167 
4441.000000	64.372777 
4440.000000	64.653944 
4439.000000	64.975881 
4438.000000	65.313529 
4437.000000	65.643930 
4436.000000	65.953922 
4435.000000	66.243124 
4434.000000	66.518998 
4433.000000	66.799855 
4432.000000	67.091321 
4431.000000	67.411494 
4430.000000	67.766571 
4429.000000	68.189120 
4428.000000	68.742346 
4427.000000	69.501137 
4426.000000	70.557713 
4425.000000	71.942090 
4424.000000	73.612809 
4423.000000	75.408673 
4422.000000	77.075028 
4421.000000	78.298354 
4420.000000	78.783845 
4419.000000	78.327679 
4418.000000	76.884078 
4417.000000	74.576568 
4416.000000	71.684718 
4415.000000	68.585491 
4414.000000	65.678405 
4413.000000	63.314294 
4412.000000	61.728692 
4411.000000	61.014866 
4410.000000	61.115980 
4409.000000	61.857032 
4408.000000	62.994146 
4407.000000	64.259576 
4406.000000	65.430212 
4405.000000	66.348743 
4404.000000	66.957259 
4403.000000	67.257905 
4402.000000	67.317676 
4401.000000	67.218160 
4400.000000	67.041325 
4399.000000	66.843128 
4398.000000	66.647863 
4397.000000	66.463541 
4396.000000	66.277384 
4395.000000	66.082835 
4394.000000	65.873003 
4393.000000	65.654301 
4392.000000	65.436744 
4391.000000	65.231347 
4390.000000	65.050935 
4389.000000	64.906311 
4388.000000	64.805269 
4387.000000	64.751052 
4386.000000	64.739942 
4385.000000	64.762163 
4384.000000	64.807391 
4383.000000	64.865922 
4382.000000	64.920735 
4381.000000	64.955711 
4380.000000	64.965391 
4379.000000	64.951896 
4378.000000	64.920973 
4377.000000	64.880681 
4376.000000	64.836668 
4375.000000	64.791655 
4374.000000	64.748668 
4373.000000	64.706921 
4372.000000	64.661383 
4371.000000	64.606618 
4370.000000	64.539837 
4369.000000	64.462089 
4368.000000	64.379572 
4367.000000	64.301633 
4366.000000	64.238095 
4365.000000	64.197039 
4364.000000	64.182615 
4363.000000	64.192414 
4362.000000	64.217901 
4361.000000	64.246773 
4360.000000	64.266276 
4359.000000	64.266037 
4358.000000	64.241170 
4357.000000	64.193820 
4356.000000	64.132976 
4355.000000	64.071035 
4354.000000	64.021301 
4353.000000	63.994264 
4352.000000	63.995432 
4351.000000	64.024257 
4350.000000	64.074802 
4349.000000	64.138245 
4348.000000	64.204907 
4347.000000	64.266920 
4346.000000	64.319491 
4345.000000	64.361262 
4344.000000	64.393377 
4343.000000	64.417362 
4342.000000	64.434194 
4341.000000	64.443445 
4340.000000	64.443087 
4339.000000	64.430403 
4338.000000	64.403247 
4337.000000	64.361906 
4336.000000	64.308643 
4335.000000	64.247870 
4334.000000	64.185500 
4333.000000	64.128041 
4332.000000	64.081072 
4331.000000	64.048552 
4330.000000	64.032554 
4329.000000	64.033603 
4328.000000	64.050865 
4327.000000	64.082837 
4326.000000	64.127206 
4325.000000	64.181280 
4324.000000	64.241385 
4323.000000	64.303445 
4322.000000	64.362597 
4321.000000	64.414191 
4320.000000	64.454007 
4319.000000	64.479255 
4318.000000	64.489030 
4317.000000	64.484453 
4316.000000	64.468359 
4315.000000	64.444637 
4314.000000	64.417457 
4313.000000	64.390945 
4312.000000	64.368963 
4311.000000	64.354658 
4310.000000	64.350366 
4309.000000	64.357757 
4308.000000	64.377760 
4307.000000	64.410138 
4306.000000	64.453244 
4305.000000	64.504170 
4304.000000	64.559006 
4303.000000	64.613151 
4302.000000	64.662265 
4301.000000	64.702963 
4300.000000	64.733409 
4299.000000	64.753794 
4298.000000	64.765715 
4297.000000	64.771652 
4296.000000	64.774036 
4295.000000	64.774727 
4294.000000	64.774751 
4293.000000	64.774703 
4292.000000	64.774632 
4291.000000	64.775180 
4290.000000	64.776515 
4289.000000	64.779114 
4288.000000	64.782309 
4287.000000	64.784693 
4286.000000	64.783525 
4285.000000	64.775252 
4284.000000	64.756131 
4283.000000	64.723467 
4282.000000	64.676332 
4281.000000	64.616131 
4280.000000	64.547157 
4279.000000	64.475727 
4278.000000	64.409017 
4277.000000	64.353585 
4276.000000	64.313864 
4275.000000	64.291453 
4274.000000	64.284896 
4273.000000	64.290618 
4272.000000	64.303374 
4271.000000	64.318513 
4270.000000	64.332485 
4269.000000	64.344549 
4268.000000	64.355540 
4267.000000	64.368462 
4266.000000	64.386725 
4265.000000	64.413523 
4264.000000	64.450383 
4263.000000	64.496564 
4262.000000	64.548826 
4261.000000	64.602184 
4260.000000	64.651322 
4259.000000	64.691615 
4258.000000	64.720606 
4257.000000	64.738297 
4256.000000	64.747166 
4255.000000	64.751005 
4254.000000	64.753961 
4253.000000	64.759206 
4252.000000	64.768171 
4251.000000	64.780306 
4250.000000	64.793252 
4249.000000	64.804363 
4248.000000	64.811277 
4247.000000	64.812922 
4246.000000	64.809465 
4245.000000	64.802670 
4244.000000	64.794969 
4243.000000	64.788651 
4242.000000	64.785575 
4241.000000	64.786362 
4240.000000	64.790987 
4239.000000	64.799237 
4238.000000	64.810729 
4237.000000	64.825654 
4236.000000	64.843893 
4235.000000	64.865016 
4234.000000	64.887547 
4233.000000	64.908766 
4232.000000	64.925050 
4231.000000	64.932560 
4230.000000	64.928269 
4229.000000	64.911031 
4228.000000	64.882373 
4227.000000	64.846634 
4226.000000	64.809989 
4225.000000	64.779090 
4224.000000	64.759230 
4223.000000	64.752864 
4222.000000	64.759063 
4221.000000	64.773511 
4220.000000	64.790034 
4219.000000	64.802050 
4218.000000	64.804291 
4217.000000	64.794564 
4216.000000	64.774298 
4215.000000	64.748525 
4214.000000	64.723753 
4213.000000	64.706921 
4212.000000	64.703965 
4211.000000	64.718270 
4210.000000	64.749979 
4209.000000	64.796161 
4208.000000	64.851784 
4207.000000	64.910411 
4206.000000	64.965772 
4205.000000	65.012621 
4204.000000	65.047621 
4203.000000	65.069723 
4202.000000	65.079927 
4201.000000	65.081429 
4200.000000	65.078401 
4199.000000	65.075850 
4198.000000	65.078043 
4197.000000	65.087842 
4196.000000	65.105605 
4195.000000	65.129375 
4194.000000	65.154671 
4193.000000	65.175294 
4192.000000	65.184211 
4191.000000	65.175557 
4190.000000	65.145468 
4189.000000	65.093231 
4188.000000	65.021181 
4187.000000	64.934754 
4186.000000	64.841222 
4185.000000	64.748263 
4184.000000	64.663004 
4183.000000	64.590716 
4182.000000	64.534759 
4181.000000	64.496302 
4180.000000	64.474940 
4179.000000	64.469051 
4178.000000	64.476609 
4177.000000	64.495277 
4176.000000	64.522814 
4175.000000	64.556670 
4174.000000	64.594411 
4173.000000	64.633679 
4172.000000	64.672446 
4171.000000	64.708948 
4170.000000	64.742279 
4169.000000	64.772248 
4168.000000	64.799237 
4167.000000	64.823722 
4166.000000	64.845919 
4165.000000	64.865446 
4164.000000	64.881372 
4163.000000	64.892697 
4162.000000	64.899396 
4161.000000	64.902186 
4160.000000	64.903497 
4159.000000	64.906096 
