PE IR       SPECTRUM    SPECTRUM    ASCII       PEDS        1.60        
  -1
BZ6E24~1.ASC
17/04/07
17:03:40.00
17/04/07
17:03:40.00
tln
$BZ1503107-1_t0046$<tbV0>[10.4,-2.6,8.0,0.0,27,1,0]
370.000000
64









2002,4.07    
MIRTGS : RIGHTBACK : INTERNAL 2
MIR : ON : INTERNAL 2
OPTKBR

0.200000
8
8.000000
FILLER
RATIO
SPECTRUM
UNLOCKED 256

DOUBLE
64
COMBINED
1
0
0


1.000000
RATIO


1
0
TRUE
51149
0
LEFT NOT FITTED RIGHT NOT FITTED 0
NONE
NONE
15600
12.000000
4.427000
51148
TRUE
1 0 8 72 0 0 0 0 

15798.010000






#HDR
-1
-1
#GR
CM-1
%T
0.00002384185791015625
0.0
5000.000000
-1.000000
4631
8
66.878557
44.022297
#DATA
5000.000000	65.751767 
4999.000000	66.107201 
4998.000000	66.362714 
4997.000000	66.499829 
4996.000000	66.519641 
4995.000000	66.438484 
4994.000000	66.282963 
4993.000000	66.080498 
4992.000000	65.858244 
4991.000000	65.642094 
4990.000000	65.453147 
4989.000000	65.311145 
4988.000000	65.228128 
4987.000000	65.210247 
4986.000000	65.253400 
4985.000000	65.344691 
4984.000000	65.463399 
4983.000000	65.584683 
4982.000000	65.685033 
4981.000000	65.746879 
4980.000000	65.761923 
4979.000000	65.731334 
4978.000000	65.664553 
4977.000000	65.574765 
4976.000000	65.473794 
4975.000000	65.369200 
4974.000000	65.263080 
4973.000000	65.153312 
4972.000000	65.037870 
4971.000000	64.916586 
4970.000000	64.795064 
4969.000000	64.682245 
4968.000000	64.589524 
4967.000000	64.526081 
4966.000000	64.493083 
4965.000000	64.485979 
4964.000000	64.494395 
4963.000000	64.506602 
4962.000000	64.512276 
4961.000000	64.506149 
4960.000000	64.488530 
4959.000000	64.465808 
4958.000000	64.447784 
4957.000000	64.444494 
4956.000000	64.462637 
4955.000000	64.504432 
4954.000000	64.566731 
4953.000000	64.642381 
4952.000000	64.722204 
4951.000000	64.797663 
4950.000000	64.862799 
4949.000000	64.914631 
4948.000000	64.953804 
4947.000000	64.983201 
4946.000000	65.007328 
4945.000000	65.030956 
4944.000000	65.057802 
4943.000000	65.091919 
4942.000000	65.133571 
4941.000000	65.180158 
4940.000000	65.225028 
4939.000000	65.259552 
4938.000000	65.274786 
4937.000000	65.264177 
4936.000000	65.225791 
4935.000000	65.163707 
4934.000000	65.087294 
4933.000000	65.009236 
4932.000000	64.943027 
4931.000000	64.899897 
4930.000000	64.886736 
4929.000000	64.904952 
4928.000000	64.950585 
4927.000000	65.015697 
4926.000000	65.090942 
4925.000000	65.167760 
4924.000000	65.239548 
4923.000000	65.302777 
4922.000000	65.356636 
4921.000000	65.402555 
4920.000000	65.442085 
4919.000000	65.476393 
4918.000000	65.506720 
4917.000000	65.532541 
4916.000000	65.553641 
4915.000000	65.567493 
4914.000000	65.571308 
4913.000000	65.560650 
4912.000000	65.531396 
4911.000000	65.480756 
4910.000000	65.408825 
4909.000000	65.319728 
4908.000000	65.221786 
4907.000000	65.126228 
4906.000000	65.045309 
4905.000000	64.989256 
4904.000000	64.964103 
4903.000000	64.969468 
4902.000000	64.998745 
4901.000000	65.040087 
4900.000000	65.079259 
4899.000000	65.102481 
4898.000000	65.100049 
4897.000000	65.067720 
4896.000000	65.008234 
4895.000000	64.929819 
4894.000000	64.844822 
4893.000000	64.765691 
4892.000000	64.702939 
4891.000000	64.663314 
4890.000000	64.648652 
4889.000000	64.656472 
4888.000000	64.680886 
4887.000000	64.714574 
4886.000000	64.750337 
4885.000000	64.782357 
4884.000000	64.807319 
4883.000000	64.824056 
4882.000000	64.833688 
4881.000000	64.838099 
4880.000000	64.839625 
4879.000000	64.839839 
4878.000000	64.839529 
4877.000000	64.838385 
4876.000000	64.835143 
4875.000000	64.827799 
4874.000000	64.814543 
4873.000000	64.794254 
4872.000000	64.766526 
4871.000000	64.732265 
4870.000000	64.693355 
4869.000000	64.652943 
4868.000000	64.614820 
4867.000000	64.583301 
4866.000000	64.562034 
4865.000000	64.554023 
4864.000000	64.560627 
4863.000000	64.581799 
4862.000000	64.615774 
4861.000000	64.659571 
4860.000000	64.709067 
4859.000000	64.759612 
4858.000000	64.806723 
4857.000000	64.846038 
4856.000000	64.874196 
4855.000000	64.888787 
4854.000000	64.888572 
4853.000000	64.873886 
4852.000000	64.846682 
4851.000000	64.810538 
4850.000000	64.770126 
4849.000000	64.730501 
4848.000000	64.696240 
4847.000000	64.670848 
4846.000000	64.656019 
4845.000000	64.651155 
4844.000000	64.653873 
4843.000000	64.660596 
4842.000000	64.667630 
4841.000000	64.672088 
4840.000000	64.672350 
4839.000000	64.668822 
4838.000000	64.663076 
4837.000000	64.656710 
4836.000000	64.650774 
4835.000000	64.644837 
4834.000000	64.637279 
4833.000000	64.625501 
4832.000000	64.607000 
4831.000000	64.580202 
4830.000000	64.545226 
4829.000000	64.504337 
4828.000000	64.461398 
4827.000000	64.420986 
4826.000000	64.387631 
4825.000000	64.364743 
4824.000000	64.354062 
4823.000000	64.355134 
4822.000000	64.365887 
4821.000000	64.383316 
4820.000000	64.404296 
4819.000000	64.426326 
4818.000000	64.447975 
4817.000000	64.469194 
4816.000000	64.491057 
4815.000000	64.515471 
4814.000000	64.544415 
4813.000000	64.579224 
4812.000000	64.620375 
4811.000000	64.666724 
4810.000000	64.715528 
4809.000000	64.762258 
4808.000000	64.802336 
4807.000000	64.831113 
4806.000000	64.845442 
4805.000000	64.843988 
4804.000000	64.828157 
4803.000000	64.801406 
4802.000000	64.769053 
4801.000000	64.736485 
4800.000000	64.708399 
4799.000000	64.687108 
4798.000000	64.672613 
4797.000000	64.662480 
4796.000000	64.653134 
4795.000000	64.641070 
4794.000000	64.624118 
4793.000000	64.602398 
4792.000000	64.578390 
4791.000000	64.555883 
4790.000000	64.539337 
4789.000000	64.531755 
4788.000000	64.534592 
4787.000000	64.547395 
4786.000000	64.568567 
4785.000000	64.595580 
4784.000000	64.626312 
4783.000000	64.659595 
4782.000000	64.695048 
4781.000000	64.732480 
4780.000000	64.770913 
4779.000000	64.808058 
4778.000000	64.839887 
4777.000000	64.861202 
4776.000000	64.866828 
4775.000000	64.853310 
4774.000000	64.820051 
4773.000000	64.770269 
4772.000000	64.710140 
4771.000000	64.647746 
4770.000000	64.591288 
4769.000000	64.547443 
4768.000000	64.520192 
4767.000000	64.510083 
4766.000000	64.514994 
4765.000000	64.530849 
4764.000000	64.552712 
4763.000000	64.575982 
4762.000000	64.596915 
4761.000000	64.612960 
4760.000000	64.622282 
4759.000000	64.623785 
4758.000000	64.616966 
4757.000000	64.602136 
4756.000000	64.580225 
4755.000000	64.553356 
4754.000000	64.524602 
4753.000000	64.497780 
4752.000000	64.477133 
4751.000000	64.466476 
4750.000000	64.468050 
4749.000000	64.482712 
4748.000000	64.509510 
4747.000000	64.546322 
4746.000000	64.590239 
4745.000000	64.637970 
4744.000000	64.686369 
4743.000000	64.732599 
4742.000000	64.774036 
4741.000000	64.808177 
4740.000000	64.832878 
4739.000000	64.846658 
4738.000000	64.849305 
4737.000000	64.842534 
4736.000000	64.830112 
4735.000000	64.817786 
4734.000000	64.812064 
4733.000000	64.819335 
4732.000000	64.843678 
4731.000000	64.885449 
4730.000000	64.940476 
4729.000000	65.001034 
4728.000000	65.057015 
4727.000000	65.097975 
4726.000000	65.116000 
4725.000000	65.107536 
4724.000000	65.074419 
4723.000000	65.023612 
4722.000000	64.965438 
4721.000000	64.910840 
4720.000000	64.868807 
4719.000000	64.844822 
4718.000000	64.839577 
4717.000000	64.849877 
4716.000000	64.869570 
4715.000000	64.891767 
4714.000000	64.909791 
4713.000000	64.918708 
4712.000000	64.915561 
4711.000000	64.899635 
4710.000000	64.871358 
4709.000000	64.831924 
4708.000000	64.782786 
4707.000000	64.725422 
4706.000000	64.661550 
4705.000000	64.593124 
4704.000000	64.522624 
4703.000000	64.453482 
4702.000000	64.389324 
4701.000000	64.334583 
4700.000000	64.292836 
4699.000000	64.267706 
4698.000000	64.262175 
4697.000000	64.278125 
4696.000000	64.314985 
4695.000000	64.369893 
4694.000000	64.437365 
4693.000000	64.510011 
4692.000000	64.578652 
4691.000000	64.635610 
4690.000000	64.675903 
4689.000000	64.699769 
4688.000000	64.712262 
4687.000000	64.722728 
4686.000000	64.742088 
4685.000000	64.780187 
4684.000000	64.842915 
4683.000000	64.930129 
4682.000000	65.035080 
4681.000000	65.146064 
4680.000000	65.248847 
4679.000000	65.330243 
4678.000000	65.380620 
4677.000000	65.397000 
4676.000000	65.382122 
4675.000000	65.343213 
4674.000000	65.288996 
4673.000000	65.228128 
4672.000000	65.165829 
4671.000000	65.103888 
4670.000000	65.040445 
4669.000000	64.973115 
4668.000000	64.899659 
4667.000000	64.820218 
4666.000000	64.737987 
4665.000000	64.658951 
4664.000000	64.591407 
4663.000000	64.543509 
4662.000000	64.521312 
4661.000000	64.526700 
4660.000000	64.557456 
4659.000000	64.607334 
4658.000000	64.667296 
4657.000000	64.727401 
4656.000000	64.779567 
4655.000000	64.819216 
4654.000000	64.845490 
4653.000000	64.861321 
4652.000000	64.871740 
4651.000000	64.882588 
4650.000000	64.898371 
4649.000000	64.921545 
4648.000000	64.952349 
4647.000000	64.988732 
4646.000000	65.027880 
4645.000000	65.066623 
4644.000000	65.103149 
4643.000000	65.136528 
4642.000000	65.167379 
4641.000000	65.196633 
4640.000000	65.224981 
4639.000000	65.252327 
4638.000000	65.277647 
4637.000000	65.299105 
4636.000000	65.314626 
4635.000000	65.322470 
4634.000000	65.322017 
4633.000000	65.313124 
4632.000000	65.296506 
4631.000000	65.273427 
4630.000000	65.245652 
4629.000000	65.215563 
4628.000000	65.186095 
4627.000000	65.160918 
4626.000000	65.143871 
4625.000000	65.138912 
4624.000000	65.148830 
4623.000000	65.174555 
4622.000000	65.214300 
4621.000000	65.263724 
4620.000000	65.315961 
4619.000000	65.362977 
4618.000000	65.396451 
4617.000000	65.409755 
4616.000000	65.398573 
4615.000000	65.362286 
4614.000000	65.303516 
4613.000000	65.227937 
4612.000000	65.142726 
4611.000000	65.055584 
4610.000000	64.973425 
4609.000000	64.901828 
4608.000000	64.844250 
4607.000000	64.802289 
4606.000000	64.775514 
4605.000000	64.762067 
4604.000000	64.758801 
4603.000000	64.762282 
4602.000000	64.769530 
4601.000000	64.778661 
4600.000000	64.788579 
4599.000000	64.799237 
4598.000000	64.811015 
4597.000000	64.824509 
4596.000000	64.840030 
4595.000000	64.857983 
4594.000000	64.877915 
4593.000000	64.899373 
4592.000000	64.922237 
4591.000000	64.946293 
4590.000000	64.970993 
4589.000000	64.995408 
4588.000000	65.018415 
4587.000000	65.038633 
4586.000000	65.054607 
4585.000000	65.065431 
4584.000000	65.071010 
4583.000000	65.072250 
4582.000000	65.071129 
4581.000000	65.069913 
4580.000000	65.070915 
4579.000000	65.074682 
4578.000000	65.079689 
4577.000000	65.082168 
4576.000000	65.077233 
4575.000000	65.059900 
4574.000000	65.027308 
4573.000000	64.979577 
4572.000000	64.921045 
4571.000000	64.859604 
4570.000000	64.805912 
4569.000000	64.770340 
4568.000000	64.762115 
4567.000000	64.787244 
4566.000000	64.847326 
4565.000000	64.939141 
4564.000000	65.055131 
4563.000000	65.184545 
4562.000000	65.314960 
4561.000000	65.434360 
4560.000000	65.532779 
4559.000000	65.603733 
4558.000000	65.644478 
4557.000000	65.656185 
4556.000000	65.642762 
4555.000000	65.609836 
4554.000000	65.563344 
4553.000000	65.509080 
4552.000000	65.451240 
4551.000000	65.392589 
4550.000000	65.335106 
4549.000000	65.280675 
4548.000000	65.231108 
4547.000000	65.188455 
4546.000000	65.154719 
4545.000000	65.131545 
4544.000000	65.119028 
4543.000000	65.116190 
4542.000000	65.119791 
4541.000000	65.126419 
4540.000000	65.132641 
4539.000000	65.136933 
4538.000000	65.139937 
4537.000000	65.144181 
4536.000000	65.153169 
4535.000000	65.169906 
4534.000000	65.195631 
4533.000000	65.228962 
4532.000000	65.265727 
4531.000000	65.300393 
4530.000000	65.326786 
4529.000000	65.341258 
4528.000000	65.343952 
4527.000000	65.339112 
4526.000000	65.333890 
4525.000000	65.337300 
4524.000000	65.357470 
4523.000000	65.399050 
4522.000000	65.461564 
4521.000000	65.538859 
4520.000000	65.620160 
4519.000000	65.692663 
4518.000000	65.744423 
4517.000000	65.767121 
4516.000000	65.758132 
4515.000000	65.721225 
4514.000000	65.665769 
4513.000000	65.603637 
4512.000000	65.547490 
4511.000000	65.507578 
4510.000000	65.490555 
4509.000000	65.499401 
4508.000000	65.532588 
4507.000000	65.586209 
4506.000000	65.653061 
4505.000000	65.724635 
4504.000000	65.791368 
4503.000000	65.843725 
4502.000000	65.873789 
4501.000000	65.876460 
4500.000000	65.849924 
4499.000000	65.796399 
4498.000000	65.720915 
4497.000000	65.630698 
4496.000000	65.533614 
4495.000000	65.437102 
4494.000000	65.347790 
4493.000000	65.270948 
4492.000000	65.210771 
4491.000000	65.170311 
4490.000000	65.150761 
4489.000000	65.151667 
4488.000000	65.170907 
4487.000000	65.204620 
4486.000000	65.246558 
4485.000000	65.289711 
4484.000000	65.326046 
4483.000000	65.349626 
4482.000000	65.356850 
4481.000000	65.348100 
4480.000000	65.327715 
4479.000000	65.302062 
4478.000000	65.277743 
4477.000000	65.259933 
4476.000000	65.250635 
4475.000000	65.249824 
4474.000000	65.256333 
4473.000000	65.268158 
4472.000000	65.283894 
4471.000000	65.300393 
4470.000000	65.313720 
4469.000000	65.319681 
4468.000000	65.315604 
4467.000000	65.303707 
4466.000000	65.292000 
4465.000000	65.290880 
4464.000000	65.311360 
4463.000000	65.369915 
4462.000000	65.479588 
4461.000000	65.633583 
4460.000000	65.813064 
4459.000000	66.000413 
4458.000000	66.176557 
4457.000000	66.323709 
4456.000000	66.429185 
4455.000000	66.487503 
4454.000000	66.499805 
4453.000000	66.475725 
4452.000000	66.426086 
4451.000000	66.357350 
4450.000000	66.274857 
4449.000000	66.186094 
4448.000000	66.095638 
4447.000000	66.003870 
4446.000000	65.918159 
4445.000000	65.852618 
4444.000000	65.832209 
4443.000000	65.882182 
4442.000000	66.027545 
4441.000000	66.270112 
4440.000000	66.568207 
4439.000000	66.820311 
4438.000000	66.878557 
4437.000000	66.562700 
4436.000000	65.694808 
4435.000000	64.146661 
4434.000000	61.877226 
4433.000000	58.972191 
4432.000000	55.631303 
4431.000000	52.169489 
4430.000000	48.945736 
4429.000000	46.330094 
4428.000000	44.623804 
4427.000000	44.022297 
4426.000000	44.565010 
4425.000000	46.145534 
4424.000000	48.522114 
4423.000000	51.375865 
4422.000000	54.350280 
4421.000000	57.134008 
4420.000000	59.490418 
4419.000000	61.300301 
4418.000000	62.546992 
4417.000000	63.311100 
4416.000000	63.723206 
4415.000000	63.935780 
4414.000000	64.078426 
4413.000000	64.240932 
4412.000000	64.454412 
4411.000000	64.715623 
4410.000000	64.988064 
4409.000000	65.229320 
4408.000000	65.399265 
4407.000000	65.482473 
4406.000000	65.484833 
4405.000000	65.425562 
4404.000000	65.334224 
4403.000000	65.241265 
4402.000000	65.172266 
4401.000000	65.138721 
4400.000000	65.142583 
4399.000000	65.188765 
4398.000000	65.273642 
4397.000000	65.385150 
4396.000000	65.507984 
4395.000000	65.626931 
4394.000000	65.728974 
4393.000000	65.806603 
4392.000000	65.854835 
4391.000000	65.868806 
4390.000000	65.851926 
4389.000000	65.816044 
4388.000000	65.766906 
4387.000000	65.703344 
4386.000000	65.626502 
4385.000000	65.539813 
4384.000000	65.448164 
4383.000000	65.358066 
4382.000000	65.278601 
4381.000000	65.218687 
4380.000000	65.184593 
4379.000000	65.178585 
4378.000000	65.198159 
4377.000000	65.236377 
4376.000000	65.281963 
4375.000000	65.323209 
4374.000000	65.349984 
4373.000000	65.356755 
4372.000000	65.342879 
4371.000000	65.313267 
4370.000000	65.276002 
4369.000000	65.240836 
4368.000000	65.216279 
4367.000000	65.207576 
4366.000000	65.215706 
4365.000000	65.237331 
4364.000000	65.266323 
4363.000000	65.295457 
4362.000000	65.318751 
4361.000000	65.332245 
4360.000000	65.335083 
4359.000000	65.329217 
4358.000000	65.318965 
4357.000000	65.309309 
4356.000000	65.304827 
4355.000000	65.308928 
4354.000000	65.322995 
4353.000000	65.346837 
4352.000000	65.378260 
4351.000000	65.414118 
4350.000000	65.450406 
4349.000000	65.483403 
4348.000000	65.509891 
4347.000000	65.527415 
4346.000000	65.535187 
4345.000000	65.533852 
4344.000000	65.525913 
4343.000000	65.515112 
4342.000000	65.505981 
4341.000000	65.503096 
4340.000000	65.509748 
4339.000000	65.527534 
4338.000000	65.555620 
4337.000000	65.590906 
4336.000000	65.628409 
4335.000000	65.662169 
4334.000000	65.686440 
4333.000000	65.696620 
4332.000000	65.690088 
4331.000000	65.666437 
4330.000000	65.627193 
4329.000000	65.575313 
4328.000000	65.514612 
4327.000000	65.449309 
4326.000000	65.383386 
4325.000000	65.320611 
4324.000000	65.264749 
4323.000000	65.219664 
4322.000000	65.188670 
4321.000000	65.174651 
4320.000000	65.179276 
4319.000000	65.202975 
4318.000000	65.243506 
4317.000000	65.296936 
4316.000000	65.357637 
4315.000000	65.419244 
4314.000000	65.475296 
4313.000000	65.520405 
4312.000000	65.550708 
4311.000000	65.564680 
4310.000000	65.562868 
4309.000000	65.547776 
4308.000000	65.523219 
4307.000000	65.493965 
4306.000000	65.464711 
4305.000000	65.439772 
4304.000000	65.422034 
4303.000000	65.412950 
4302.000000	65.411829 
4301.000000	65.416002 
4300.000000	65.421223 
4299.000000	65.422463 
4298.000000	65.415310 
4297.000000	65.396523 
4296.000000	65.365409 
4295.000000	65.324234 
4294.000000	65.277767 
4293.000000	65.231704 
4292.000000	65.192031 
4291.000000	65.163230 
4290.000000	65.147757 
4289.000000	65.145397 
4288.000000	65.153598 
4287.000000	65.168309 
4286.000000	65.185260 
4285.000000	65.200901 
4284.000000	65.212917 
4283.000000	65.220451 
4282.000000	65.224194 
4281.000000	65.225625 
4280.000000	65.226173 
4279.000000	65.226602 
4278.000000	65.226674 
4277.000000	65.225362 
4276.000000	65.221238 
4275.000000	65.213036 
4274.000000	65.200257 
4273.000000	65.183782 
4272.000000	65.165805 
4271.000000	65.149807 
4270.000000	65.140056 
4269.000000	65.140509 
4268.000000	65.153908 
4267.000000	65.180873 
4266.000000	65.219640 
4265.000000	65.266132 
4264.000000	65.314412 
4263.000000	65.358161 
4262.000000	65.391731 
4261.000000	65.411543 
4260.000000	65.416717 
4259.000000	65.408968 
4258.000000	65.392351 
4257.000000	65.371608 
4256.000000	65.351295 
4255.000000	65.334391 
4254.000000	65.322017 
4253.000000	65.313267 
4252.000000	65.305900 
4251.000000	65.297532 
4250.000000	65.286660 
4249.000000	65.273118 
4248.000000	65.258145 
4247.000000	65.243697 
4246.000000	65.231633 
4245.000000	65.222692 
4244.000000	65.216302 
4243.000000	65.210676 
4242.000000	65.203428 
4241.000000	65.192580 
4240.000000	65.177297 
4239.000000	65.158224 
4238.000000	65.137386 
4237.000000	65.117549 
4236.000000	65.101432 
4235.000000	65.090942 
4234.000000	65.086460 
4233.000000	65.086460 
4232.000000	65.088272 
4231.000000	65.088772 
4230.000000	65.085315 
4229.000000	65.076231 
4228.000000	65.061378 
4227.000000	65.042042 
4226.000000	65.020561 
4225.000000	64.999556 
4224.000000	64.981341 
4223.000000	64.967417 
4222.000000	64.958310 
4221.000000	64.953851 
4220.000000	64.953422 
4219.000000	64.956426 
4218.000000	64.962315 
4217.000000	64.970827 
4216.000000	64.981865 
4215.000000	64.995288 
4214.000000	65.010452 
4213.000000	65.026187 
4212.000000	65.040469 
4211.000000	65.050840 
4210.000000	65.054941 
4209.000000	65.050864 
4208.000000	65.037894 
4207.000000	65.016555 
4206.000000	64.989089 
4205.000000	64.958357 
4204.000000	64.927697 
4203.000000	64.900183 
4202.000000	64.878225 
4201.000000	64.863252 
4200.000000	64.855718 
4199.000000	64.855051 
4198.000000	64.859843 
4197.000000	64.868021 
4196.000000	64.877080 
4195.000000	64.884233 
4194.000000	64.886736 
4193.000000	64.882087 
4192.000000	64.868688 
4191.000000	64.846253 
4190.000000	64.815902 
4189.000000	64.779996 
4188.000000	64.741921 
4187.000000	64.705491 
4186.000000	64.674186 
4185.000000	64.650297 
4184.000000	64.634847 
4183.000000	64.627170 
4182.000000	64.625906 
4181.000000	64.629459 
4180.000000	64.636731 
4179.000000	64.647150 
4178.000000	64.660835 
4177.000000	64.677953 
4176.000000	64.698147 
4175.000000	64.720034 
4174.000000	64.740920 
4173.000000	64.757251 
4172.000000	64.765381 
4171.000000	64.762639 
4170.000000	64.748120 
4169.000000	64.723348 
4168.000000	64.692091 
4167.000000	64.660000 
4166.000000	64.633059 
4165.000000	64.616680 
4164.000000	64.614367 
4163.000000	64.627170 
4162.000000	64.653849 
4161.000000	64.690732 
4160.000000	64.733052 
4159.000000	64.775395 
