PE IR       SPECTRUM    SPECTRUM    ASCII       PEDS        1.60        
  -1
BZ61B0~1.ASC
17/04/07
16:24:22.00
17/04/07
16:24:22.00
tln
$BZ1503107-1_t0039$<tbV0>[0.0,-5.2,8.0,0.0,27,1,0]
370.000000
64









2002,4.07    
MIRTGS : RIGHTBACK : INTERNAL 2
MIR : ON : INTERNAL 2
OPTKBR

0.200000
8
8.000000
FILLER
RATIO
SPECTRUM
UNLOCKED 256

DOUBLE
64
COMBINED
1
0
0


1.000000
RATIO


1
0
TRUE
51149
0
LEFT NOT FITTED RIGHT NOT FITTED 0
NONE
NONE
15600
12.000000
4.427000
51148
TRUE
1 0 8 72 0 0 0 0 

15798.010000






#HDR
-1
-1
#GR
CM-1
%T
0.00002384185791015625
0.0
5000.000000
-1.000000
4631
8
77.563762
36.142158
#DATA
5000.000000	65.769195 
4999.000000	65.696668 
4998.000000	65.571498 
4997.000000	65.416169 
4996.000000	65.254974 
4995.000000	65.110540 
4994.000000	64.998507 
4993.000000	64.926338 
4992.000000	64.892435 
4991.000000	64.889574 
4990.000000	64.906477 
4989.000000	64.932441 
4988.000000	64.957737 
4987.000000	64.975118 
4986.000000	64.980292 
4985.000000	64.971137 
4984.000000	64.948225 
4983.000000	64.913725 
4982.000000	64.872121 
4981.000000	64.828872 
4980.000000	64.790272 
4979.000000	64.761424 
4978.000000	64.745330 
4977.000000	64.741706 
4976.000000	64.747166 
4975.000000	64.755868 
4974.000000	64.760112 
4973.000000	64.753198 
4972.000000	64.731478 
4971.000000	64.695906 
4970.000000	64.651012 
4969.000000	64.604473 
4968.000000	64.564776 
4967.000000	64.539217 
4966.000000	64.531207 
4965.000000	64.540410 
4964.000000	64.562726 
4963.000000	64.592289 
4962.000000	64.623641 
4961.000000	64.652490 
4960.000000	64.676547 
4959.000000	64.695572 
4958.000000	64.710783 
4957.000000	64.723563 
4956.000000	64.734482 
4955.000000	64.742684 
4954.000000	64.745783 
4953.000000	64.740681 
4952.000000	64.724564 
4951.000000	64.695882 
4950.000000	64.655470 
4949.000000	64.606690 
4948.000000	64.554691 
4947.000000	64.506196 
4946.000000	64.467144 
4945.000000	64.441704 
4944.000000	64.430451 
4943.000000	64.430975 
4942.000000	64.437580 
4941.000000	64.442181 
4940.000000	64.436459 
4939.000000	64.413809 
4938.000000	64.371633 
4937.000000	64.311552 
4936.000000	64.240455 
4935.000000	64.168810 
4934.000000	64.108586 
4933.000000	64.070177 
4932.000000	64.059972 
4931.000000	64.078640 
4930.000000	64.120817 
4929.000000	64.176416 
4928.000000	64.232635 
4927.000000	64.276957 
4926.000000	64.299416 
4925.000000	64.295363 
4924.000000	64.265608 
4923.000000	64.216709 
4922.000000	64.158582 
4921.000000	64.103031 
4920.000000	64.060807 
4919.000000	64.039993 
4918.000000	64.044308 
4917.000000	64.073348 
4916.000000	64.123535 
4915.000000	64.189410 
4914.000000	64.264440 
4913.000000	64.342999 
4912.000000	64.421105 
4911.000000	64.496350 
4910.000000	64.566922 
4909.000000	64.631295 
4908.000000	64.687418 
4907.000000	64.732313 
4906.000000	64.762449 
4905.000000	64.774537 
4904.000000	64.766764 
4903.000000	64.739751 
4902.000000	64.697217 
4901.000000	64.645719 
4900.000000	64.593386 
4899.000000	64.548635 
4898.000000	64.518070 
4897.000000	64.504981 
4896.000000	64.508795 
4895.000000	64.525032 
4894.000000	64.547252 
4893.000000	64.568495 
4892.000000	64.584159 
4891.000000	64.592981 
4890.000000	64.598202 
4889.000000	64.606022 
4888.000000	64.624476 
4887.000000	64.660358 
4886.000000	64.717388 
4885.000000	64.794373 
4884.000000	64.885163 
4883.000000	64.980411 
4882.000000	65.068507 
4881.000000	65.138792 
4880.000000	65.182852 
4879.000000	65.196490 
4878.000000	65.179014 
4877.000000	65.133190 
4876.000000	65.063858 
4875.000000	64.977240 
4874.000000	64.880251 
4873.000000	64.780116 
4872.000000	64.684581 
4871.000000	64.601588 
4870.000000	64.539551 
4869.000000	64.505958 
4868.000000	64.505624 
4867.000000	64.539408 
4866.000000	64.602947 
4865.000000	64.687561 
4864.000000	64.780831 
4863.000000	64.869570 
4862.000000	64.941287 
4861.000000	64.987850 
4860.000000	65.006589 
4859.000000	65.000510 
4858.000000	64.976835 
4857.000000	64.944720 
4856.000000	64.913225 
4855.000000	64.888215 
4854.000000	64.871668 
4853.000000	64.861202 
4852.000000	64.852118 
4851.000000	64.838862 
4850.000000	64.817380 
4849.000000	64.786911 
4848.000000	64.751029 
4847.000000	64.716744 
4846.000000	64.693140 
4845.000000	64.689183 
4844.000000	64.711213 
4843.000000	64.762043 
4842.000000	64.839291 
4841.000000	64.934968 
4840.000000	65.036678 
4839.000000	65.130496 
4838.000000	65.202689 
4837.000000	65.242624 
4836.000000	65.244388 
4835.000000	65.208005 
4834.000000	65.138769 
4833.000000	65.045976 
4832.000000	64.940786 
4831.000000	64.834308 
4830.000000	64.735317 
4829.000000	64.650273 
4828.000000	64.581704 
4827.000000	64.529371 
4826.000000	64.490532 
4825.000000	64.461588 
4824.000000	64.438962 
4823.000000	64.420151 
4822.000000	64.404749 
4821.000000	64.394283 
4820.000000	64.392066 
4819.000000	64.402079 
4818.000000	64.428305 
4817.000000	64.473390 
4816.000000	64.537477 
4815.000000	64.617562 
4814.000000	64.707970 
4813.000000	64.800786 
4812.000000	64.887356 
4811.000000	64.959931 
4810.000000	65.013742 
4809.000000	65.047287 
4808.000000	65.062808 
4807.000000	65.064525 
4806.000000	65.058207 
4805.000000	65.048408 
4804.000000	65.037918 
4803.000000	65.026712 
4802.000000	65.012526 
4801.000000	64.991974 
4800.000000	64.963078 
4799.000000	64.925622 
4798.000000	64.882040 
4797.000000	64.837121 
4796.000000	64.797449 
4795.000000	64.768862 
4794.000000	64.754724 
4793.000000	64.755272 
4792.000000	64.767360 
4791.000000	64.785337 
4790.000000	64.802241 
4789.000000	64.812278 
4788.000000	64.811778 
4787.000000	64.799690 
4786.000000	64.777684 
4785.000000	64.748930 
4784.000000	64.717459 
4783.000000	64.686751 
4782.000000	64.659786 
4781.000000	64.638066 
4780.000000	64.622569 
4779.000000	64.614295 
4778.000000	64.614272 
4777.000000	64.623308 
4776.000000	64.641928 
4775.000000	64.669990 
4774.000000	64.706206 
4773.000000	64.747405 
4772.000000	64.790010 
4771.000000	64.830207 
4770.000000	64.865565 
4769.000000	64.895153 
4768.000000	64.920401 
4767.000000	64.944362 
4766.000000	64.971232 
4765.000000	65.004825 
4764.000000	65.047860 
4763.000000	65.100932 
4762.000000	65.162682 
4761.000000	65.229654 
4760.000000	65.297293 
4759.000000	65.360617 
4758.000000	65.415525 
4757.000000	65.458989 
4756.000000	65.490412 
4755.000000	65.510177 
4754.000000	65.520048 
4753.000000	65.521168 
4752.000000	65.514063 
4751.000000	65.497589 
4750.000000	65.470385 
4749.000000	65.430402 
4748.000000	65.376472 
4747.000000	65.308976 
4746.000000	65.230846 
4745.000000	65.147113 
4744.000000	65.064525 
4743.000000	64.989900 
4742.000000	64.928960 
4741.000000	64.885091 
4740.000000	64.858722 
4739.000000	64.847707 
4738.000000	64.847970 
4737.000000	64.855480 
4736.000000	64.866828 
4735.000000	64.879965 
4734.000000	64.893794 
4733.000000	64.907217 
4732.000000	64.918637 
4731.000000	64.924526 
4730.000000	64.920878 
4729.000000	64.903950 
4728.000000	64.872312 
4727.000000	64.827609 
4726.000000	64.775323 
4725.000000	64.724302 
4724.000000	64.684700 
4723.000000	64.665603 
4722.000000	64.672732 
4721.000000	64.706516 
4720.000000	64.762353 
4719.000000	64.831233 
4718.000000	64.902615 
4717.000000	64.966940 
4716.000000	65.018177 
4715.000000	65.054965 
4714.000000	65.080308 
4713.000000	65.099930 
4712.000000	65.120029 
4711.000000	65.145015 
4710.000000	65.175986 
4709.000000	65.210318 
4708.000000	65.243148 
4707.000000	65.268468 
4706.000000	65.281295 
4705.000000	65.278744 
4704.000000	65.261626 
4703.000000	65.233612 
4702.000000	65.200400 
4701.000000	65.168023 
4700.000000	65.141606 
4699.000000	65.123796 
4698.000000	65.114712 
4697.000000	65.111780 
4696.000000	65.111088 
4695.000000	65.108108 
4694.000000	65.099406 
4693.000000	65.082931 
4692.000000	65.058469 
4691.000000	65.027356 
4690.000000	64.991903 
4689.000000	64.954662 
4688.000000	64.917683 
4687.000000	64.882254 
4686.000000	64.849019 
4685.000000	64.818000 
4684.000000	64.789462 
4683.000000	64.764618 
4682.000000	64.746117 
4681.000000	64.737391 
4680.000000	64.742326 
4679.000000	64.764046 
4678.000000	64.804077 
4677.000000	64.861297 
4676.000000	64.931821 
4675.000000	65.009617 
4674.000000	65.087080 
4673.000000	65.156412 
4672.000000	65.210390 
4671.000000	65.243625 
4670.000000	65.252852 
4669.000000	65.237760 
4668.000000	65.200328 
4667.000000	65.144419 
4666.000000	65.075707 
4665.000000	65.000963 
4664.000000	64.927554 
4663.000000	64.862918 
4662.000000	64.813446 
4661.000000	64.783906 
4660.000000	64.776206 
4659.000000	64.789223 
4658.000000	64.818620 
4657.000000	64.857792 
4656.000000	64.899420 
4655.000000	64.936876 
4654.000000	64.965438 
4653.000000	64.983034 
4652.000000	64.989829 
4651.000000	64.987826 
4650.000000	64.979386 
4649.000000	64.966869 
4648.000000	64.951753 
4647.000000	64.934682 
4646.000000	64.916062 
4645.000000	64.896106 
4644.000000	64.876294 
4643.000000	64.858484 
4642.000000	64.845252 
4641.000000	64.838433 
4640.000000	64.838910 
4639.000000	64.845633 
4638.000000	64.855670 
4637.000000	64.864873 
4636.000000	64.868855 
4635.000000	64.863991 
4634.000000	64.848637 
4633.000000	64.823055 
4632.000000	64.789032 
4631.000000	64.749670 
4630.000000	64.708662 
4629.000000	64.669656 
4628.000000	64.635682 
4627.000000	64.609456 
4626.000000	64.592909 
4625.000000	64.586877 
4624.000000	64.590764 
4623.000000	64.602684 
4622.000000	64.619469 
4621.000000	64.636635 
4620.000000	64.649558 
4619.000000	64.653968 
4618.000000	64.647626 
4617.000000	64.630866 
4616.000000	64.607167 
4615.000000	64.582419 
4614.000000	64.563512 
4613.000000	64.556550 
4612.000000	64.564967 
4611.000000	64.588618 
4610.000000	64.623403 
4609.000000	64.662313 
4608.000000	64.696979 
4607.000000	64.720177 
4606.000000	64.727520 
4605.000000	64.718961 
4604.000000	64.698386 
4603.000000	64.673018 
4602.000000	64.652037 
4601.000000	64.644622 
4600.000000	64.657926 
4599.000000	64.695453 
4598.000000	64.756679 
4597.000000	64.836835 
4596.000000	64.928460 
4595.000000	65.022158 
4594.000000	65.108180 
4593.000000	65.178060 
4592.000000	65.225434 
4591.000000	65.247416 
4590.000000	65.244293 
4589.000000	65.219807 
4588.000000	65.180230 
4587.000000	65.133500 
4586.000000	65.088391 
4585.000000	65.052080 
4584.000000	65.030145 
4583.000000	65.024137 
4582.000000	65.032362 
4581.000000	65.049076 
4580.000000	65.066552 
4579.000000	65.075850 
4578.000000	65.068984 
4577.000000	65.040373 
4576.000000	64.988398 
4575.000000	64.915871 
4574.000000	64.829730 
4573.000000	64.739561 
4572.000000	64.655947 
4571.000000	64.588570 
4570.000000	64.544534 
4569.000000	64.526939 
4568.000000	64.534616 
4567.000000	64.563202 
4566.000000	64.605808 
4565.000000	64.654159 
4564.000000	64.700150 
4563.000000	64.737176 
4562.000000	64.760804 
4561.000000	64.768528 
4560.000000	64.760589 
4559.000000	64.738893 
4558.000000	64.707231 
4557.000000	64.670348 
4556.000000	64.633417 
4555.000000	64.601016 
4554.000000	64.577031 
4553.000000	64.564299 
4552.000000	64.564204 
4551.000000	64.576530 
4550.000000	64.599895 
4549.000000	64.632010 
4548.000000	64.669752 
4547.000000	64.709329 
4546.000000	64.746689 
4545.000000	64.777469 
4544.000000	64.797139 
4543.000000	64.801478 
4542.000000	64.787292 
4541.000000	64.753198 
4540.000000	64.699840 
4539.000000	64.630794 
4538.000000	64.552259 
4537.000000	64.472794 
4536.000000	64.402580 
4535.000000	64.351177 
4534.000000	64.325618 
4533.000000	64.329123 
4532.000000	64.360499 
4531.000000	64.414000 
4530.000000	64.480304 
4529.000000	64.549064 
4528.000000	64.611005 
4527.000000	64.660143 
4526.000000	64.694356 
4525.000000	64.715099 
4524.000000	64.726161 
4523.000000	64.732360 
4522.000000	64.737606 
4521.000000	64.744281 
4520.000000	64.752602 
4519.000000	64.761877 
4518.000000	64.770460 
4517.000000	64.777183 
4516.000000	64.780807 
4515.000000	64.781308 
4514.000000	64.778137 
4513.000000	64.770078 
4512.000000	64.754295 
4511.000000	64.727163 
4510.000000	64.684891 
4509.000000	64.624714 
4508.000000	64.546442 
4507.000000	64.453172 
4506.000000	64.351487 
4505.000000	64.250421 
4504.000000	64.160203 
4503.000000	64.090037 
4502.000000	64.047026 
4501.000000	64.034581 
4500.000000	64.052081 
4499.000000	64.095115 
4498.000000	64.156365 
4497.000000	64.227342 
4496.000000	64.299154 
4495.000000	64.364409 
4494.000000	64.418125 
4493.000000	64.458775 
4492.000000	64.487767 
4491.000000	64.509367 
4490.000000	64.529919 
4489.000000	64.555859 
4488.000000	64.593148 
4487.000000	64.644360 
4486.000000	64.708089 
4485.000000	64.778280 
4484.000000	64.845514 
4483.000000	64.898991 
4482.000000	64.929676 
4481.000000	64.932107 
4480.000000	64.907574 
4479.000000	64.861702 
4478.000000	64.802598 
4477.000000	64.739465 
4476.000000	64.680409 
4475.000000	64.631867 
4474.000000	64.597725 
4473.000000	64.580488 
4472.000000	64.582180 
4471.000000	64.601659 
4470.000000	64.635086 
4469.000000	64.676523 
4468.000000	64.718961 
4467.000000	64.756917 
4466.000000	64.786958 
4465.000000	64.808487 
4464.000000	64.822578 
4463.000000	64.831352 
4462.000000	64.836525 
4461.000000	64.834618 
4460.000000	64.820647 
4459.000000	64.792656 
4458.000000	64.752626 
4457.000000	64.702534 
4456.000000	64.650130 
4455.000000	64.612007 
4454.000000	64.605879 
4453.000000	64.644289 
4452.000000	64.732646 
4451.000000	64.864754 
4450.000000	65.027546 
4449.000000	65.204548 
4448.000000	65.379261 
4447.000000	65.535545 
4446.000000	65.671086 
4445.000000	65.799522 
4444.000000	65.934610 
4443.000000	66.082978 
4442.000000	66.244554 
4441.000000	66.408586 
4440.000000	66.556596 
4439.000000	66.662764 
4438.000000	66.705179 
4437.000000	66.661882 
4436.000000	66.522145 
4435.000000	66.273665 
4434.000000	65.909552 
4433.000000	65.414667 
4432.000000	64.772558 
4431.000000	63.964819 
4430.000000	62.975978 
4429.000000	61.813735 
4428.000000	60.511255 
4427.000000	59.148788 
4426.000000	57.830739 
4425.000000	56.704092 
4424.000000	55.916738 
4423.000000	55.620837 
4422.000000	55.921578 
4421.000000	56.887006 
4420.000000	58.520054 
4419.000000	60.755968 
4418.000000	63.457393 
4417.000000	66.418290 
4416.000000	69.384098 
4415.000000	72.077155 
4414.000000	74.236822 
4413.000000	75.665664 
4412.000000	76.259398 
4411.000000	76.036381 
4410.000000	75.120186 
4409.000000	73.721003 
4408.000000	72.077035 
4407.000000	70.428228 
4406.000000	68.952417 
4405.000000	67.760372 
4404.000000	66.871929 
4403.000000	66.254663 
4402.000000	65.832233 
4401.000000	65.524721 
4400.000000	65.270280 
4399.000000	65.037536 
4398.000000	64.832687 
4397.000000	64.673852 
4396.000000	64.591956 
4395.000000	64.597606 
4394.000000	64.690089 
4393.000000	64.845871 
4392.000000	65.033388 
4391.000000	65.219163 
4390.000000	65.375709 
4389.000000	65.488123 
4388.000000	65.547394 
4387.000000	65.550208 
4386.000000	65.505623 
4385.000000	65.430736 
4384.000000	65.341305 
4383.000000	65.248703 
4382.000000	65.165901 
4381.000000	65.100789 
4380.000000	65.053176 
4379.000000	65.016555 
4378.000000	64.981603 
4377.000000	64.938902 
4376.000000	64.887881 
4375.000000	64.831972 
4374.000000	64.771938 
4373.000000	64.710927 
4372.000000	64.654469 
4371.000000	64.607882 
4370.000000	64.572954 
4369.000000	64.550638 
4368.000000	64.541578 
4367.000000	64.545035 
4366.000000	64.559054 
4365.000000	64.580774 
4364.000000	64.606618 
4363.000000	64.632153 
4362.000000	64.652395 
4361.000000	64.662671 
4360.000000	64.659476 
4359.000000	64.642715 
4358.000000	64.615535 
4357.000000	64.583516 
4356.000000	64.553141 
4355.000000	64.530205 
4354.000000	64.518022 
4353.000000	64.516282 
4352.000000	64.521694 
4351.000000	64.528942 
4350.000000	64.532685 
4349.000000	64.530014 
4348.000000	64.521384 
4347.000000	64.509606 
4346.000000	64.499998 
4345.000000	64.497733 
4344.000000	64.507555 
4343.000000	64.531707 
4342.000000	64.570116 
4341.000000	64.620733 
4340.000000	64.679360 
4339.000000	64.740562 
4338.000000	64.798402 
4337.000000	64.847636 
4336.000000	64.883208 
4335.000000	64.900803 
4334.000000	64.897227 
4333.000000	64.870905 
4332.000000	64.822077 
4331.000000	64.753103 
4330.000000	64.669036 
4329.000000	64.577031 
4328.000000	64.485740 
4327.000000	64.403867 
4326.000000	64.339280 
4325.000000	64.297437 
4324.000000	64.280152 
4323.000000	64.285683 
4322.000000	64.308953 
4321.000000	64.343428 
4320.000000	64.381670 
4319.000000	64.418125 
4318.000000	64.448714 
4317.000000	64.472794 
4316.000000	64.491581 
4315.000000	64.508581 
4314.000000	64.527344 
4313.000000	64.551782 
4312.000000	64.584946 
4311.000000	64.628243 
4310.000000	64.681148 
4309.000000	64.741253 
4308.000000	64.804553 
4307.000000	64.865922 
4306.000000	64.920115 
4305.000000	64.963173 
4304.000000	64.993333 
4303.000000	65.011692 
4302.000000	65.021705 
4301.000000	65.028262 
4300.000000	65.036106 
4299.000000	65.049076 
4298.000000	65.068531 
4297.000000	65.092682 
4296.000000	65.117359 
4295.000000	65.137767 
4294.000000	65.149593 
4293.000000	65.150904 
4292.000000	65.142130 
4291.000000	65.126848 
4290.000000	65.109467 
4289.000000	65.094065 
4288.000000	65.082263 
4287.000000	65.072250 
4286.000000	65.059566 
4285.000000	65.038466 
4284.000000	65.003895 
4283.000000	64.953517 
4282.000000	64.888978 
4281.000000	64.816117 
4280.000000	64.743661 
4279.000000	64.681220 
4278.000000	64.637660 
4277.000000	64.618825 
4276.000000	64.626193 
4275.000000	64.656782 
4274.000000	64.704203 
4273.000000	64.760160 
4272.000000	64.816117 
4271.000000	64.865088 
4270.000000	64.902520 
4269.000000	64.926886 
4268.000000	64.938664 
4267.000000	64.940071 
4266.000000	64.933300 
4265.000000	64.920330 
4264.000000	64.902520 
4263.000000	64.880585 
4262.000000	64.855146 
4261.000000	64.826822 
4260.000000	64.797282 
4259.000000	64.768862 
4258.000000	64.744520 
4257.000000	64.726924 
4256.000000	64.717912 
4255.000000	64.717459 
4254.000000	64.723658 
4253.000000	64.733004 
4252.000000	64.741420 
4251.000000	64.745402 
4250.000000	64.743065 
4249.000000	64.734816 
4248.000000	64.723587 
4247.000000	64.713215 
4246.000000	64.707899 
4245.000000	64.710569 
4244.000000	64.722752 
4243.000000	64.743852 
4242.000000	64.772033 
4241.000000	64.804887 
4240.000000	64.840316 
4239.000000	64.877557 
4238.000000	64.916491 
4237.000000	64.957880 
4236.000000	65.001606 
4235.000000	65.046310 
4234.000000	65.088796 
4233.000000	65.124440 
4232.000000	65.148138 
4231.000000	65.155410 
4230.000000	65.144348 
4229.000000	65.116429 
4228.000000	65.076351 
4227.000000	65.031313 
4226.000000	64.989304 
4225.000000	64.957451 
4224.000000	64.940333 
4223.000000	64.939260 
4222.000000	64.952015 
4221.000000	64.973807 
4220.000000	64.999127 
4219.000000	65.022945 
4218.000000	65.041899 
4217.000000	65.054655 
4216.000000	65.062046 
4215.000000	65.066266 
4214.000000	65.069437 
4213.000000	65.073037 
4212.000000	65.077280 
4211.000000	65.081214 
4210.000000	65.083408 
4209.000000	65.082573 
4208.000000	65.078592 
4207.000000	65.072703 
4206.000000	65.067267 
4205.000000	65.065670 
4204.000000	65.071415 
4203.000000	65.086865 
4202.000000	65.112376 
4201.000000	65.146183 
4200.000000	65.184497 
4199.000000	65.222334 
4198.000000	65.254259 
4197.000000	65.274834 
4196.000000	65.279650 
4195.000000	65.266275 
4194.000000	65.234470 
4193.000000	65.185952 
4192.000000	65.124297 
4191.000000	65.054440 
4190.000000	64.982295 
4189.000000	64.914011 
4188.000000	64.855504 
4187.000000	64.811682 
4186.000000	64.786434 
4185.000000	64.782285 
4184.000000	64.799809 
4183.000000	64.837598 
4182.000000	64.891386 
4181.000000	64.954352 
4180.000000	65.017509 
4179.000000	65.070772 
4178.000000	65.104961 
4177.000000	65.113258 
4176.000000	65.093588 
4175.000000	65.048980 
4174.000000	64.988303 
4173.000000	64.924359 
4172.000000	64.871978 
4171.000000	64.844274 
4170.000000	64.849805 
4169.000000	64.890241 
4168.000000	64.959740 
4167.000000	65.046143 
4166.000000	65.133857 
4165.000000	65.207457 
4164.000000	65.254902 
4163.000000	65.270328 
4162.000000	65.254497 
4161.000000	65.214586 
4160.000000	65.161442 
4159.000000	65.107536 
