PE IR       SPECTRUM    SPECTRUM    ASCII       PEDS        1.60        
  -1
BZ6FA0~1.ASC
17/04/07
16:15:08.00
17/04/07
16:15:08.00
tln
$BZ1503107-1_t0037$<tbV0>[5.2,-5.2,8.0,0.0,27,1,0]
370.000000
64









2002,4.07    
MIRTGS : RIGHTBACK : INTERNAL 2
MIR : ON : INTERNAL 2
OPTKBR

0.200000
8
8.000000
FILLER
RATIO
SPECTRUM
UNLOCKED 256

DOUBLE
64
COMBINED
1
0
0


1.000000
RATIO


1
0
TRUE
51149
0
LEFT NOT FITTED RIGHT NOT FITTED 0
NONE
NONE
15600
12.000000
4.427000
51148
TRUE
1 0 8 72 0 0 0 0 

15798.010000






#HDR
-1
-1
#GR
CM-1
%T
0.00002384185791015625
0.0
5000.000000
-1.000000
4631
8
77.914834
38.513445
#DATA
5000.000000	65.584897 
4999.000000	65.310978 
4998.000000	65.020728 
4997.000000	64.739465 
4996.000000	64.490103 
4995.000000	64.291977 
4994.000000	64.157581 
4993.000000	64.091229 
4992.000000	64.090108 
4991.000000	64.145183 
4990.000000	64.243078 
4989.000000	64.366507 
4988.000000	64.499306 
4987.000000	64.626884 
4986.000000	64.740014 
4985.000000	64.834213 
4984.000000	64.909911 
4983.000000	64.970231 
4982.000000	65.019488 
4981.000000	65.061283 
4980.000000	65.098094 
4979.000000	65.130090 
4978.000000	65.157079 
4977.000000	65.177536 
4976.000000	65.190410 
4975.000000	65.194010 
4974.000000	65.187931 
4973.000000	65.171337 
4972.000000	65.143537 
4971.000000	65.103554 
4970.000000	65.051126 
4969.000000	64.986705 
4968.000000	64.911556 
4967.000000	64.829182 
4966.000000	64.745354 
4965.000000	64.667725 
4964.000000	64.603590 
4963.000000	64.560055 
4962.000000	64.542174 
4961.000000	64.552450 
4960.000000	64.589953 
4959.000000	64.650225 
4958.000000	64.725637 
4957.000000	64.806199 
4956.000000	64.881062 
4955.000000	64.938950 
4954.000000	64.970421 
4953.000000	64.969515 
4952.000000	64.935564 
4951.000000	64.873743 
4950.000000	64.794421 
4949.000000	64.711666 
4948.000000	64.640617 
4947.000000	64.595031 
4946.000000	64.584016 
4945.000000	64.611029 
4944.000000	64.671754 
4943.000000	64.755964 
4942.000000	64.848756 
4941.000000	64.933443 
4940.000000	64.995336 
4939.000000	65.024280 
4938.000000	65.017199 
4937.000000	64.977574 
4936.000000	64.915204 
4935.000000	64.843273 
4934.000000	64.775133 
4933.000000	64.721155 
4932.000000	64.686918 
4931.000000	64.673042 
4930.000000	64.675712 
4929.000000	64.689326 
4928.000000	64.708590 
4927.000000	64.730691 
4926.000000	64.757442 
4925.000000	64.794206 
4924.000000	64.847159 
4923.000000	64.920139 
4922.000000	65.012407 
4921.000000	65.117168 
4920.000000	65.221452 
4919.000000	65.309429 
4918.000000	65.367054 
4917.000000	65.385508 
4916.000000	65.364742 
4915.000000	65.312933 
4914.000000	65.244293 
4913.000000	65.175414 
4912.000000	65.121316 
4911.000000	65.091681 
4910.000000	65.089178 
4909.000000	65.109920 
4908.000000	65.145850 
4907.000000	65.187072 
4906.000000	65.225219 
4905.000000	65.254259 
4904.000000	65.271496 
4903.000000	65.275764 
4902.000000	65.266156 
4901.000000	65.240764 
4900.000000	65.196442 
4899.000000	65.130424 
4898.000000	65.041232 
4897.000000	64.931035 
4896.000000	64.805245 
4895.000000	64.671826 
4894.000000	64.540004 
4893.000000	64.417481 
4892.000000	64.310598 
4891.000000	64.222931 
4890.000000	64.157104 
4889.000000	64.114141 
4888.000000	64.095497 
4887.000000	64.102101 
4886.000000	64.135384 
4885.000000	64.194822 
4884.000000	64.278650 
4883.000000	64.381909 
4882.000000	64.497447 
4881.000000	64.615893 
4880.000000	64.726424 
4879.000000	64.817976 
4878.000000	64.881062 
4877.000000	64.909482 
4876.000000	64.900827 
4875.000000	64.856934 
4874.000000	64.783644 
4873.000000	64.689993 
4872.000000	64.587569 
4871.000000	64.488768 
4870.000000	64.405584 
4869.000000	64.347529 
4868.000000	64.320063 
4867.000000	64.323925 
4866.000000	64.355158 
4865.000000	64.406871 
4864.000000	64.470100 
4863.000000	64.537072 
4862.000000	64.602041 
4861.000000	64.662861 
4860.000000	64.719462 
4859.000000	64.774179 
4858.000000	64.829421 
4857.000000	64.887237 
4856.000000	64.948010 
4855.000000	65.010213 
4854.000000	65.071058 
4853.000000	65.126490 
4852.000000	65.172386 
4851.000000	65.204811 
4850.000000	65.221023 
4849.000000	65.219306 
4848.000000	65.199494 
4847.000000	65.162587 
4846.000000	65.110874 
4845.000000	65.048146 
4844.000000	64.979338 
4843.000000	64.910435 
4842.000000	64.847636 
4841.000000	64.796566 
4840.000000	64.761209 
4839.000000	64.743542 
4838.000000	64.743113 
4837.000000	64.757013 
4836.000000	64.780998 
4835.000000	64.809942 
4834.000000	64.839172 
4833.000000	64.864635 
4832.000000	64.884376 
4831.000000	64.897298 
4830.000000	64.904594 
4829.000000	64.908814 
4828.000000	64.913582 
4827.000000	64.921975 
4826.000000	64.936494 
4825.000000	64.958691 
4824.000000	64.988327 
4823.000000	65.023112 
4822.000000	65.059757 
4821.000000	65.094351 
4820.000000	65.123224 
4819.000000	65.143299 
4818.000000	65.153026 
4817.000000	65.152311 
4816.000000	65.142512 
4815.000000	65.125870 
4814.000000	65.104508 
4813.000000	65.080547 
4812.000000	65.055656 
4811.000000	65.031719 
4810.000000	65.010976 
4809.000000	64.996147 
4808.000000	64.990758 
4807.000000	64.997792 
4806.000000	65.019178 
4805.000000	65.053987 
4804.000000	65.098524 
4803.000000	65.145587 
4802.000000	65.185928 
4801.000000	65.209531 
4800.000000	65.207672 
4799.000000	65.175247 
4798.000000	65.112113 
4797.000000	65.023422 
4796.000000	64.919042 
4795.000000	64.811253 
4794.000000	64.712595 
4793.000000	64.633560 
4792.000000	64.580965 
4791.000000	64.557361 
4790.000000	64.560890 
4789.000000	64.586353 
4788.000000	64.626336 
4787.000000	64.671802 
4786.000000	64.713907 
4785.000000	64.744496 
4784.000000	64.758443 
4783.000000	64.753484 
4782.000000	64.731478 
4781.000000	64.697623 
4780.000000	64.659166 
4779.000000	64.623904 
4778.000000	64.598059 
4777.000000	64.585208 
4776.000000	64.585137 
4775.000000	64.594459 
4774.000000	64.607834 
4773.000000	64.619588 
4772.000000	64.626288 
4771.000000	64.627647 
4770.000000	64.627027 
4769.000000	64.630126 
4768.000000	64.643287 
4767.000000	64.671540 
4766.000000	64.716839 
4765.000000	64.777493 
4764.000000	64.849185 
4763.000000	64.926028 
4762.000000	65.002870 
4761.000000	65.075778 
4760.000000	65.142297 
4759.000000	65.200948 
4758.000000	65.250587 
4757.000000	65.289711 
4756.000000	65.316605 
4755.000000	65.329337 
4754.000000	65.326833 
4753.000000	65.308976 
4752.000000	65.278005 
4751.000000	65.237355 
4750.000000	65.192174 
4749.000000	65.147209 
4748.000000	65.106058 
4747.000000	65.070295 
4746.000000	65.039849 
4745.000000	65.013360 
4744.000000	64.989280 
4743.000000	64.966607 
4742.000000	64.945673 
4741.000000	64.927411 
4740.000000	64.912915 
4739.000000	64.902591 
4738.000000	64.895963 
4737.000000	64.891743 
4736.000000	64.888286 
4735.000000	64.884567 
4734.000000	64.880061 
4733.000000	64.875173 
4732.000000	64.870691 
4731.000000	64.866423 
4730.000000	64.861607 
4729.000000	64.854669 
4728.000000	64.844512 
4727.000000	64.829707 
4726.000000	64.810848 
4725.000000	64.790821 
4724.000000	64.774537 
4723.000000	64.768028 
4722.000000	64.776682 
4721.000000	64.803576 
4720.000000	64.848542 
4719.000000	64.907431 
4718.000000	64.973688 
4717.000000	65.039539 
4716.000000	65.098977 
4715.000000	65.149307 
4714.000000	65.191388 
4713.000000	65.228939 
4712.000000	65.267109 
4711.000000	65.310096 
4710.000000	65.359306 
4709.000000	65.412044 
4708.000000	65.462183 
4707.000000	65.501189 
4706.000000	65.520834 
4705.000000	65.514826 
4704.000000	65.481686 
4703.000000	65.424466 
4702.000000	65.350270 
4701.000000	65.268445 
4700.000000	65.188479 
4699.000000	65.117859 
4698.000000	65.060639 
4697.000000	65.017294 
4696.000000	64.985537 
4695.000000	64.961910 
4694.000000	64.943265 
4693.000000	64.928579 
4692.000000	64.918565 
4691.000000	64.916729 
4690.000000	64.927434 
4689.000000	64.954829 
4688.000000	65.000438 
4687.000000	65.062499 
4686.000000	65.135502 
4685.000000	65.210723 
4684.000000	65.277504 
4683.000000	65.325665 
4682.000000	65.347647 
4681.000000	65.339875 
4680.000000	65.303826 
4679.000000	65.245628 
4678.000000	65.175008 
4677.000000	65.103411 
4676.000000	65.041780 
4675.000000	64.999055 
4674.000000	64.980030 
4673.000000	64.985609 
4672.000000	65.012288 
4671.000000	65.053629 
4670.000000	65.101385 
4669.000000	65.147185 
4668.000000	65.184068 
4667.000000	65.206885 
4666.000000	65.213561 
4665.000000	65.204501 
4664.000000	65.182709 
4663.000000	65.152740 
4662.000000	65.119719 
4661.000000	65.088391 
4660.000000	65.062236 
4659.000000	65.043354 
4658.000000	65.032124 
4657.000000	65.027785 
4656.000000	65.029191 
4655.000000	65.035271 
4654.000000	65.045642 
4653.000000	65.060353 
4652.000000	65.079736 
4651.000000	65.103912 
4650.000000	65.131902 
4649.000000	65.161657 
4648.000000	65.189623 
4647.000000	65.211796 
4646.000000	65.224599 
4645.000000	65.225601 
4644.000000	65.214347 
4643.000000	65.192246 
4642.000000	65.162944 
4641.000000	65.130448 
4640.000000	65.098381 
4639.000000	65.068769 
4638.000000	65.041661 
4637.000000	65.015435 
4636.000000	64.987850 
4635.000000	64.956808 
4634.000000	64.921450 
4633.000000	64.882659 
4632.000000	64.842987 
4631.000000	64.806079 
4630.000000	64.775919 
4629.000000	64.755678 
4628.000000	64.747214 
4627.000000	64.750909 
4626.000000	64.765977 
4625.000000	64.790558 
4624.000000	64.822220 
4623.000000	64.858531 
4622.000000	64.896988 
4621.000000	64.934921 
4620.000000	64.969992 
4619.000000	64.999198 
4618.000000	65.020632 
4617.000000	65.033531 
4616.000000	65.038895 
4615.000000	65.039229 
4614.000000	65.037870 
4613.000000	65.038371 
4612.000000	65.043115 
4611.000000	65.052819 
4610.000000	65.066051 
4609.000000	65.079712 
4608.000000	65.090179 
4607.000000	65.094566 
4606.000000	65.091776 
4605.000000	65.082859 
4604.000000	65.071153 
4603.000000	65.061616 
4602.000000	65.059566 
4601.000000	65.069460 
4600.000000	65.093779 
4599.000000	65.132236 
4598.000000	65.181875 
4597.000000	65.236926 
4596.000000	65.290403 
4595.000000	65.334415 
4594.000000	65.361642 
4593.000000	65.366172 
4592.000000	65.344333 
4591.000000	65.295696 
4590.000000	65.223145 
4589.000000	65.133142 
4588.000000	65.034818 
4587.000000	64.938974 
4586.000000	64.856815 
4585.000000	64.797520 
4584.000000	64.766860 
4583.000000	64.765810 
4582.000000	64.790678 
4581.000000	64.833569 
4580.000000	64.884018 
4579.000000	64.931583 
4578.000000	64.967918 
4577.000000	64.988660 
4576.000000	64.993834 
4575.000000	64.986920 
4574.000000	64.973568 
4573.000000	64.959549 
4572.000000	64.949202 
4571.000000	64.944219 
4570.000000	64.943361 
4569.000000	64.944171 
4568.000000	64.943218 
4567.000000	64.938259 
4566.000000	64.928340 
4565.000000	64.914894 
4564.000000	64.900469 
4563.000000	64.888048 
4562.000000	64.879369 
4561.000000	64.874410 
4560.000000	64.870905 
4559.000000	64.865279 
4558.000000	64.853525 
4557.000000	64.832687 
4556.000000	64.801859 
4555.000000	64.762878 
4554.000000	64.720368 
4553.000000	64.680814 
4552.000000	64.651799 
4551.000000	64.640307 
4550.000000	64.651584 
4549.000000	64.687657 
4548.000000	64.746999 
4547.000000	64.824628 
4546.000000	64.912843 
4545.000000	65.003061 
4544.000000	65.087485 
4543.000000	65.160703 
4542.000000	65.220570 
4541.000000	65.267944 
4540.000000	65.305852 
4539.000000	65.337705 
4538.000000	65.366363 
4537.000000	65.391898 
4536.000000	65.412712 
4535.000000	65.424156 
4534.000000	65.421319 
4533.000000	65.399169 
4532.000000	65.355515 
4531.000000	65.290927 
4530.000000	65.209770 
4529.000000	65.118956 
4528.000000	65.026831 
4527.000000	64.941692 
4526.000000	64.870357 
4525.000000	64.817810 
4524.000000	64.786767 
4523.000000	64.777970 
4522.000000	64.790773 
4521.000000	64.823031 
4520.000000	64.872050 
4519.000000	64.934206 
4518.000000	65.005612 
4517.000000	65.082049 
4516.000000	65.159177 
4515.000000	65.232706 
4514.000000	65.297722 
4513.000000	65.349531 
4512.000000	65.382814 
4511.000000	65.392875 
4510.000000	65.375447 
4509.000000	65.328621 
4508.000000	65.252828 
4507.000000	65.152287 
4506.000000	65.034532 
4505.000000	64.910006 
4504.000000	64.790558 
4503.000000	64.688062 
4502.000000	64.611887 
4501.000000	64.567685 
4500.000000	64.556193 
4499.000000	64.573550 
4498.000000	64.612531 
4497.000000	64.664173 
4496.000000	64.720058 
4495.000000	64.774012 
4494.000000	64.822435 
4493.000000	64.864563 
4492.000000	64.901542 
4491.000000	64.935708 
4490.000000	64.969134 
4489.000000	65.002846 
4488.000000	65.036869 
4487.000000	65.069532 
4486.000000	65.098428 
4485.000000	65.120649 
4484.000000	65.133666 
4483.000000	65.136432 
4482.000000	65.130209 
4481.000000	65.118122 
4480.000000	65.105462 
4479.000000	65.097236 
4478.000000	65.096855 
4477.000000	65.105152 
4476.000000	65.120053 
4475.000000	65.137791 
4474.000000	65.154600 
4473.000000	65.167474 
4472.000000	65.175414 
4471.000000	65.178298 
4470.000000	65.176844 
4469.000000	65.172290 
4468.000000	65.166354 
4467.000000	65.161514 
4466.000000	65.160584 
4465.000000	65.168642 
4464.000000	65.190958 
4463.000000	65.227794 
4462.000000	65.275096 
4461.000000	65.330052 
4460.000000	65.388846 
4459.000000	65.440654 
4458.000000	65.476202 
4457.000000	65.492796 
4456.000000	65.493893 
4455.000000	65.492725 
4454.000000	65.503120 
4453.000000	65.530991 
4452.000000	65.575885 
4451.000000	65.637087 
4450.000000	65.702509 
4449.000000	65.746521 
4448.000000	65.746808 
4447.000000	65.693926 
4446.000000	65.589761 
4445.000000	65.448212 
4444.000000	65.294265 
4443.000000	65.159416 
4442.000000	65.068435 
4441.000000	65.038967 
4440.000000	65.074729 
4439.000000	65.180039 
4438.000000	65.363121 
4437.000000	65.654039 
4436.000000	66.105031 
4435.000000	66.783714 
4434.000000	67.766404 
4433.000000	69.091868 
4432.000000	70.751404 
4431.000000	72.637128 
4430.000000	74.574351 
4429.000000	76.296424 
4428.000000	77.507472 
4427.000000	77.914834 
4426.000000	77.313709 
4425.000000	75.621128 
4424.000000	72.919583 
4423.000000	69.440674 
4422.000000	65.542745 
4421.000000	61.626124 
4420.000000	58.064556 
4419.000000	55.140352 
4418.000000	53.007221 
4417.000000	51.697993 
4416.000000	51.149654 
4415.000000	51.241898 
4414.000000	51.841044 
4413.000000	52.813577 
4412.000000	54.054665 
4411.000000	55.456280 
4410.000000	56.931424 
4409.000000	58.398485 
4408.000000	59.796571 
4407.000000	61.077404 
4406.000000	62.208747 
4405.000000	63.173317 
4404.000000	63.960933 
4403.000000	64.568924 
4402.000000	64.996290 
4401.000000	65.256881 
4400.000000	65.367674 
4399.000000	65.364360 
4398.000000	65.283107 
4397.000000	65.168380 
4396.000000	65.056157 
4395.000000	64.977192 
4394.000000	64.946699 
4393.000000	64.967203 
4392.000000	65.032291 
4391.000000	65.135860 
4390.000000	65.262246 
4389.000000	65.389394 
4388.000000	65.504312 
4387.000000	65.604829 
4386.000000	65.689444 
4385.000000	65.757489 
4384.000000	65.809845 
4383.000000	65.847206 
4382.000000	65.871191 
4381.000000	65.882968 
4380.000000	65.880441 
4379.000000	65.860557 
4378.000000	65.827083 
4377.000000	65.785574 
4376.000000	65.739560 
4375.000000	65.692353 
4374.000000	65.650844 
4373.000000	65.619826 
4372.000000	65.599584 
4371.000000	65.587353 
4370.000000	65.579581 
4369.000000	65.570402 
4368.000000	65.552997 
4367.000000	65.521121 
4366.000000	65.470671 
4365.000000	65.400242 
4364.000000	65.311527 
4363.000000	65.208768 
4362.000000	65.097856 
4361.000000	64.985561 
4360.000000	64.878320 
4359.000000	64.781689 
4358.000000	64.700055 
4357.000000	64.635467 
4356.000000	64.588928 
4355.000000	64.561176 
4354.000000	64.553332 
4353.000000	64.565587 
4352.000000	64.597821 
4351.000000	64.648365 
4350.000000	64.714312 
4349.000000	64.789962 
4348.000000	64.868831 
4347.000000	64.943504 
4346.000000	65.007853 
4345.000000	65.057969 
4344.000000	65.092182 
4343.000000	65.110898 
4342.000000	65.116238 
4341.000000	65.111708 
4340.000000	65.100693 
4339.000000	65.086030 
4338.000000	65.070152 
4337.000000	65.055370 
4336.000000	65.043568 
4335.000000	65.036106 
4334.000000	65.034127 
4333.000000	65.038204 
4332.000000	65.046906 
4331.000000	65.056753 
4330.000000	65.062713 
4329.000000	65.059065 
4328.000000	65.040206 
4327.000000	65.002441 
4326.000000	64.945316 
4325.000000	64.872264 
4324.000000	64.789605 
4323.000000	64.706182 
4322.000000	64.630961 
4321.000000	64.572572 
4320.000000	64.537477 
4319.000000	64.529561 
4318.000000	64.549160 
4317.000000	64.593696 
4316.000000	64.657926 
4315.000000	64.735150 
4314.000000	64.817428 
4313.000000	64.897751 
4312.000000	64.970636 
4311.000000	65.032935 
4310.000000	65.083408 
4309.000000	65.123105 
4308.000000	65.154361 
4307.000000	65.180230 
4306.000000	65.203285 
4305.000000	65.225076 
4304.000000	65.245509 
4303.000000	65.263628 
4302.000000	65.277743 
4301.000000	65.286684 
4300.000000	65.289807 
4299.000000	65.287899 
4298.000000	65.282559 
4297.000000	65.275406 
4296.000000	65.267825 
4295.000000	65.260457 
4294.000000	65.253615 
4293.000000	65.247488 
4292.000000	65.242648 
4291.000000	65.240645 
4290.000000	65.242958 
4289.000000	65.250802 
4288.000000	65.263628 
4287.000000	65.279006 
4286.000000	65.292596 
4285.000000	65.299272 
4284.000000	65.294408 
4283.000000	65.274906 
4282.000000	65.241241 
4281.000000	65.197682 
4280.000000	65.151309 
4279.000000	65.110540 
4278.000000	65.083098 
4277.000000	65.074086 
4276.000000	65.084266 
4275.000000	65.109920 
4274.000000	65.144062 
4273.000000	65.178298 
4272.000000	65.205073 
4271.000000	65.219736 
4270.000000	65.221452 
4269.000000	65.212965 
4268.000000	65.199422 
4267.000000	65.186405 
4266.000000	65.177965 
4265.000000	65.175247 
4264.000000	65.176606 
4263.000000	65.177655 
4262.000000	65.173029 
4261.000000	65.157985 
4260.000000	65.130543 
4259.000000	65.091586 
4258.000000	65.045213 
4257.000000	64.997553 
4256.000000	64.955115 
4255.000000	64.923238 
4254.000000	64.904642 
4253.000000	64.899158 
4252.000000	64.903926 
4251.000000	64.914846 
4250.000000	64.927673 
4249.000000	64.939188 
4248.000000	64.948034 
4247.000000	64.954185 
4246.000000	64.958977 
4245.000000	64.963746 
4244.000000	64.969968 
4243.000000	64.978361 
4242.000000	64.989447 
4241.000000	65.003418 
4240.000000	65.020561 
4239.000000	65.041494 
4238.000000	65.067195 
4237.000000	65.098333 
4236.000000	65.134978 
4235.000000	65.176463 
4234.000000	65.221071 
4233.000000	65.266036 
4232.000000	65.308213 
4231.000000	65.344524 
4230.000000	65.372443 
4229.000000	65.390610 
4228.000000	65.398812 
4227.000000	65.398073 
4226.000000	65.390300 
4225.000000	65.377902 
4224.000000	65.363454 
4223.000000	65.349149 
4222.000000	65.336894 
4221.000000	65.327596 
4220.000000	65.321493 
4219.000000	65.317463 
4218.000000	65.313744 
4217.000000	65.308141 
4216.000000	65.298604 
4215.000000	65.283703 
4214.000000	65.263342 
4213.000000	65.238475 
4212.000000	65.210890 
4211.000000	65.182900 
4210.000000	65.156745 
4209.000000	65.134096 
4208.000000	65.115785 
4207.000000	65.101575 
4206.000000	65.090394 
4205.000000	65.080499 
4204.000000	65.070176 
4203.000000	65.057849 
4202.000000	65.042328 
4201.000000	65.023064 
4200.000000	65.000534 
4199.000000	64.975571 
4198.000000	64.949393 
4197.000000	64.923477 
4196.000000	64.899516 
4195.000000	64.879179 
4194.000000	64.864206 
4193.000000	64.856147 
4192.000000	64.856481 
4191.000000	64.866185 
4190.000000	64.886140 
4189.000000	64.916396 
4188.000000	64.956212 
4187.000000	65.004014 
4186.000000	65.057086 
4185.000000	65.111923 
4184.000000	65.164160 
4183.000000	65.209746 
4182.000000	65.244722 
4181.000000	65.266346 
4180.000000	65.273046 
4179.000000	65.265417 
4178.000000	65.245127 
4177.000000	65.214920 
4176.000000	65.177822 
4175.000000	65.137171 
4174.000000	65.095829 
4173.000000	65.056133 
4172.000000	65.020012 
4171.000000	64.989280 
4170.000000	64.965772 
4169.000000	64.951395 
4168.000000	64.947795 
4167.000000	64.955902 
4166.000000	64.975714 
4165.000000	65.005660 
4164.000000	65.042352 
4163.000000	65.081334 
4162.000000	65.117454 
4161.000000	65.146207 
4160.000000	65.164279 
4159.000000	65.170431 
