PE IR       SPECTRUM    SPECTRUM    ASCII       PEDS        1.60        
  -1
BZ6FA3~1.ASC
17/04/07
17:55:06.00
17/04/07
17:55:06.00
tln
$BZ1503107-1_t0057$<tbV0>[10.4,0.0,8.0,0.0,27,1,0]
370.000000
64









2002,4.07    
MIRTGS : RIGHTBACK : INTERNAL 2
MIR : ON : INTERNAL 2
OPTKBR

0.200000
8
8.000000
FILLER
RATIO
SPECTRUM
UNLOCKED 256

DOUBLE
64
COMBINED
1
0
0


1.000000
RATIO


1
0
TRUE
51149
0
LEFT NOT FITTED RIGHT NOT FITTED 0
NONE
NONE
15600
12.000000
4.427000
51148
TRUE
1 0 8 72 0 0 0 0 

15798.010000






#HDR
-1
-1
#GR
CM-1
%T
0.00002384185791015625
0.0
5000.000000
-1.000000
4631
8
73.691368
37.745785
#DATA
5000.000000	64.604663 
4999.000000	64.683151 
4998.000000	64.783000 
4997.000000	64.892983 
4996.000000	65.001511 
4995.000000	65.095472 
4994.000000	65.166521 
4993.000000	65.209865 
4992.000000	65.230059 
4991.000000	65.239596 
4990.000000	65.256834 
4989.000000	65.302014 
4988.000000	65.389251 
4987.000000	65.522527 
4986.000000	65.690612 
4985.000000	65.868926 
4984.000000	66.021704 
4983.000000	66.109776 
4982.000000	66.098356 
4981.000000	65.965175 
4980.000000	65.703105 
4979.000000	65.323448 
4978.000000	64.852523 
4977.000000	64.330601 
4976.000000	63.804459 
4975.000000	63.323855 
4974.000000	62.935233 
4973.000000	62.676525 
4972.000000	62.572550 
4971.000000	62.630701 
4970.000000	62.839722 
4969.000000	63.170218 
4968.000000	63.575267 
4967.000000	64.000678 
4966.000000	64.388465 
4965.000000	64.692783 
4964.000000	64.883518 
4963.000000	64.954900 
4962.000000	64.922690 
4961.000000	64.819097 
4960.000000	64.683318 
4959.000000	64.550280 
4958.000000	64.443016 
4957.000000	64.367938 
4956.000000	64.316797 
4955.000000	64.272403 
4954.000000	64.217185 
4953.000000	64.140796 
4952.000000	64.045238 
4951.000000	63.944101 
4950.000000	63.859963 
4949.000000	63.815474 
4948.000000	63.828730 
4947.000000	63.905358 
4946.000000	64.039826 
4945.000000	64.214134 
4944.000000	64.406013 
4943.000000	64.595913 
4942.000000	64.771389 
4941.000000	64.928770 
4940.000000	65.072321 
4939.000000	65.210676 
4938.000000	65.351176 
4937.000000	65.495848 
4936.000000	65.638089 
4935.000000	65.763783 
4934.000000	65.854811 
4933.000000	65.896058 
4932.000000	65.877914 
4931.000000	65.801024 
4930.000000	65.675044 
4929.000000	65.517139 
4928.000000	65.347599 
4927.000000	65.185809 
4926.000000	65.045857 
4925.000000	64.934921 
4924.000000	64.854598 
4923.000000	64.802241 
4922.000000	64.773869 
4921.000000	64.765667 
4920.000000	64.774847 
4919.000000	64.799952 
4918.000000	64.838647 
4917.000000	64.888453 
4916.000000	64.943647 
4915.000000	64.998340 
4914.000000	65.046572 
4913.000000	65.084362 
4912.000000	65.110135 
4911.000000	65.125250 
4910.000000	65.134024 
4909.000000	65.141010 
4908.000000	65.149235 
4907.000000	65.159893 
4906.000000	65.172505 
4905.000000	65.185308 
4904.000000	65.196323 
4903.000000	65.204405 
4902.000000	65.209794 
4901.000000	65.214037 
4900.000000	65.219306 
4899.000000	65.227198 
4898.000000	65.237903 
4897.000000	65.250039 
4896.000000	65.260791 
4895.000000	65.266561 
4894.000000	65.263819 
4893.000000	65.251231 
4892.000000	65.229463 
4891.000000	65.201449 
4890.000000	65.171504 
4889.000000	65.144157 
4888.000000	65.123224 
4887.000000	65.110945 
4886.000000	65.107393 
4885.000000	65.110611 
4884.000000	65.116977 
4883.000000	65.121984 
4882.000000	65.121674 
4881.000000	65.112996 
4880.000000	65.095806 
4879.000000	65.072941 
4878.000000	65.050101 
4877.000000	65.034270 
4876.000000	65.032672 
4875.000000	65.050363 
4874.000000	65.088748 
4873.000000	65.144467 
4872.000000	65.209794 
4871.000000	65.273785 
4870.000000	65.324664 
4869.000000	65.352201 
4868.000000	65.349984 
4867.000000	65.316867 
4866.000000	65.257310 
4865.000000	65.180468 
4864.000000	65.098237 
4863.000000	65.022420 
4862.000000	64.962863 
4861.000000	64.925169 
4860.000000	64.910292 
4859.000000	64.914822 
4858.000000	64.932990 
4857.000000	64.957976 
4856.000000	64.983844 
4855.000000	65.006470 
4854.000000	65.023756 
4853.000000	65.035510 
4852.000000	65.042448 
4851.000000	65.045332 
4850.000000	65.043807 
4849.000000	65.037155 
4848.000000	65.024399 
4847.000000	65.005517 
4846.000000	64.981818 
4845.000000	64.956951 
4844.000000	64.936041 
4843.000000	64.924550 
4842.000000	64.926338 
4841.000000	64.942240 
4840.000000	64.969491 
4839.000000	65.001416 
4838.000000	65.030360 
4837.000000	65.049695 
4836.000000	65.056371 
4835.000000	65.052247 
4834.000000	65.042996 
4833.000000	65.036439 
4832.000000	65.039348 
4831.000000	65.055465 
4830.000000	65.083551 
4829.000000	65.117168 
4828.000000	65.146541 
4827.000000	65.161776 
4826.000000	65.155529 
4825.000000	65.125560 
4824.000000	65.075039 
4823.000000	65.011954 
4822.000000	64.946484 
4821.000000	64.888215 
4820.000000	64.843368 
4819.000000	64.813327 
4818.000000	64.794898 
4817.000000	64.781975 
4816.000000	64.768195 
4815.000000	64.749121 
4814.000000	64.723420 
4813.000000	64.693808 
4812.000000	64.665269 
4811.000000	64.644789 
4810.000000	64.638018 
4809.000000	64.648842 
4808.000000	64.678096 
4807.000000	64.723443 
4806.000000	64.779806 
4805.000000	64.840435 
4804.000000	64.898538 
4803.000000	64.948153 
4802.000000	64.985251 
4801.000000	65.007567 
4800.000000	65.014934 
4799.000000	65.007996 
4798.000000	64.987874 
4797.000000	64.956021 
4796.000000	64.914059 
4795.000000	64.864659 
4794.000000	64.811801 
4793.000000	64.760565 
4792.000000	64.716935 
4791.000000	64.686846 
4790.000000	64.675378 
4789.000000	64.685320 
4788.000000	64.717006 
4787.000000	64.768195 
4786.000000	64.835047 
4785.000000	64.912247 
4784.000000	64.994621 
4783.000000	65.077948 
4782.000000	65.159225 
4781.000000	65.236115 
4780.000000	65.306997 
4779.000000	65.369772 
4778.000000	65.422534 
4777.000000	65.463304 
4776.000000	65.490794 
4775.000000	65.505409 
4774.000000	65.508723 
4773.000000	65.504550 
4772.000000	65.496373 
4771.000000	65.487098 
4770.000000	65.477061 
4769.000000	65.464282 
4768.000000	65.444540 
4767.000000	65.412759 
4766.000000	65.364718 
4765.000000	65.298724 
4764.000000	65.216159 
4763.000000	65.121150 
4762.000000	65.019989 
4761.000000	64.919424 
4760.000000	64.824843 
4759.000000	64.739608 
4758.000000	64.664268 
4757.000000	64.597964 
4756.000000	64.538908 
4755.000000	64.486551 
4754.000000	64.441108 
4753.000000	64.405512 
4752.000000	64.383769 
4751.000000	64.381146 
4750.000000	64.400362 
4749.000000	64.442443 
4748.000000	64.504909 
4747.000000	64.582777 
4746.000000	64.668536 
4745.000000	64.754223 
4744.000000	64.832448 
4743.000000	64.897537 
4742.000000	64.946293 
4741.000000	64.977407 
4740.000000	64.991021 
4739.000000	64.988636 
4738.000000	64.972543 
4737.000000	64.945697 
4736.000000	64.911365 
4735.000000	64.874005 
4734.000000	64.838099 
4733.000000	64.808201 
4732.000000	64.787483 
4731.000000	64.777708 
4730.000000	64.778280 
4729.000000	64.785838 
4728.000000	64.795732 
4727.000000	64.802598 
4726.000000	64.802718 
4725.000000	64.794182 
4724.000000	64.778351 
4723.000000	64.759159 
4722.000000	64.742279 
4721.000000	64.733147 
4720.000000	64.735913 
4719.000000	64.751887 
4718.000000	64.780092 
4717.000000	64.817976 
4716.000000	64.862036 
4715.000000	64.908933 
4714.000000	64.955997 
4713.000000	65.001440 
4712.000000	65.043616 
4711.000000	65.080785 
4710.000000	65.110659 
4709.000000	65.130662 
4708.000000	65.138506 
4707.000000	65.132713 
4706.000000	65.113401 
4705.000000	65.082550 
4704.000000	65.044307 
4703.000000	65.003943 
4702.000000	64.967012 
4701.000000	64.938211 
4700.000000	64.920592 
4699.000000	64.915037 
4698.000000	64.920735 
4697.000000	64.935016 
4696.000000	64.954447 
4695.000000	64.974737 
4694.000000	64.991426 
4693.000000	65.000581 
4692.000000	64.998841 
4691.000000	64.984512 
4690.000000	64.957880 
4689.000000	64.921808 
4688.000000	64.881348 
4687.000000	64.843487 
4686.000000	64.815497 
4685.000000	64.803409 
4684.000000	64.810585 
4683.000000	64.837002 
4682.000000	64.879155 
4681.000000	64.930462 
4680.000000	64.982914 
4679.000000	65.028738 
4678.000000	65.062117 
4677.000000	65.080380 
4676.000000	65.084052 
4675.000000	65.075874 
4674.000000	65.059828 
4673.000000	65.039944 
4672.000000	65.018939 
4671.000000	64.997816 
4670.000000	64.976358 
4669.000000	64.954352 
4668.000000	64.932441 
4667.000000	64.912772 
4666.000000	64.898991 
4665.000000	64.895677 
4664.000000	64.906597 
4663.000000	64.933109 
4662.000000	64.973044 
4661.000000	65.020632 
4660.000000	65.067052 
4659.000000	65.102458 
4658.000000	65.118408 
4657.000000	65.110301 
4656.000000	65.078520 
4655.000000	65.028834 
4654.000000	64.971041 
4653.000000	64.916849 
4652.000000	64.877200 
4651.000000	64.859747 
4650.000000	64.867305 
4649.000000	64.897537 
4648.000000	64.944553 
4647.000000	64.999961 
4646.000000	65.055441 
4645.000000	65.104198 
4644.000000	65.142297 
4643.000000	65.169048 
4642.000000	65.185570 
4641.000000	65.195035 
4640.000000	65.200805 
4639.000000	65.206432 
4638.000000	65.214633 
4637.000000	65.227317 
4636.000000	65.245509 
4635.000000	65.269446 
4634.000000	65.298891 
4633.000000	65.332460 
4632.000000	65.367817 
4631.000000	65.401625 
4630.000000	65.429973 
4629.000000	65.449118 
4628.000000	65.456056 
4627.000000	65.449500 
4626.000000	65.429925 
4625.000000	65.399742 
4624.000000	65.362691 
4623.000000	65.323543 
4622.000000	65.286397 
4621.000000	65.254163 
4620.000000	65.227699 
4619.000000	65.206336 
4618.000000	65.187740 
4617.000000	65.168762 
4616.000000	65.146255 
4615.000000	65.117740 
4614.000000	65.083098 
4613.000000	65.044355 
4612.000000	65.005779 
4611.000000	64.972329 
4610.000000	64.949512 
4609.000000	64.941859 
4608.000000	64.951634 
4607.000000	64.978146 
4606.000000	65.017318 
4605.000000	65.062522 
4604.000000	65.105509 
4603.000000	65.138292 
4602.000000	65.155148 
4601.000000	65.154266 
4600.000000	65.137648 
4599.000000	65.110945 
4598.000000	65.081930 
4597.000000	65.058970 
4596.000000	65.048837 
4595.000000	65.055584 
4594.000000	65.080308 
4593.000000	65.120816 
4592.000000	65.173506 
4591.000000	65.232849 
4590.000000	65.292859 
4589.000000	65.347385 
4588.000000	65.391230 
4587.000000	65.420150 
4586.000000	65.430665 
4585.000000	65.421319 
4584.000000	65.392923 
4583.000000	65.348505 
4582.000000	65.293073 
4581.000000	65.232968 
4580.000000	65.175390 
4579.000000	65.125703 
4578.000000	65.086770 
4577.000000	65.057945 
4576.000000	65.035676 
4575.000000	65.014815 
4574.000000	64.990258 
4573.000000	64.958381 
4572.000000	64.918684 
4571.000000	64.873743 
4570.000000	64.829015 
4569.000000	64.790511 
4568.000000	64.764213 
4567.000000	64.754533 
4566.000000	64.763736 
4565.000000	64.791107 
4564.000000	64.834237 
4563.000000	64.889168 
4562.000000	64.952039 
4561.000000	65.018868 
4560.000000	65.087318 
4559.000000	65.156078 
4558.000000	65.225076 
4557.000000	65.294098 
4556.000000	65.363025 
4555.000000	65.431141 
4554.000000	65.496683 
4553.000000	65.556883 
4552.000000	65.608334 
4551.000000	65.647578 
4550.000000	65.671968 
4549.000000	65.680313 
4548.000000	65.673089 
4547.000000	65.652418 
4546.000000	65.622472 
4545.000000	65.587997 
4544.000000	65.553545 
4543.000000	65.522146 
4542.000000	65.495467 
4541.000000	65.473175 
4540.000000	65.453767 
4539.000000	65.435028 
4538.000000	65.415191 
4537.000000	65.393638 
4536.000000	65.370988 
4535.000000	65.348768 
4534.000000	65.329027 
4533.000000	65.313029 
4532.000000	65.300631 
4531.000000	65.289783 
4530.000000	65.276598 
4529.000000	65.256524 
4528.000000	65.225982 
4527.000000	65.182995 
4526.000000	65.127897 
4525.000000	65.064167 
4524.000000	64.997911 
4523.000000	64.936447 
4522.000000	64.886927 
4521.000000	64.855575 
4520.000000	64.846634 
4519.000000	64.861702 
4518.000000	64.899468 
4517.000000	64.955735 
4516.000000	65.024256 
4515.000000	65.097379 
4514.000000	65.167737 
4513.000000	65.228581 
4512.000000	65.275645 
4511.000000	65.306878 
4510.000000	65.323400 
4509.000000	65.328574 
4508.000000	65.327215 
4507.000000	65.324997 
4506.000000	65.326237 
4505.000000	65.333604 
4504.000000	65.346455 
4503.000000	65.362024 
4502.000000	65.374994 
4501.000000	65.379333 
4500.000000	65.369653 
4499.000000	65.343046 
4498.000000	65.299224 
4497.000000	65.241098 
4496.000000	65.174627 
4495.000000	65.108203 
4494.000000	65.051770 
4493.000000	65.014839 
4492.000000	65.005207 
4491.000000	65.026760 
4490.000000	65.077733 
4489.000000	65.150880 
4488.000000	65.234231 
4487.000000	65.313744 
4486.000000	65.376663 
4485.000000	65.413546 
4484.000000	65.419483 
4483.000000	65.395164 
4482.000000	65.347766 
4481.000000	65.286946 
4480.000000	65.219998 
4479.000000	65.153098 
4478.000000	65.093135 
4477.000000	65.043377 
4476.000000	65.000796 
4475.000000	64.964818 
4474.000000	64.940929 
4473.000000	64.935374 
4472.000000	64.954328 
4471.000000	64.999246 
4470.000000	65.064740 
4469.000000	65.143442 
4468.000000	65.227675 
4467.000000	65.305233 
4466.000000	65.363740 
4465.000000	65.402221 
4464.000000	65.427756 
4463.000000	65.450930 
4462.000000	65.480470 
4461.000000	65.520477 
4460.000000	65.564465 
4459.000000	65.601658 
4458.000000	65.609979 
4457.000000	65.568518 
4456.000000	65.448522 
4455.000000	65.234255 
4454.000000	64.902281 
4453.000000	64.438319 
4452.000000	63.818097 
4451.000000	63.017225 
4450.000000	62.013888 
4449.000000	60.796523 
4448.000000	59.390616 
4447.000000	57.861638 
4446.000000	56.336045 
4445.000000	54.982948 
4444.000000	54.007792 
4443.000000	53.610134 
4442.000000	53.947305 
4441.000000	55.090236 
4440.000000	57.000136 
4439.000000	59.518074 
4438.000000	62.384009 
4437.000000	65.272808 
4436.000000	67.846727 
4435.000000	69.812297 
4434.000000	70.969367 
4433.000000	71.240878 
4432.000000	70.678591 
4431.000000	69.441246 
4430.000000	67.768597 
4429.000000	65.917134 
4428.000000	64.126491 
4427.000000	62.569546 
4426.000000	61.357283 
4425.000000	60.518193 
4424.000000	60.032439 
4423.000000	59.840559 
4422.000000	59.878683 
4421.000000	60.084652 
4420.000000	60.404229 
4419.000000	60.797715 
4418.000000	61.228466 
4417.000000	61.673188 
4416.000000	62.111783 
4415.000000	62.536692 
4414.000000	62.946057 
4413.000000	63.338899 
4412.000000	63.710689 
4411.000000	64.051103 
4410.000000	64.344787 
4409.000000	64.579534 
4408.000000	64.747571 
4407.000000	64.849495 
4406.000000	64.893221 
4405.000000	64.901876 
4404.000000	64.899945 
4403.000000	64.904165 
4402.000000	64.921736 
4401.000000	64.954400 
4400.000000	64.994621 
4399.000000	65.034699 
4398.000000	65.063786 
4397.000000	65.069341 
4396.000000	65.045404 
4395.000000	64.997363 
4394.000000	64.936923 
4393.000000	64.877414 
4392.000000	64.834403 
4391.000000	64.821410 
4390.000000	64.846205 
4389.000000	64.909172 
4388.000000	65.001893 
4387.000000	65.109205 
4386.000000	65.214991 
4385.000000	65.305852 
4384.000000	65.371727 
4383.000000	65.408778 
4382.000000	65.420937 
4381.000000	65.417814 
4380.000000	65.409970 
4379.000000	65.406489 
4378.000000	65.414214 
4377.000000	65.435171 
4376.000000	65.466642 
4375.000000	65.502285 
4374.000000	65.535688 
4373.000000	65.561318 
4372.000000	65.576887 
4371.000000	65.583515 
4370.000000	65.585398 
4369.000000	65.588116 
4368.000000	65.596818 
4367.000000	65.614414 
4366.000000	65.640807 
4365.000000	65.672421 
4364.000000	65.703392 
4363.000000	65.727019 
4362.000000	65.737676 
4361.000000	65.731716 
4360.000000	65.708327 
4359.000000	65.668773 
4358.000000	65.615868 
4357.000000	65.552806 
4356.000000	65.482616 
4355.000000	65.408420 
4354.000000	65.333056 
4353.000000	65.259361 
4352.000000	65.190148 
4351.000000	65.128755 
4350.000000	65.078282 
4349.000000	65.040731 
4348.000000	65.017127 
4347.000000	65.006279 
4346.000000	65.006160 
4345.000000	65.013360 
4344.000000	65.024971 
4343.000000	65.038633 
4342.000000	65.053367 
4341.000000	65.069007 
4340.000000	65.085434 
4339.000000	65.101718 
4338.000000	65.115642 
4337.000000	65.123820 
4336.000000	65.122890 
4335.000000	65.110230 
4334.000000	65.085840 
4333.000000	65.052390 
4332.000000	65.014529 
4331.000000	64.977836 
4330.000000	64.947175 
4329.000000	64.925622 
4328.000000	64.913749 
4327.000000	64.909648 
4326.000000	64.910197 
4325.000000	64.912033 
4324.000000	64.912629 
4323.000000	64.911365 
4322.000000	64.909267 
4321.000000	64.909124 
4320.000000	64.913606 
4319.000000	64.925432 
4318.000000	64.945435 
4317.000000	64.973354 
4316.000000	65.007376 
4315.000000	65.045094 
4314.000000	65.084290 
4313.000000	65.123057 
4312.000000	65.160036 
4311.000000	65.194487 
4310.000000	65.225863 
4309.000000	65.253877 
4308.000000	65.278267 
4307.000000	65.299105 
4306.000000	65.316605 
4305.000000	65.331292 
4304.000000	65.343570 
4303.000000	65.353894 
4302.000000	65.362167 
4301.000000	65.367960 
4300.000000	65.370035 
4299.000000	65.367031 
4298.000000	65.357208 
4297.000000	65.339088 
4296.000000	65.311694 
4295.000000	65.275287 
4294.000000	65.231227 
4293.000000	65.181875 
4292.000000	65.130400 
4291.000000	65.080451 
4290.000000	65.035724 
4289.000000	64.999580 
4288.000000	64.974474 
4287.000000	64.961719 
4286.000000	64.961481 
4285.000000	64.972829 
4284.000000	64.993691 
4283.000000	65.020823 
4282.000000	65.050649 
4281.000000	65.079545 
4280.000000	65.104079 
4279.000000	65.121197 
4278.000000	65.128779 
4277.000000	65.125536 
4276.000000	65.111088 
4275.000000	65.085911 
4274.000000	65.051269 
4273.000000	65.009641 
4272.000000	64.964389 
4271.000000	64.920020 
4270.000000	64.881634 
4269.000000	64.854764 
4268.000000	64.844679 
4267.000000	64.855027 
4266.000000	64.887189 
4265.000000	64.939141 
4264.000000	65.005755 
4263.000000	65.078616 
4262.000000	65.147495 
4261.000000	65.201878 
4260.000000	65.233135 
4259.000000	65.236282 
4258.000000	65.211176 
4257.000000	65.162611 
4256.000000	65.099287 
4255.000000	65.031313 
4254.000000	64.968276 
4253.000000	64.917016 
4252.000000	64.880585 
4251.000000	64.858078 
4250.000000	64.845919 
4249.000000	64.839196 
4248.000000	64.833807 
4247.000000	64.827632 
4246.000000	64.821553 
4245.000000	64.818453 
4244.000000	64.822912 
4243.000000	64.838910 
4242.000000	64.869093 
4241.000000	64.913678 
4240.000000	64.969658 
4239.000000	65.031695 
4238.000000	65.092349 
4237.000000	65.144395 
4236.000000	65.180778 
4235.000000	65.196013 
4234.000000	65.187168 
4233.000000	65.153956 
4232.000000	65.099668 
4231.000000	65.030646 
4230.000000	64.955544 
4229.000000	64.883947 
4228.000000	64.824843 
4227.000000	64.785146 
4226.000000	64.768004 
4225.000000	64.772629 
4224.000000	64.794397 
4223.000000	64.826130 
4222.000000	64.860010 
4221.000000	64.889454 
4220.000000	64.910340 
4219.000000	64.921951 
4218.000000	64.926362 
4217.000000	64.927887 
4216.000000	64.931011 
4215.000000	64.939618 
4214.000000	64.955592 
4213.000000	64.979028 
4212.000000	65.008950 
4211.000000	65.043449 
4210.000000	65.081191 
4209.000000	65.120482 
4208.000000	65.160226 
4207.000000	65.198469 
4206.000000	65.232110 
4205.000000	65.256953 
4204.000000	65.268540 
4203.000000	65.262889 
4202.000000	65.237808 
4201.000000	65.194058 
4200.000000	65.135741 
4199.000000	65.070128 
4198.000000	65.006256 
4197.000000	64.952850 
4196.000000	64.916491 
4195.000000	64.900517 
4194.000000	64.904499 
4193.000000	64.924788 
4192.000000	64.955663 
4191.000000	64.991116 
4190.000000	65.026378 
4189.000000	65.058112 
4188.000000	65.084910 
4187.000000	65.106320 
4186.000000	65.122365 
4185.000000	65.132403 
4184.000000	65.134978 
4183.000000	65.128207 
4182.000000	65.109944 
4181.000000	65.079212 
4180.000000	65.036296 
4179.000000	64.983272 
4178.000000	64.923787 
4177.000000	64.862799 
4176.000000	64.805221 
4175.000000	64.755344 
4174.000000	64.716339 
4173.000000	64.690065 
4172.000000	64.677143 
4171.000000	64.677357 
4170.000000	64.689898 
4169.000000	64.713716 
4168.000000	64.747262 
4167.000000	64.789080 
4166.000000	64.836621 
4165.000000	64.887404 
4164.000000	64.938592 
4163.000000	64.987778 
4162.000000	65.033197 
4161.000000	65.073776 
4160.000000	65.109515 
4159.000000	65.140295 
