PE IR       SPECTRUM    SPECTRUM    ASCII       PEDS        1.60        
  -1
BZ6C26~1.ASC
17/04/07
20:07:11.00
17/04/07
20:07:11.00
tln
$BZ1503107-1_t0084$<tbV0>[-2.6,5.2,8.0,0.0,27,1,0]
370.000000
64









2002,4.07    
MIRTGS : RIGHTBACK : INTERNAL 2
MIR : ON : INTERNAL 2
OPTKBR

0.200000
8
8.000000
FILLER
RATIO
SPECTRUM
UNLOCKED 256

DOUBLE
64
COMBINED
1
0
0


1.000000
RATIO


1
0
TRUE
51149
0
LEFT NOT FITTED RIGHT NOT FITTED 0
NONE
NONE
15600
12.000000
4.427000
51148
TRUE
1 0 8 72 0 0 0 0 

15798.010000






#HDR
-1
-1
#GR
CM-1
%T
0.00002384185791015625
0.0
5000.000000
-1.000000
4631
8
69.169926
40.019321
#DATA
5000.000000	65.901637 
4999.000000	65.859675 
4998.000000	65.664124 
4997.000000	65.338373 
4996.000000	64.926815 
4995.000000	64.485645 
4994.000000	64.071011 
4993.000000	63.731193 
4992.000000	63.494038 
4991.000000	63.366270 
4990.000000	63.331222 
4989.000000	63.358116 
4988.000000	63.407278 
4987.000000	63.440561 
4986.000000	63.429689 
4985.000000	63.361144 
4984.000000	63.238263 
4983.000000	63.078284 
4982.000000	62.907838 
4981.000000	62.756180 
4980.000000	62.649583 
4979.000000	62.606549 
4978.000000	62.635302 
4977.000000	62.733840 
4976.000000	62.892818 
4975.000000	63.098502 
4974.000000	63.334631 
4973.000000	63.585782 
4972.000000	63.838696 
4971.000000	64.082670 
4970.000000	64.307284 
4969.000000	64.503526 
4968.000000	64.663290 
4967.000000	64.779686 
4966.000000	64.849257 
4965.000000	64.871788 
4964.000000	64.850544 
4963.000000	64.794945 
4962.000000	64.721202 
4961.000000	64.649820 
4960.000000	64.602279 
4959.000000	64.599061 
4958.000000	64.656233 
4957.000000	64.780616 
4956.000000	64.967489 
4955.000000	65.199899 
4954.000000	65.450596 
4953.000000	65.685915 
4952.000000	65.871405 
4951.000000	65.978336 
4950.000000	65.988779 
4949.000000	65.898466 
4948.000000	65.717840 
4947.000000	65.469980 
4946.000000	65.186381 
4945.000000	64.902210 
4944.000000	64.649796 
4943.000000	64.453840 
4942.000000	64.328837 
4941.000000	64.280056 
4940.000000	64.303183 
4939.000000	64.386010 
4938.000000	64.512968 
4937.000000	64.667844 
4936.000000	64.835929 
4935.000000	65.002989 
4934.000000	65.158534 
4933.000000	65.294432 
4932.000000	65.405464 
4931.000000	65.487909 
4930.000000	65.540671 
4929.000000	65.564584 
4928.000000	65.563297 
4927.000000	65.542340 
4926.000000	65.508747 
4925.000000	65.469241 
4924.000000	65.430116 
4923.000000	65.395140 
4922.000000	65.365815 
4921.000000	65.340662 
4920.000000	65.316152 
4919.000000	65.288138 
4918.000000	65.253376 
4917.000000	65.210509 
4916.000000	65.161442 
4915.000000	65.109896 
4914.000000	65.059947 
4913.000000	65.014958 
4912.000000	64.977216 
4911.000000	64.946341 
4910.000000	64.919352 
4909.000000	64.891552 
4908.000000	64.857959 
4907.000000	64.814996 
4906.000000	64.761972 
4905.000000	64.700889 
4904.000000	64.635753 
4903.000000	64.573478 
4902.000000	64.522457 
4901.000000	64.490342 
4900.000000	64.482402 
4899.000000	64.501476 
4898.000000	64.547157 
4897.000000	64.615440 
4896.000000	64.699864 
4895.000000	64.792370 
4894.000000	64.885234 
4893.000000	64.971494 
4892.000000	65.046954 
4891.000000	65.109777 
4890.000000	65.160679 
4889.000000	65.202760 
4888.000000	65.239071 
4887.000000	65.271902 
4886.000000	65.300798 
4885.000000	65.324091 
4884.000000	65.337491 
4883.000000	65.336489 
4882.000000	65.316581 
4881.000000	65.276122 
4880.000000	65.214872 
4879.000000	65.135145 
4878.000000	65.040946 
4877.000000	64.937591 
4876.000000	64.830946 
4875.000000	64.726877 
4874.000000	64.630818 
4873.000000	64.547204 
4872.000000	64.478564 
4871.000000	64.425683 
4870.000000	64.386987 
4869.000000	64.359951 
4868.000000	64.340972 
4867.000000	64.327573 
4866.000000	64.317727 
4865.000000	64.311623 
4864.000000	64.311099 
4863.000000	64.319372 
4862.000000	64.339184 
4861.000000	64.371848 
4860.000000	64.416313 
4859.000000	64.468741 
4858.000000	64.522433 
4857.000000	64.569711 
4856.000000	64.603781 
4855.000000	64.620113 
4854.000000	64.617753 
4853.000000	64.598894 
4852.000000	64.568209 
4851.000000	64.531731 
4850.000000	64.495348 
4849.000000	64.463996 
4848.000000	64.440917 
4847.000000	64.427900 
4846.000000	64.425611 
4845.000000	64.432930 
4844.000000	64.447522 
4843.000000	64.466476 
4842.000000	64.487218 
4841.000000	64.507484 
4840.000000	64.526224 
4839.000000	64.543843 
4838.000000	64.561843 
4837.000000	64.582061 
4836.000000	64.605689 
4835.000000	64.632844 
4834.000000	64.661312 
4833.000000	64.687180 
4832.000000	64.705276 
4831.000000	64.710330 
4830.000000	64.698743 
4829.000000	64.670085 
4828.000000	64.627575 
4827.000000	64.577507 
4826.000000	64.527988 
4825.000000	64.486837 
4824.000000	64.459919 
4823.000000	64.449644 
4822.000000	64.455342 
4821.000000	64.473915 
4820.000000	64.501166 
4819.000000	64.533138 
4818.000000	64.566540 
4817.000000	64.599394 
4816.000000	64.630579 
4815.000000	64.659547 
4814.000000	64.685869 
4813.000000	64.708876 
4812.000000	64.727854 
4811.000000	64.741587 
4810.000000	64.749264 
4809.000000	64.749860 
4808.000000	64.743161 
4807.000000	64.728927 
4806.000000	64.707159 
4805.000000	64.677929 
4804.000000	64.642095 
4803.000000	64.600944 
4802.000000	64.556574 
4801.000000	64.511895 
4800.000000	64.470672 
4799.000000	64.436435 
4798.000000	64.411759 
4797.000000	64.397811 
4796.000000	64.393877 
4795.000000	64.398026 
4794.000000	64.407658 
4793.000000	64.420223 
4792.000000	64.433670 
4791.000000	64.447236 
4790.000000	64.461302 
4789.000000	64.476060 
4788.000000	64.491605 
4787.000000	64.507412 
4786.000000	64.522624 
4785.000000	64.535570 
4784.000000	64.545059 
4783.000000	64.550828 
4782.000000	64.554381 
4781.000000	64.558672 
4780.000000	64.568090 
4779.000000	64.586830 
4778.000000	64.618706 
4777.000000	64.665627 
4776.000000	64.727258 
4775.000000	64.800906 
4774.000000	64.881920 
4773.000000	64.965176 
4772.000000	65.044522 
4771.000000	65.114068 
4770.000000	65.168118 
4769.000000	65.202093 
4768.000000	65.211868 
4767.000000	65.194225 
4766.000000	65.147423 
4765.000000	65.071702 
4764.000000	64.969944 
4763.000000	64.847946 
4762.000000	64.714288 
4761.000000	64.579844 
4760.000000	64.456033 
4759.000000	64.353704 
4758.000000	64.281129 
4757.000000	64.243078 
4756.000000	64.239668 
4755.000000	64.267253 
4754.000000	64.318513 
4753.000000	64.385056 
4752.000000	64.457893 
4751.000000	64.530158 
4750.000000	64.596438 
4749.000000	64.654755 
4748.000000	64.705157 
4747.000000	64.749526 
4746.000000	64.789772 
4745.000000	64.827227 
4744.000000	64.862179 
4743.000000	64.892959 
4742.000000	64.916634 
4741.000000	64.929485 
4740.000000	64.928674 
4739.000000	64.912486 
4738.000000	64.881563 
4737.000000	64.839172 
4736.000000	64.791083 
4735.000000	64.744949 
4734.000000	64.709019 
4733.000000	64.690136 
4732.000000	64.692854 
4731.000000	64.718770 
4730.000000	64.766025 
4729.000000	64.829397 
4728.000000	64.901161 
4727.000000	64.973139 
4726.000000	65.037608 
4725.000000	65.088915 
4724.000000	65.123653 
4723.000000	65.140986 
4722.000000	65.141844 
4721.000000	65.128612 
4720.000000	65.103650 
4719.000000	65.069055 
4718.000000	65.025782 
4717.000000	64.974594 
4716.000000	64.915990 
4715.000000	64.851260 
4714.000000	64.782357 
4713.000000	64.712619 
4712.000000	64.646005 
4711.000000	64.587211 
4710.000000	64.541339 
4709.000000	64.513421 
4708.000000	64.507365 
4707.000000	64.525246 
4706.000000	64.567041 
4705.000000	64.629793 
4704.000000	64.707779 
4703.000000	64.792585 
4702.000000	64.874148 
4701.000000	64.941954 
4700.000000	64.986538 
4699.000000	65.001034 
4698.000000	64.982128 
4697.000000	64.931344 
4696.000000	64.854526 
4695.000000	64.761948 
4694.000000	64.666914 
4693.000000	64.583492 
4692.000000	64.524435 
4691.000000	64.498615 
4690.000000	64.509677 
4689.000000	64.554929 
4688.000000	64.626264 
4687.000000	64.710974 
4686.000000	64.794421 
4685.000000	64.862632 
4684.000000	64.905047 
4683.000000	64.915823 
4682.000000	64.894795 
4681.000000	64.846920 
4680.000000	64.780974 
4679.000000	64.707255 
4678.000000	64.635586 
4677.000000	64.573931 
4676.000000	64.527368 
4675.000000	64.498734 
4674.000000	64.488315 
4673.000000	64.495086 
4672.000000	64.516568 
4671.000000	64.549422 
4670.000000	64.589762 
4669.000000	64.632344 
4668.000000	64.672541 
4667.000000	64.706254 
4666.000000	64.731240 
4665.000000	64.746880 
4664.000000	64.754462 
4663.000000	64.756417 
4662.000000	64.755868 
4661.000000	64.755964 
4660.000000	64.759039 
4659.000000	64.766263 
4658.000000	64.777803 
4657.000000	64.792752 
4656.000000	64.809560 
4655.000000	64.826202 
4654.000000	64.840459 
4653.000000	64.849781 
4652.000000	64.851641 
4651.000000	64.843964 
4650.000000	64.825320 
4649.000000	64.795637 
4648.000000	64.756226 
4647.000000	64.710044 
4646.000000	64.662122 
4645.000000	64.617705 
4644.000000	64.581227 
4643.000000	64.555454 
4642.000000	64.541077 
4641.000000	64.536786 
4640.000000	64.539837 
4639.000000	64.547181 
4638.000000	64.556217 
4637.000000	64.565300 
4636.000000	64.573788 
4635.000000	64.581632 
4634.000000	64.588689 
4633.000000	64.594674 
4632.000000	64.599132 
4631.000000	64.601635 
4630.000000	64.601802 
4629.000000	64.600157 
4628.000000	64.598250 
4627.000000	64.598417 
4626.000000	64.603662 
4625.000000	64.616560 
4624.000000	64.639043 
4623.000000	64.671301 
4622.000000	64.712548 
4621.000000	64.760684 
4620.000000	64.813470 
4619.000000	64.868521 
4618.000000	64.924168 
4617.000000	64.979338 
4616.000000	65.033459 
4615.000000	65.086078 
4614.000000	65.136408 
4613.000000	65.183043 
4612.000000	65.223979 
4611.000000	65.257263 
4610.000000	65.280628 
4609.000000	65.292263 
4608.000000	65.290951 
4607.000000	65.276575 
4606.000000	65.250205 
4605.000000	65.214157 
4604.000000	65.171504 
4603.000000	65.126013 
4602.000000	65.081810 
4601.000000	65.043282 
4600.000000	65.014052 
4599.000000	64.996480 
4598.000000	64.991641 
4597.000000	64.998555 
4596.000000	65.014266 
4595.000000	65.034294 
4594.000000	65.053200 
4593.000000	65.065741 
4592.000000	65.067553 
4591.000000	65.056514 
4590.000000	65.032744 
4589.000000	64.999341 
4588.000000	64.961051 
4587.000000	64.923977 
4586.000000	64.894318 
4585.000000	64.876914 
4584.000000	64.874553 
4583.000000	64.886832 
4582.000000	64.910340 
4581.000000	64.939117 
4580.000000	64.965915 
4579.000000	64.983105 
4578.000000	64.984416 
4577.000000	64.965653 
4576.000000	64.925670 
4575.000000	64.866471 
4574.000000	64.792656 
4573.000000	64.710807 
4572.000000	64.628481 
4571.000000	64.553284 
4570.000000	64.491844 
4569.000000	64.449024 
4568.000000	64.427542 
4567.000000	64.427495 
4566.000000	64.447045 
4565.000000	64.481902 
4564.000000	64.527249 
4563.000000	64.577698 
4562.000000	64.629101 
4561.000000	64.678072 
4560.000000	64.723396 
4559.000000	64.765357 
4558.000000	64.805626 
4557.000000	64.846301 
4556.000000	64.888954 
4555.000000	64.933896 
4554.000000	64.979839 
4553.000000	65.024185 
4552.000000	65.063452 
4551.000000	65.093851 
4550.000000	65.112733 
4549.000000	65.118789 
4548.000000	65.112257 
4547.000000	65.094542 
4546.000000	65.067839 
4545.000000	65.034770 
4544.000000	64.998340 
4543.000000	64.961385 
4542.000000	64.927053 
4541.000000	64.897942 
4540.000000	64.875698 
4539.000000	64.860939 
4538.000000	64.853572 
4537.000000	64.852857 
4536.000000	64.857888 
4535.000000	64.867758 
4534.000000	64.881634 
4533.000000	64.898729 
4532.000000	64.917731 
4531.000000	64.937257 
4530.000000	64.955139 
4529.000000	64.970159 
4528.000000	64.981961 
4527.000000	64.991927 
4526.000000	65.002799 
4525.000000	65.017700 
4524.000000	65.039014 
4523.000000	65.066885 
4522.000000	65.098667 
4521.000000	65.129017 
4520.000000	65.151000 
4519.000000	65.157747 
4518.000000	65.144562 
4517.000000	65.110540 
4516.000000	65.059590 
4515.000000	64.999914 
4514.000000	64.942264 
4513.000000	64.897608 
4512.000000	64.874267 
4511.000000	64.875507 
4510.000000	64.899134 
4509.000000	64.938354 
4508.000000	64.983582 
4507.000000	65.024828 
4506.000000	65.054631 
4505.000000	65.069866 
4504.000000	65.072178 
4503.000000	65.066623 
4502.000000	65.060925 
4501.000000	65.063047 
4500.000000	65.078759 
4499.000000	65.109753 
4498.000000	65.152835 
4497.000000	65.200734 
4496.000000	65.243983 
4495.000000	65.273618 
4494.000000	65.284729 
4493.000000	65.277433 
4492.000000	65.257287 
4491.000000	65.232515 
4490.000000	65.211653 
4489.000000	65.199613 
4488.000000	65.194535 
4487.000000	65.188860 
4486.000000	65.173840 
4485.000000	65.140962 
4484.000000	65.086531 
4483.000000	65.011096 
4482.000000	64.920115 
4481.000000	64.821577 
4480.000000	64.722204 
4479.000000	64.627933 
4478.000000	64.542937 
4477.000000	64.469170 
4476.000000	64.408159 
4475.000000	64.358329 
4474.000000	64.314150 
4473.000000	64.272093 
4472.000000	64.231824 
4471.000000	64.196681 
4470.000000	64.173030 
4469.000000	64.164900 
4468.000000	64.170885 
4467.000000	64.191341 
4466.000000	64.223504 
4465.000000	64.254355 
4464.000000	64.262652 
4463.000000	64.220952 
4462.000000	64.104557 
4461.000000	63.901448 
4460.000000	63.617038 
4459.000000	63.276338 
4458.000000	62.916445 
4457.000000	62.588787 
4456.000000	62.332844 
4455.000000	62.158203 
4454.000000	62.051463 
4453.000000	61.965537 
4452.000000	61.863803 
4451.000000	61.727166 
4450.000000	61.587309 
4449.000000	61.526656 
4448.000000	61.651611 
4447.000000	62.061095 
4446.000000	62.794852 
4445.000000	63.808822 
4444.000000	64.947295 
4443.000000	65.968203 
4442.000000	66.586160 
4441.000000	66.547656 
4440.000000	65.691733 
4439.000000	64.015102 
4438.000000	61.683535 
4437.000000	59.024167 
4436.000000	56.470632 
4435.000000	54.472923 
4434.000000	53.404998 
4433.000000	53.471589 
4432.000000	54.662370 
4431.000000	56.754374 
4430.000000	59.356880 
4429.000000	62.019777 
4428.000000	64.332079 
4427.000000	66.018748 
4426.000000	66.979765 
4425.000000	67.296528 
4424.000000	67.161440 
4423.000000	66.828012 
4422.000000	66.511845 
4421.000000	66.366815 
4420.000000	66.457629 
4419.000000	66.770434 
4418.000000	67.250895 
4417.000000	67.807507 
4416.000000	68.351054 
4415.000000	68.796277 
4414.000000	69.081234 
4413.000000	69.169926 
4412.000000	69.054961 
4411.000000	68.755793 
4410.000000	68.310308 
4409.000000	67.765617 
4408.000000	67.169117 
4407.000000	66.564679 
4406.000000	65.987992 
4405.000000	65.468239 
4404.000000	65.026807 
4403.000000	64.688515 
4402.000000	64.469122 
4401.000000	64.369392 
4400.000000	64.377021 
4399.000000	64.458966 
4398.000000	64.577984 
4397.000000	64.701128 
4396.000000	64.801931 
4395.000000	64.857363 
4394.000000	64.859962 
4393.000000	64.815950 
4392.000000	64.740633 
4391.000000	64.651250 
4390.000000	64.565777 
4389.000000	64.497828 
4388.000000	64.457845 
4387.000000	64.451241 
4386.000000	64.479207 
4385.000000	64.538311 
4384.000000	64.619493 
4383.000000	64.710021 
4382.000000	64.795494 
4381.000000	64.863300 
4380.000000	64.903664 
4379.000000	64.913558 
4378.000000	64.894819 
4377.000000	64.856624 
4376.000000	64.814782 
4375.000000	64.787149 
4374.000000	64.787983 
4373.000000	64.825844 
4372.000000	64.902663 
4371.000000	65.011572 
4370.000000	65.138554 
4369.000000	65.266108 
4368.000000	65.377974 
4367.000000	65.461635 
4366.000000	65.511035 
4365.000000	65.526056 
4364.000000	65.511322 
4363.000000	65.474319 
4362.000000	65.423083 
4361.000000	65.364336 
4360.000000	65.302586 
4359.000000	65.240645 
4358.000000	65.180158 
4357.000000	65.123629 
4356.000000	65.074777 
4355.000000	65.038228 
4354.000000	65.018892 
4353.000000	65.019750 
4352.000000	65.041351 
4351.000000	65.080833 
4350.000000	65.132427 
4349.000000	65.187692 
4348.000000	65.237975 
4347.000000	65.276122 
4346.000000	65.297532 
4345.000000	65.301203 
4344.000000	65.288829 
4343.000000	65.264129 
4342.000000	65.231323 
4341.000000	65.193986 
4340.000000	65.154528 
4339.000000	65.114426 
4338.000000	65.074229 
4337.000000	65.034580 
4336.000000	64.996480 
4335.000000	64.962029 
4334.000000	64.933276 
4333.000000	64.912199 
4332.000000	64.899992 
4331.000000	64.896774 
4330.000000	64.901399 
4329.000000	64.911580 
4328.000000	64.924144 
4327.000000	64.935827 
4326.000000	64.943957 
4325.000000	64.947295 
4324.000000	64.945983 
4323.000000	64.941835 
4322.000000	64.937710 
4321.000000	64.936542 
4320.000000	64.940547 
4319.000000	64.950418 
4318.000000	64.965128 
4317.000000	64.982366 
4316.000000	64.999294 
4315.000000	65.013313 
4314.000000	65.022873 
4313.000000	65.027713 
4312.000000	65.029096 
4311.000000	65.029335 
4310.000000	65.030956 
4309.000000	65.035676 
4308.000000	65.043544 
4307.000000	65.053367 
4306.000000	65.062785 
4305.000000	65.068650 
4304.000000	65.068125 
4303.000000	65.059590 
4302.000000	65.043187 
4301.000000	65.020608 
4300.000000	64.994907 
4299.000000	64.969515 
4298.000000	64.947867 
4297.000000	64.932966 
4296.000000	64.926433 
4295.000000	64.928507 
4294.000000	64.938044 
4293.000000	64.952921 
4292.000000	64.970421 
4291.000000	64.987444 
4290.000000	65.001201 
4289.000000	65.009522 
4288.000000	65.011596 
4287.000000	65.007710 
4286.000000	64.999890 
4285.000000	64.990997 
4284.000000	64.984703 
4283.000000	64.984583 
4282.000000	64.993953 
4281.000000	65.015244 
4280.000000	65.049290 
4279.000000	65.094923 
4278.000000	65.149164 
4277.000000	65.207409 
4276.000000	65.263986 
4275.000000	65.312743 
4274.000000	65.348052 
4273.000000	65.365290 
4272.000000	65.361833 
4271.000000	65.336942 
4270.000000	65.292072 
4269.000000	65.230488 
4268.000000	65.157198 
4267.000000	65.078616 
4266.000000	65.001893 
4265.000000	64.934277 
4264.000000	64.882564 
4263.000000	64.851856 
4262.000000	64.845228 
4261.000000	64.862418 
4260.000000	64.899706 
4259.000000	64.949989 
4258.000000	65.003919 
4257.000000	65.051007 
4256.000000	65.081644 
4255.000000	65.088844 
4254.000000	65.069651 
4253.000000	65.025949 
4252.000000	64.964008 
4251.000000	64.893198 
4250.000000	64.824080 
4249.000000	64.766144 
4248.000000	64.726066 
4247.000000	64.706826 
4246.000000	64.707303 
4245.000000	64.723134 
4244.000000	64.747786 
4243.000000	64.774608 
4242.000000	64.798045 
4241.000000	64.814209 
4240.000000	64.821743 
4239.000000	64.820837 
4238.000000	64.813280 
4237.000000	64.801096 
4236.000000	64.786267 
4235.000000	64.769768 
4234.000000	64.752340 
4233.000000	64.734792 
4232.000000	64.718484 
4231.000000	64.705133 
4230.000000	64.697289 
4229.000000	64.697694 
4228.000000	64.708590 
4227.000000	64.730596 
4226.000000	64.762306 
4225.000000	64.800071 
4224.000000	64.838743 
4223.000000	64.872598 
4222.000000	64.896392 
4221.000000	64.906454 
4220.000000	64.901232 
4219.000000	64.881634 
4218.000000	64.850687 
4217.000000	64.812898 
4216.000000	64.773201 
4215.000000	64.736247 
4214.000000	64.705634 
4213.000000	64.683675 
4212.000000	64.671611 
4211.000000	64.669537 
4210.000000	64.676856 
4209.000000	64.692616 
4208.000000	64.715266 
4207.000000	64.743280 
4206.000000	64.774847 
4205.000000	64.808368 
4204.000000	64.842462 
4203.000000	64.875817 
4202.000000	64.907145 
4201.000000	64.934706 
4200.000000	64.956665 
4199.000000	64.970827 
4198.000000	64.975166 
4197.000000	64.968347 
4196.000000	64.949941 
4195.000000	64.921164 
4194.000000	64.884519 
4193.000000	64.843344 
4192.000000	64.801168 
4191.000000	64.760947 
4190.000000	64.724564 
4189.000000	64.692449 
4188.000000	64.664483 
4187.000000	64.640021 
4186.000000	64.619421 
4185.000000	64.604163 
4184.000000	64.596843 
4183.000000	64.600706 
4182.000000	64.617943 
4181.000000	64.648294 
4180.000000	64.688587 
4179.000000	64.732408 
4178.000000	64.772081 
4177.000000	64.800095 
4176.000000	64.811539 
4175.000000	64.805245 
4174.000000	64.784622 
4173.000000	64.756822 
4172.000000	64.730358 
4171.000000	64.713001 
4170.000000	64.709568 
4169.000000	64.720964 
4168.000000	64.743971 
4167.000000	64.772367 
4166.000000	64.799308 
4165.000000	64.818835 
4164.000000	64.828157 
4163.000000	64.827489 
4162.000000	64.819216 
4161.000000	64.807057 
4160.000000	64.794373 
4159.000000	64.783668 
