PE IR       SPECTRUM    SPECTRUM    ASCII       PEDS        1.60        
  -1
BZ6E23~1.ASC
17/04/07
15:23:42.00
17/04/07
15:23:42.00
tln
$BZ1503107-1_t0026$<tbV0>[5.2,-7.8,8.0,0.0,27,1,0]
370.000000
64









2002,4.07    
MIRTGS : RIGHTBACK : INTERNAL 2
MIR : ON : INTERNAL 2
OPTKBR

0.200000
8
8.000000
FILLER
RATIO
SPECTRUM
UNLOCKED 256

DOUBLE
64
COMBINED
1
0
0


1.000000
RATIO


1
0
TRUE
51149
0
LEFT NOT FITTED RIGHT NOT FITTED 0
NONE
NONE
15600
12.000000
4.427000
51148
TRUE
1 0 8 72 0 0 0 0 

15798.010000






#HDR
-1
-1
#GR
CM-1
%T
0.00002384185791015625
0.0
5000.000000
-1.000000
4631
8
83.397316
41.624712
#DATA
5000.000000	66.142249 
4999.000000	65.882897 
4998.000000	65.626311 
4997.000000	65.389227 
4996.000000	65.183663 
4995.000000	65.018987 
4994.000000	64.899706 
4993.000000	64.826488 
4992.000000	64.795970 
4991.000000	64.800810 
4990.000000	64.831519 
4989.000000	64.875793 
4988.000000	64.922547 
4987.000000	64.961957 
4986.000000	64.987778 
4985.000000	64.996647 
4984.000000	64.988875 
4983.000000	64.967322 
4982.000000	64.935755 
4981.000000	64.897847 
4980.000000	64.857983 
4979.000000	64.820194 
4978.000000	64.788937 
4977.000000	64.767146 
4976.000000	64.756965 
4975.000000	64.757037 
4974.000000	64.762926 
4973.000000	64.766001 
4972.000000	64.754796 
4971.000000	64.718031 
4970.000000	64.646792 
4969.000000	64.539027 
4968.000000	64.399862 
4967.000000	64.243483 
4966.000000	64.090633 
4965.000000	63.964486 
4964.000000	63.884663 
4963.000000	63.863849 
4962.000000	63.904309 
4961.000000	63.997721 
4960.000000	64.126729 
4959.000000	64.269948 
4958.000000	64.406633 
4957.000000	64.520764 
4956.000000	64.603471 
4955.000000	64.653491 
4954.000000	64.675998 
4953.000000	64.679098 
4952.000000	64.671254 
4951.000000	64.659500 
4950.000000	64.648151 
4949.000000	64.640450 
4948.000000	64.637255 
4947.000000	64.640808 
4946.000000	64.651203 
4945.000000	64.667415 
4944.000000	64.685320 
4943.000000	64.697957 
4942.000000	64.697241 
4941.000000	64.675021 
4940.000000	64.627003 
4939.000000	64.554023 
4938.000000	64.463853 
4937.000000	64.369225 
4936.000000	64.286470 
4935.000000	64.231204 
4934.000000	64.215826 
4933.000000	64.246273 
4932.000000	64.322090 
4931.000000	64.436388 
4930.000000	64.578843 
4929.000000	64.737629 
4928.000000	64.901304 
4927.000000	65.059781 
4926.000000	65.204763 
4925.000000	65.329504 
4924.000000	65.426945 
4923.000000	65.490722 
4922.000000	65.516829 
4921.000000	65.504455 
4920.000000	65.458488 
4919.000000	65.387988 
4918.000000	65.306878 
4917.000000	65.229678 
4916.000000	65.170097 
4915.000000	65.136861 
4914.000000	65.132784 
4913.000000	65.153789 
4912.000000	65.191221 
4911.000000	65.233469 
4910.000000	65.269184 
4909.000000	65.290236 
4908.000000	65.293407 
4907.000000	65.280556 
4906.000000	65.257263 
4905.000000	65.230751 
4904.000000	65.207171 
4903.000000	65.189909 
4902.000000	65.178751 
4901.000000	65.170145 
4900.000000	65.158367 
4899.000000	65.137958 
4898.000000	65.105175 
4897.000000	65.058779 
4896.000000	65.000414 
4895.000000	64.934086 
4894.000000	64.865469 
4893.000000	64.799427 
4892.000000	64.740395 
4891.000000	64.691185 
4890.000000	64.654278 
4889.000000	64.631032 
4888.000000	64.623522 
4887.000000	64.633750 
4886.000000	64.664292 
4885.000000	64.716792 
4884.000000	64.790964 
4883.000000	64.883255 
4882.000000	64.986443 
4881.000000	65.089964 
4880.000000	65.181255 
4879.000000	65.247893 
4878.000000	65.279722 
4877.000000	65.271043 
4876.000000	65.222072 
4875.000000	65.139245 
4874.000000	65.034461 
4873.000000	64.923024 
4872.000000	64.821386 
4871.000000	64.744067 
4870.000000	64.701962 
4869.000000	64.699935 
4868.000000	64.736390 
4867.000000	64.803624 
4866.000000	64.889407 
4865.000000	64.979910 
4864.000000	65.061593 
4863.000000	65.124559 
4862.000000	65.163516 
4861.000000	65.178680 
4860.000000	65.174174 
4859.000000	65.157032 
4858.000000	65.135121 
4857.000000	65.114545 
4856.000000	65.098786 
4855.000000	65.087413 
4854.000000	65.077567 
4853.000000	65.064263 
4852.000000	65.043091 
4851.000000	65.010976 
4850.000000	64.967441 
4849.000000	64.915132 
4848.000000	64.859342 
4847.000000	64.806365 
4846.000000	64.762139 
4845.000000	64.731144 
4844.000000	64.715576 
4843.000000	64.715051 
4842.000000	64.726829 
4841.000000	64.746022 
4840.000000	64.767360 
4839.000000	64.785957 
4838.000000	64.798879 
4837.000000	64.805388 
4836.000000	64.807534 
4835.000000	64.808702 
4834.000000	64.813232 
4833.000000	64.824986 
4832.000000	64.845967 
4831.000000	64.875745 
4830.000000	64.911127 
4829.000000	64.947319 
4828.000000	64.978265 
4827.000000	64.998745 
4826.000000	65.004491 
4825.000000	64.993119 
4824.000000	64.964103 
4823.000000	64.919137 
4822.000000	64.861226 
4821.000000	64.794301 
4820.000000	64.722895 
4819.000000	64.651966 
4818.000000	64.586663 
4817.000000	64.532113 
4816.000000	64.492964 
4815.000000	64.472770 
4814.000000	64.472866 
4813.000000	64.492106 
4812.000000	64.526200 
4811.000000	64.569067 
4810.000000	64.613389 
4809.000000	64.652562 
4808.000000	64.681363 
4807.000000	64.697432 
4806.000000	64.701008 
4805.000000	64.695191 
4804.000000	64.684367 
4803.000000	64.673447 
4802.000000	64.666962 
4801.000000	64.667868 
4800.000000	64.677453 
4799.000000	64.695000 
4798.000000	64.718413 
4797.000000	64.744257 
4796.000000	64.768934 
4795.000000	64.788818 
4794.000000	64.800858 
4793.000000	64.803194 
4792.000000	64.795303 
4791.000000	64.777898 
4790.000000	64.752721 
4789.000000	64.722752 
4788.000000	64.691281 
4787.000000	64.661049 
4786.000000	64.633631 
4785.000000	64.609670 
4784.000000	64.588999 
4783.000000	64.570856 
4782.000000	64.554643 
4781.000000	64.540338 
4780.000000	64.528703 
4779.000000	64.520716 
4778.000000	64.517402 
4777.000000	64.518761 
4776.000000	64.524269 
4775.000000	64.532685 
4774.000000	64.542365 
4773.000000	64.551305 
4772.000000	64.558148 
4771.000000	64.562463 
4770.000000	64.564847 
4769.000000	64.566802 
4768.000000	64.570498 
4767.000000	64.578080 
4766.000000	64.591407 
4765.000000	64.611697 
4764.000000	64.639520 
4763.000000	64.674711 
4762.000000	64.716553 
4761.000000	64.763855 
4760.000000	64.814734 
4759.000000	64.866948 
4758.000000	64.917945 
4757.000000	64.965486 
4756.000000	65.008282 
4755.000000	65.045475 
4754.000000	65.077424 
4753.000000	65.103673 
4752.000000	65.123653 
4751.000000	65.134787 
4750.000000	65.133857 
4749.000000	65.116715 
4748.000000	65.080046 
4747.000000	65.022683 
4746.000000	64.947080 
4745.000000	64.859294 
4744.000000	64.768552 
4743.000000	64.685940 
4742.000000	64.622306 
4741.000000	64.585638 
4740.000000	64.579272 
4739.000000	64.601564 
4738.000000	64.646530 
4737.000000	64.705300 
4736.000000	64.768362 
4735.000000	64.827394 
4734.000000	64.876484 
4733.000000	64.912199 
4732.000000	64.933562 
4731.000000	64.940047 
4730.000000	64.931821 
4729.000000	64.909601 
4728.000000	64.874577 
4727.000000	64.828920 
4726.000000	64.775919 
4725.000000	64.720606 
4724.000000	64.668941 
4723.000000	64.626860 
4722.000000	64.599990 
4721.000000	64.592027 
4720.000000	64.605164 
4719.000000	64.638805 
4718.000000	64.691567 
4717.000000	64.760947 
4716.000000	64.844918 
4715.000000	64.941596 
4714.000000	65.049171 
4713.000000	65.164971 
4712.000000	65.285325 
4711.000000	65.404796 
4710.000000	65.516495 
4709.000000	65.612244 
4708.000000	65.684366 
4707.000000	65.726208 
4706.000000	65.733647 
4705.000000	65.705323 
4704.000000	65.643501 
4703.000000	65.553736 
4702.000000	65.445137 
4701.000000	65.328431 
4700.000000	65.215468 
4699.000000	65.116572 
4698.000000	65.040135 
4697.000000	64.990234 
4696.000000	64.966917 
4695.000000	64.966034 
4694.000000	64.980196 
4693.000000	65.001368 
4692.000000	65.021562 
4691.000000	65.036010 
4690.000000	65.043044 
4689.000000	65.044879 
4688.000000	65.045881 
4687.000000	65.051078 
4686.000000	65.063929 
4685.000000	65.084743 
4684.000000	65.110111 
4683.000000	65.134668 
4682.000000	65.152454 
4681.000000	65.158724 
4680.000000	65.151071 
4679.000000	65.130925 
4678.000000	65.102362 
4677.000000	65.070700 
4676.000000	65.040564 
4675.000000	65.014982 
4674.000000	64.993953 
4673.000000	64.975094 
4672.000000	64.954400 
4671.000000	64.927530 
4670.000000	64.892220 
4669.000000	64.848995 
4668.000000	64.802098 
4667.000000	64.757776 
4666.000000	64.724040 
4665.000000	64.707803 
4664.000000	64.714193 
4663.000000	64.744687 
4662.000000	64.796829 
4661.000000	64.864563 
4660.000000	64.938855 
4659.000000	65.009713 
4658.000000	65.067434 
4657.000000	65.104627 
4656.000000	65.117311 
4655.000000	65.105628 
4654.000000	65.073680 
4653.000000	65.028238 
4652.000000	64.977407 
4651.000000	64.928793 
4650.000000	64.888215 
4649.000000	64.858937 
4648.000000	64.841890 
4647.000000	64.835882 
4646.000000	64.839124 
4645.000000	64.849257 
4644.000000	64.864158 
4643.000000	64.882016 
4642.000000	64.901304 
4641.000000	64.920234 
4640.000000	64.936041 
4639.000000	64.945769 
4638.000000	64.946293 
4637.000000	64.935731 
4636.000000	64.914011 
4635.000000	64.883708 
4634.000000	64.849877 
4633.000000	64.819002 
4632.000000	64.797544 
4631.000000	64.790391 
4630.000000	64.799213 
4629.000000	64.822244 
4628.000000	64.854216 
4627.000000	64.887785 
4626.000000	64.915251 
4625.000000	64.930200 
4624.000000	64.928984 
4623.000000	64.911389 
4622.000000	64.880609 
4621.000000	64.842104 
4620.000000	64.802670 
4619.000000	64.768481 
4618.000000	64.744400 
4617.000000	64.733123 
4616.000000	64.735245 
4615.000000	64.749574 
4614.000000	64.773607 
4613.000000	64.804387 
4612.000000	64.838790 
4611.000000	64.873790 
4610.000000	64.906454 
4609.000000	64.933896 
4608.000000	64.953637 
4607.000000	64.963936 
4606.000000	64.964318 
4605.000000	64.955854 
4604.000000	64.941811 
4603.000000	64.927077 
4602.000000	64.917588 
4601.000000	64.918613 
4600.000000	64.934277 
4599.000000	64.965867 
4598.000000	65.011215 
4597.000000	65.064358 
4596.000000	65.117239 
4595.000000	65.160560 
4594.000000	65.185976 
4593.000000	65.187573 
4592.000000	65.163159 
4591.000000	65.115094 
4590.000000	65.049195 
4589.000000	64.974379 
4588.000000	64.900541 
4587.000000	64.837336 
4586.000000	64.792656 
4585.000000	64.771318 
4584.000000	64.774680 
4583.000000	64.800524 
4582.000000	64.844107 
4581.000000	64.898753 
4580.000000	64.957165 
4579.000000	65.013217 
4578.000000	65.062975 
4577.000000	65.105247 
4576.000000	65.141129 
4575.000000	65.173387 
4574.000000	65.205454 
4573.000000	65.240287 
4572.000000	65.279698 
4571.000000	65.323781 
4570.000000	65.370798 
4569.000000	65.418815 
4568.000000	65.465259 
4567.000000	65.508413 
4566.000000	65.546488 
4565.000000	65.578889 
4564.000000	65.604448 
4563.000000	65.622091 
4562.000000	65.629410 
4561.000000	65.623450 
4560.000000	65.600991 
4559.000000	65.560364 
4558.000000	65.501666 
4557.000000	65.427803 
4556.000000	65.344023 
4555.000000	65.257287 
4554.000000	65.175557 
4553.000000	65.106534 
4552.000000	65.057015 
4551.000000	65.032100 
4550.000000	65.034699 
4549.000000	65.065360 
4548.000000	65.122151 
4547.000000	65.200924 
4546.000000	65.295433 
4545.000000	65.398216 
4544.000000	65.501499 
4543.000000	65.597963 
4542.000000	65.681910 
4541.000000	65.749168 
4540.000000	65.797853 
4539.000000	65.826773 
4538.000000	65.836262 
4537.000000	65.826010 
4536.000000	65.796113 
4535.000000	65.745902 
4534.000000	65.675806 
4533.000000	65.587663 
4532.000000	65.486073 
4531.000000	65.378713 
4530.000000	65.275788 
4529.000000	65.188622 
4528.000000	65.127682 
4527.000000	65.100336 
4526.000000	65.109300 
4525.000000	65.152478 
4524.000000	65.223550 
4523.000000	65.313720 
4522.000000	65.413594 
4521.000000	65.515255 
4520.000000	65.613651 
4519.000000	65.706491 
4518.000000	65.793681 
4517.000000	65.875983 
4516.000000	65.953469 
4515.000000	66.024589 
4514.000000	66.085600 
4513.000000	66.132283 
4512.000000	66.159844 
4511.000000	66.165685 
4510.000000	66.149258 
4509.000000	66.114091 
4508.000000	66.065859 
4507.000000	66.012167 
4506.000000	65.959978 
4505.000000	65.914964 
4504.000000	65.879893 
4503.000000	65.855026 
4502.000000	65.837812 
4501.000000	65.824341 
4500.000000	65.810441 
4499.000000	65.793371 
4498.000000	65.771555 
4497.000000	65.745019 
4496.000000	65.715169 
4495.000000	65.684390 
4494.000000	65.655255 
4493.000000	65.630602 
4492.000000	65.612649 
4491.000000	65.603303 
4490.000000	65.604901 
4489.000000	65.618991 
4488.000000	65.646338 
4487.000000	65.685296 
4486.000000	65.731573 
4485.000000	65.778040 
4484.000000	65.815186 
4483.000000	65.833449 
4482.000000	65.825271 
4481.000000	65.787458 
4480.000000	65.722680 
4479.000000	65.638875 
4478.000000	65.546846 
4477.000000	65.459036 
4476.000000	65.385794 
4475.000000	65.335726 
4474.000000	65.314745 
4473.000000	65.325474 
4472.000000	65.367078 
4471.000000	65.434718 
4470.000000	65.520310 
4469.000000	65.613245 
4468.000000	65.701913 
4467.000000	65.777564 
4466.000000	65.835475 
4465.000000	65.871930 
4464.000000	65.885400 
4463.000000	65.881419 
4462.000000	65.868592 
4461.000000	65.850257 
4460.000000	65.827465 
4459.000000	65.805625 
4458.000000	65.790772 
4457.000000	65.780329 
4456.000000	65.773630 
4455.000000	65.783119 
4454.000000	65.819883 
4453.000000	65.893125 
4452.000000	65.999078 
4451.000000	66.114282 
4450.000000	66.206860 
4449.000000	66.247344 
4448.000000	66.212153 
4447.000000	66.086530 
4446.000000	65.883588 
4445.000000	65.644478 
4444.000000	65.420007 
4443.000000	65.253829 
4442.000000	65.170812 
4441.000000	65.162324 
4440.000000	65.174508 
4439.000000	65.115404 
4438.000000	64.883041 
4437.000000	64.381146 
4436.000000	63.564038 
4435.000000	62.420940 
4434.000000	61.002326 
4433.000000	59.367752 
4432.000000	57.551050 
4431.000000	55.566978 
4430.000000	53.377366 
4429.000000	50.985264 
4428.000000	48.444652 
4427.000000	45.932102 
4426.000000	43.724179 
4425.000000	42.176294 
4424.000000	41.624712 
4423.000000	42.319607 
4422.000000	44.315576 
4421.000000	47.482728 
4420.000000	51.501321 
4419.000000	55.936527 
4418.000000	60.314798 
4417.000000	64.207458 
4416.000000	67.299580 
4415.000000	69.425702 
4414.000000	70.576047 
4413.000000	70.875930 
4412.000000	70.535182 
4411.000000	69.813084 
4410.000000	68.948674 
4409.000000	68.139362 
4408.000000	67.494249 
4407.000000	67.074632 
4406.000000	66.867089 
4405.000000	66.830492 
4404.000000	66.894698 
4403.000000	66.998147 
4402.000000	67.090463 
4401.000000	67.131090 
4400.000000	67.104077 
4399.000000	67.008185 
4398.000000	66.859984 
4397.000000	66.677141 
4396.000000	66.483211 
4395.000000	66.301250 
4394.000000	66.149401 
4393.000000	66.038370 
4392.000000	65.971350 
4391.000000	65.944552 
4390.000000	65.953063 
4389.000000	65.994310 
4388.000000	66.058635 
4387.000000	66.130137 
4386.000000	66.202163 
4385.000000	66.274785 
4384.000000	66.339302 
4383.000000	66.382265 
4382.000000	66.394734 
4381.000000	66.370773 
4380.000000	66.309070 
4379.000000	66.212415 
4378.000000	66.085958 
4377.000000	65.937089 
4376.000000	65.778231 
4375.000000	65.620946 
4374.000000	65.473723 
4373.000000	65.340995 
4372.000000	65.224194 
4371.000000	65.121555 
4370.000000	65.029931 
4369.000000	64.946460 
4368.000000	64.869165 
4367.000000	64.799165 
4366.000000	64.739370 
4365.000000	64.695024 
4364.000000	64.671206 
4363.000000	64.672327 
4362.000000	64.699840 
4361.000000	64.752411 
4360.000000	64.825367 
4359.000000	64.911222 
4358.000000	65.001177 
4357.000000	65.085864 
4356.000000	65.157628 
4355.000000	65.211510 
4354.000000	65.246510 
4353.000000	65.265226 
4352.000000	65.273451 
4351.000000	65.278506 
4350.000000	65.287494 
4349.000000	65.306496 
4348.000000	65.338206 
4347.000000	65.381836 
4346.000000	65.432524 
4345.000000	65.484380 
4344.000000	65.529680 
4343.000000	65.560936 
4342.000000	65.572285 
4341.000000	65.561532 
4340.000000	65.529179 
4339.000000	65.478444 
4338.000000	65.414452 
4337.000000	65.343499 
4336.000000	65.271186 
4335.000000	65.201735 
4334.000000	65.137648 
4333.000000	65.080189 
4332.000000	65.029883 
4331.000000	64.987301 
4330.000000	64.953184 
4329.000000	64.929056 
4328.000000	64.916419 
4327.000000	64.917254 
4326.000000	64.931440 
4325.000000	64.958381 
4324.000000	64.996027 
4323.000000	65.042114 
4322.000000	65.093493 
4321.000000	65.147280 
4320.000000	65.201067 
4319.000000	65.252995 
4318.000000	65.301275 
4317.000000	65.344452 
4316.000000	65.381217 
4315.000000	65.410447 
4314.000000	65.431404 
4313.000000	65.443944 
4312.000000	65.448975 
4311.000000	65.448021 
4310.000000	65.443134 
4309.000000	65.436244 
4308.000000	65.428757 
4307.000000	65.421342 
4306.000000	65.413880 
4305.000000	65.405249 
4304.000000	65.394067 
4303.000000	65.379714 
4302.000000	65.362620 
4301.000000	65.344095 
4300.000000	65.326285 
4299.000000	65.311598 
4298.000000	65.301752 
4297.000000	65.297150 
4296.000000	65.296673 
4295.000000	65.297698 
4294.000000	65.297269 
4293.000000	65.292859 
4292.000000	65.283155 
4291.000000	65.268683 
4290.000000	65.251302 
4289.000000	65.233945 
4288.000000	65.219187 
4287.000000	65.208029 
4286.000000	65.199828 
4285.000000	65.192341 
4284.000000	65.182375 
4283.000000	65.166997 
4282.000000	65.144896 
4281.000000	65.117239 
4280.000000	65.087628 
4279.000000	65.061402 
4278.000000	65.044426 
4277.000000	65.041422 
4276.000000	65.054464 
4275.000000	65.082383 
4274.000000	65.120601 
4273.000000	65.162539 
4272.000000	65.201044 
4271.000000	65.230488 
4270.000000	65.248012 
4269.000000	65.254187 
4268.000000	65.252447 
4267.000000	65.247893 
4266.000000	65.245532 
4265.000000	65.248513 
4264.000000	65.257477 
4263.000000	65.269899 
4262.000000	65.281343 
4261.000000	65.286397 
4260.000000	65.281057 
4259.000000	65.263128 
4258.000000	65.233254 
4257.000000	65.194487 
4256.000000	65.151548 
4255.000000	65.109515 
4254.000000	65.072512 
4253.000000	65.043234 
4252.000000	65.022611 
4251.000000	65.010643 
4250.000000	65.006804 
4249.000000	65.010738 
4248.000000	65.022325 
4247.000000	65.041399 
4246.000000	65.067362 
4245.000000	65.098190 
4244.000000	65.130662 
4243.000000	65.160584 
4242.000000	65.183711 
4241.000000	65.196394 
4240.000000	65.196633 
4239.000000	65.184640 
4238.000000	65.162801 
4237.000000	65.135312 
4236.000000	65.107297 
4235.000000	65.083551 
4234.000000	65.067744 
4233.000000	65.061926 
4232.000000	65.066266 
4231.000000	65.079331 
4230.000000	65.098333 
4229.000000	65.120053 
4228.000000	65.141057 
4227.000000	65.158438 
4226.000000	65.169787 
4225.000000	65.173506 
4224.000000	65.168762 
4223.000000	65.155506 
4222.000000	65.134501 
4221.000000	65.107083 
4220.000000	65.074801 
4219.000000	65.039491 
4218.000000	65.002870 
4217.000000	64.967179 
4216.000000	64.934825 
4215.000000	64.909100 
4214.000000	64.893507 
4213.000000	64.891695 
4212.000000	64.906859 
4211.000000	64.940762 
4210.000000	64.992737 
4209.000000	65.059065 
4208.000000	65.133476 
4207.000000	65.207457 
4206.000000	65.271782 
4205.000000	65.317773 
4204.000000	65.338826 
4203.000000	65.332317 
4202.000000	65.300297 
4201.000000	65.248680 
4200.000000	65.185904 
4199.000000	65.121603 
4198.000000	65.064263 
4197.000000	65.019369 
4196.000000	64.988636 
4195.000000	64.970159 
4194.000000	64.959669 
4193.000000	64.952421 
4192.000000	64.944815 
4191.000000	64.935779 
4190.000000	64.926648 
4189.000000	64.920282 
4188.000000	64.919686 
4187.000000	64.925789 
4186.000000	64.937067 
4185.000000	64.948606 
4184.000000	64.954137 
4183.000000	64.946913 
4182.000000	64.923334 
4181.000000	64.883923 
4180.000000	64.834856 
4179.000000	64.786434 
4178.000000	64.751577 
4177.000000	64.742374 
4176.000000	64.767122 
4175.000000	64.827537 
4174.000000	64.918684 
4173.000000	65.029644 
4172.000000	65.146064 
4171.000000	65.253043 
4170.000000	65.338230 
4169.000000	65.394234 
4168.000000	65.419197 
4167.000000	65.416693 
4166.000000	65.394043 
4165.000000	65.359973 
4164.000000	65.323090 
4163.000000	65.289092 
4162.000000	65.260910 
4161.000000	65.237832 
4160.000000	65.217638 
4159.000000	65.197205 
