PE IR       SPECTRUM    SPECTRUM    ASCII       PEDS        1.60        
  -1
BZ6C22~1.ASC
17/04/07
13:34:21.00
17/04/07
13:34:21.00
tln
$BZ1503107-1_t0004$<tbV0>[5.2,-13.0,8.0,0.0,27,1,0]
370.000000
64









2002,4.07    
MIRTGS : RIGHTBACK : INTERNAL 2
MIR : ON : INTERNAL 2
OPTKBR

0.200000
8
8.000000
FILLER
RATIO
SPECTRUM
UNLOCKED 256

DOUBLE
64
COMBINED
1
0
0


1.000000
RATIO


1
0
TRUE
51149
0
LEFT NOT FITTED RIGHT NOT FITTED 0
NONE
NONE
15600
12.000000
4.427000
51148
TRUE
1 0 8 72 0 0 0 0 

15798.010000






#HDR
-1
-1
#GR
CM-1
%T
0.00002384185791015625
0.0
5000.000000
-1.000000
4631
8
76.967310
30.709195
#DATA
5000.000000	64.354038 
4999.000000	64.332175 
4998.000000	64.362335 
4997.000000	64.434933 
4996.000000	64.533305 
4995.000000	64.637947 
4994.000000	64.731407 
4993.000000	64.801740 
4992.000000	64.844560 
4991.000000	64.862012 
4990.000000	64.861297 
4989.000000	64.850950 
4988.000000	64.838337 
4987.000000	64.827513 
4986.000000	64.818358 
4985.000000	64.807271 
4984.000000	64.788651 
4983.000000	64.757394 
4982.000000	64.710092 
4981.000000	64.646935 
4980.000000	64.570784 
4979.000000	64.487075 
4978.000000	64.402174 
4977.000000	64.322781 
4976.000000	64.254021 
4975.000000	64.199447 
4974.000000	64.160871 
4973.000000	64.138960 
4972.000000	64.132690 
4971.000000	64.140677 
4970.000000	64.161157 
4969.000000	64.192485 
4968.000000	64.231920 
4967.000000	64.276981 
4966.000000	64.324903 
4965.000000	64.372730 
4964.000000	64.417386 
4963.000000	64.455580 
4962.000000	64.483928 
4961.000000	64.499354 
4960.000000	64.500093 
4959.000000	64.485478 
4958.000000	64.456558 
4957.000000	64.416384 
4956.000000	64.369964 
4955.000000	64.324378 
4954.000000	64.287781 
4953.000000	64.269089 
4952.000000	64.276194 
4951.000000	64.314317 
4950.000000	64.384770 
4949.000000	64.483976 
4948.000000	64.604353 
4947.000000	64.734792 
4946.000000	64.863729 
4945.000000	64.979529 
4944.000000	65.074300 
4943.000000	65.145444 
4942.000000	65.195274 
4941.000000	65.229344 
4940.000000	65.254402 
4939.000000	65.277004 
4938.000000	65.300202 
4937.000000	65.323686 
4936.000000	65.343117 
4935.000000	65.352368 
4934.000000	65.345740 
4933.000000	65.321111 
4932.000000	65.280055 
4931.000000	65.228176 
4930.000000	65.172743 
4929.000000	65.120601 
4928.000000	65.075206 
4927.000000	65.035820 
4926.000000	64.996647 
4925.000000	64.949607 
4924.000000	64.887619 
4923.000000	64.809060 
4922.000000	64.718508 
4921.000000	64.628982 
4920.000000	64.558529 
4919.000000	64.527773 
4918.000000	64.555597 
4917.000000	64.653277 
4916.000000	64.819669 
4915.000000	65.040731 
4914.000000	65.293073 
4913.000000	65.545558 
4912.000000	65.765857 
4911.000000	65.925359 
4910.000000	66.005110 
4909.000000	65.997982 
4908.000000	65.909481 
4907.000000	65.755963 
4906.000000	65.560936 
4905.000000	65.351343 
4904.000000	65.153408 
4903.000000	64.989805 
4902.000000	64.877629 
4901.000000	64.828658 
4900.000000	64.849281 
4899.000000	64.940667 
4898.000000	65.098047 
4897.000000	65.312027 
4896.000000	65.566205 
4895.000000	65.837955 
4894.000000	66.097974 
4893.000000	66.312885 
4892.000000	66.449666 
4891.000000	66.481041 
4890.000000	66.391730 
4889.000000	66.182279 
4888.000000	65.871620 
4887.000000	65.495634 
4886.000000	65.101170 
4885.000000	64.739155 
4884.000000	64.453530 
4883.000000	64.275026 
4882.000000	64.213490 
4881.000000	64.257717 
4880.000000	64.379668 
4879.000000	64.542198 
4878.000000	64.708971 
4877.000000	64.851927 
4876.000000	64.959764 
4875.000000	65.037369 
4874.000000	65.103411 
4873.000000	65.181303 
4872.000000	65.289473 
4871.000000	65.432715 
4870.000000	65.600395 
4869.000000	65.766501 
4868.000000	65.897178 
4867.000000	65.958857 
4866.000000	65.929722 
4865.000000	65.804791 
4864.000000	65.599441 
4863.000000	65.344691 
4862.000000	65.079498 
4861.000000	64.841556 
4860.000000	64.658761 
4859.000000	64.544081 
4858.000000	64.494943 
4857.000000	64.496231 
4856.000000	64.527082 
4855.000000	64.567494 
4854.000000	64.604735 
4853.000000	64.634156 
4852.000000	64.657354 
4851.000000	64.680337 
4850.000000	64.708375 
4849.000000	64.745211 
4848.000000	64.790678 
4847.000000	64.842867 
4846.000000	64.898490 
4845.000000	64.955711 
4844.000000	65.014243 
4843.000000	65.075039 
4842.000000	65.138745 
4841.000000	65.204620 
4840.000000	65.269541 
4839.000000	65.326929 
4838.000000	65.369105 
4837.000000	65.389394 
4836.000000	65.384721 
4835.000000	65.358090 
4834.000000	65.317368 
4833.000000	65.274000 
4832.000000	65.239739 
4831.000000	65.225005 
4830.000000	65.233778 
4829.000000	65.262389 
4828.000000	65.300416 
4827.000000	65.333962 
4826.000000	65.349054 
4825.000000	65.335750 
4824.000000	65.291619 
4823.000000	65.222668 
4822.000000	65.144157 
4821.000000	65.076470 
4820.000000	65.040612 
4819.000000	65.051698 
4818.000000	65.114736 
4817.000000	65.221643 
4816.000000	65.351963 
4815.000000	65.477323 
4814.000000	65.567779 
4813.000000	65.600538 
4812.000000	65.563559 
4811.000000	65.462613 
4810.000000	65.319991 
4809.000000	65.170884 
4808.000000	65.054249 
4807.000000	65.003585 
4806.000000	65.039706 
4805.000000	65.163683 
4804.000000	65.357851 
4803.000000	65.588235 
4802.000000	65.814065 
4801.000000	65.995860 
4800.000000	66.104960 
4799.000000	66.128921 
4798.000000	66.072940 
4797.000000	65.957164 
4796.000000	65.810012 
4795.000000	65.661787 
4794.000000	65.537214 
4793.000000	65.452504 
4792.000000	65.412569 
4791.000000	65.412545 
4790.000000	65.439319 
4789.000000	65.477418 
4788.000000	65.510845 
4787.000000	65.524816 
4786.000000	65.508198 
4785.000000	65.452361 
4784.000000	65.354800 
4783.000000	65.218591 
4782.000000	65.053939 
4781.000000	64.876341 
4780.000000	64.704608 
4779.000000	64.558815 
4778.000000	64.454436 
4777.000000	64.400339 
4776.000000	64.394664 
4775.000000	64.425349 
4774.000000	64.472842 
4773.000000	64.514088 
4772.000000	64.529705 
4771.000000	64.508247 
4770.000000	64.450550 
4769.000000	64.368462 
4768.000000	64.285111 
4767.000000	64.228463 
4766.000000	64.224720 
4765.000000	64.290976 
4764.000000	64.430713 
4763.000000	64.631700 
4762.000000	64.869713 
4761.000000	65.112686 
4760.000000	65.327978 
4759.000000	65.488481 
4758.000000	65.578174 
4757.000000	65.593695 
4756.000000	65.543198 
4755.000000	65.443253 
4754.000000	65.313720 
4753.000000	65.173935 
4752.000000	65.039944 
4751.000000	64.922332 
4750.000000	64.828753 
4749.000000	64.762139 
4748.000000	64.723873 
4747.000000	64.712691 
4746.000000	64.727187 
4745.000000	64.762592 
4744.000000	64.810657 
4743.000000	64.860486 
4742.000000	64.899539 
4741.000000	64.917778 
4740.000000	64.909911 
4739.000000	64.877200 
4738.000000	64.827132 
4737.000000	64.771580 
4736.000000	64.723205 
4735.000000	64.691996 
4734.000000	64.681959 
4733.000000	64.690876 
4732.000000	64.709973 
4731.000000	64.727473 
4730.000000	64.730381 
4729.000000	64.708900 
4728.000000	64.657926 
4727.000000	64.576721 
4726.000000	64.470601 
4725.000000	64.348316 
4724.000000	64.222908 
4723.000000	64.107728 
4722.000000	64.017152 
4721.000000	63.963747 
4720.000000	63.956904 
4719.000000	64.002394 
4718.000000	64.098095 
4717.000000	64.233756 
4716.000000	64.391231 
4715.000000	64.547252 
4714.000000	64.678072 
4713.000000	64.764022 
4712.000000	64.794588 
4711.000000	64.770126 
4710.000000	64.701724 
4709.000000	64.607715 
4708.000000	64.509296 
4707.000000	64.425015 
4706.000000	64.367246 
4705.000000	64.339447 
4704.000000	64.337897 
4703.000000	64.353060 
4702.000000	64.373826 
4701.000000	64.390587 
4700.000000	64.397788 
4699.000000	64.395284 
4698.000000	64.386272 
4697.000000	64.377260 
4696.000000	64.373564 
4695.000000	64.380240 
4694.000000	64.399647 
4693.000000	64.432644 
4692.000000	64.479112 
4691.000000	64.537572 
4690.000000	64.605450 
4689.000000	64.679169 
4688.000000	64.754247 
4687.000000	64.825606 
4686.000000	64.888143 
4685.000000	64.937186 
4684.000000	64.969158 
4683.000000	64.982414 
4682.000000	64.977312 
4681.000000	64.956140 
4680.000000	64.922142 
4679.000000	64.879059 
4678.000000	64.830255 
4677.000000	64.779281 
4676.000000	64.729213 
4675.000000	64.682388 
4674.000000	64.640665 
4673.000000	64.606380 
4672.000000	64.581394 
4671.000000	64.566874 
4670.000000	64.563131 
4669.000000	64.568424 
4668.000000	64.580440 
4667.000000	64.596581 
4666.000000	64.614391 
4665.000000	64.632010 
4664.000000	64.648175 
4663.000000	64.662313 
4662.000000	64.673709 
4661.000000	64.681100 
4660.000000	64.682960 
4659.000000	64.677882 
4658.000000	64.664626 
4657.000000	64.643311 
4656.000000	64.616346 
4655.000000	64.588761 
4654.000000	64.567494 
4653.000000	64.560747 
4652.000000	64.576458 
4651.000000	64.620351 
4650.000000	64.694523 
4649.000000	64.795827 
4648.000000	64.916253 
4647.000000	65.043258 
4646.000000	65.162372 
4645.000000	65.258812 
4644.000000	65.320062 
4643.000000	65.338110 
4642.000000	65.311169 
4641.000000	65.243840 
4640.000000	65.146446 
4639.000000	65.033006 
4638.000000	64.918994 
4637.000000	64.818024 
4636.000000	64.740133 
4635.000000	64.689683 
4634.000000	64.665794 
4633.000000	64.662957 
4632.000000	64.673256 
4631.000000	64.688134 
4630.000000	64.700722 
4629.000000	64.706945 
4628.000000	64.706420 
4627.000000	64.700961 
4626.000000	64.694094 
4625.000000	64.689159 
4624.000000	64.688611 
4623.000000	64.693307 
4622.000000	64.702606 
4621.000000	64.715361 
4620.000000	64.729738 
4619.000000	64.745140 
4618.000000	64.760875 
4617.000000	64.776563 
4616.000000	64.791131 
4615.000000	64.802408 
4614.000000	64.807701 
4613.000000	64.804220 
4612.000000	64.789891 
4611.000000	64.764308 
4610.000000	64.729142 
4609.000000	64.688372 
4608.000000	64.647102 
4607.000000	64.610671 
4606.000000	64.582467 
4605.000000	64.563250 
4604.000000	64.550805 
4603.000000	64.540982 
4602.000000	64.529109 
4601.000000	64.511942 
4600.000000	64.488863 
4599.000000	64.462494 
4598.000000	64.437913 
4597.000000	64.421772 
4596.000000	64.419341 
4595.000000	64.434313 
4594.000000	64.467525 
4593.000000	64.517140 
4592.000000	64.579033 
4591.000000	64.647555 
4590.000000	64.717006 
4589.000000	64.781689 
4588.000000	64.837121 
4587.000000	64.879631 
4586.000000	64.906859 
4585.000000	64.917349 
4584.000000	64.910769 
4583.000000	64.887595 
4582.000000	64.849209 
4581.000000	64.797878 
4580.000000	64.737033 
4579.000000	64.670562 
4578.000000	64.602708 
4577.000000	64.537858 
4576.000000	64.480113 
4575.000000	64.433121 
4574.000000	64.399647 
4573.000000	64.381456 
4572.000000	64.378523 
4571.000000	64.388561 
4570.000000	64.407110 
4569.000000	64.427423 
4568.000000	64.442324 
4567.000000	64.445185 
4566.000000	64.431929 
4565.000000	64.401721 
4564.000000	64.357519 
4563.000000	64.304947 
4562.000000	64.251732 
4561.000000	64.205193 
4560.000000	64.171528 
4559.000000	64.154601 
4558.000000	64.155340 
4557.000000	64.172077 
4556.000000	64.200901 
4555.000000	64.236640 
4554.000000	64.273858 
4553.000000	64.307665 
4552.000000	64.334726 
4551.000000	64.353394 
4550.000000	64.363789 
4549.000000	64.367175 
4548.000000	64.364957 
4547.000000	64.358186 
4546.000000	64.347720 
4545.000000	64.334201 
4544.000000	64.317774 
4543.000000	64.298367 
4542.000000	64.277052 
4541.000000	64.255380 
4540.000000	64.234757 
4539.000000	64.216399 
4538.000000	64.200949 
4537.000000	64.188671 
4536.000000	64.178967 
4535.000000	64.171600 
4534.000000	64.166378 
4533.000000	64.164280 
4532.000000	64.167261 
4531.000000	64.177775 
4530.000000	64.198470 
4529.000000	64.229822 
4528.000000	64.269304 
4527.000000	64.311408 
4526.000000	64.348459 
4525.000000	64.372754 
4524.000000	64.378523 
4523.000000	64.364695 
4522.000000	64.336013 
4521.000000	64.300751 
4520.000000	64.269685 
4519.000000	64.253211 
4518.000000	64.259862 
4517.000000	64.295291 
4516.000000	64.360690 
4515.000000	64.455485 
4514.000000	64.574456 
4513.000000	64.705157 
4512.000000	64.831876 
4511.000000	64.938545 
4510.000000	65.012574 
4509.000000	65.047597 
4508.000000	65.045189 
4507.000000	65.014028 
4506.000000	64.967656 
4505.000000	64.921879 
4504.000000	64.889478 
4503.000000	64.875745 
4502.000000	64.881777 
4501.000000	64.905953 
4500.000000	64.946269 
4499.000000	65.001749 
4498.000000	65.077328 
4497.000000	65.182733 
4496.000000	65.325117 
4495.000000	65.505194 
4494.000000	65.711283 
4493.000000	65.923929 
4492.000000	66.110849 
4491.000000	66.245722 
4490.000000	66.325259 
4489.000000	66.372895 
4488.000000	66.442894 
4487.000000	66.597867 
4486.000000	66.885638 
4485.000000	67.319488 
4484.000000	67.878556 
4483.000000	68.496203 
4482.000000	69.072222 
4481.000000	69.495034 
4480.000000	69.679403 
4479.000000	69.575500 
4478.000000	69.189143 
4477.000000	68.569302 
4476.000000	67.797017 
4475.000000	66.963553 
4474.000000	66.151452 
4473.000000	65.419769 
4472.000000	64.797067 
4471.000000	64.289689 
4470.000000	63.887786 
4469.000000	63.566517 
4468.000000	63.291978 
4467.000000	63.006329 
4466.000000	62.648510 
4465.000000	62.139201 
4464.000000	61.435437 
4463.000000	60.542488 
4462.000000	59.560704 
4461.000000	58.668112 
4460.000000	58.111357 
4459.000000	58.153796 
4458.000000	59.004068 
4457.000000	60.754823 
4456.000000	63.329768 
4455.000000	66.483592 
4454.000000	69.828605 
4453.000000	72.912406 
4452.000000	75.306749 
4451.000000	76.702308 
4450.000000	76.967310 
4449.000000	76.174283 
4448.000000	74.562883 
4447.000000	72.477054 
4446.000000	70.280814 
4445.000000	68.282651 
4444.000000	66.680884 
4443.000000	65.545868 
4442.000000	64.844107 
4441.000000	64.477896 
4440.000000	64.322066 
4439.000000	64.269399 
4438.000000	64.243507 
4437.000000	64.218759 
4436.000000	64.194059 
4435.000000	64.195537 
4434.000000	64.235520 
4433.000000	64.322090 
4432.000000	64.445996 
4431.000000	64.590883 
4430.000000	64.741802 
4429.000000	64.886188 
4428.000000	65.020847 
4427.000000	65.146040 
4426.000000	65.259909 
4425.000000	65.359807 
4424.000000	65.442276 
4423.000000	65.501117 
4422.000000	65.527009 
4421.000000	65.515375 
4420.000000	65.472626 
4419.000000	65.406584 
4418.000000	65.325069 
4417.000000	65.235853 
4416.000000	65.144586 
4415.000000	65.058732 
4414.000000	64.986753 
4413.000000	64.928317 
4412.000000	64.875888 
4411.000000	64.822840 
4410.000000	64.763808 
4409.000000	64.693856 
4408.000000	64.611124 
4407.000000	64.516425 
4406.000000	64.414834 
4405.000000	64.313530 
4404.000000	64.222645 
4403.000000	64.151000 
4402.000000	64.107298 
4401.000000	64.097380 
4400.000000	64.124798 
4399.000000	64.188599 
4398.000000	64.285230 
4397.000000	64.408802 
4396.000000	64.551424 
4395.000000	64.703059 
4394.000000	64.852809 
4393.000000	64.989542 
4392.000000	65.102815 
4391.000000	65.183949 
4390.000000	65.227437 
4389.000000	65.231752 
4388.000000	65.200424 
4387.000000	65.141415 
4386.000000	65.065264 
4385.000000	64.982843 
4384.000000	64.904499 
4383.000000	64.837360 
4382.000000	64.784574 
4381.000000	64.745116 
4380.000000	64.715409 
4379.000000	64.690685 
4378.000000	64.666390 
4377.000000	64.639830 
4376.000000	64.610791 
4375.000000	64.581704 
4374.000000	64.555907 
4373.000000	64.536905 
4372.000000	64.526820 
4371.000000	64.525580 
4370.000000	64.530277 
4369.000000	64.536499 
4368.000000	64.538979 
4367.000000	64.534330 
4366.000000	64.522027 
4365.000000	64.505052 
4364.000000	64.488720 
4363.000000	64.479684 
4362.000000	64.483928 
4361.000000	64.504408 
4360.000000	64.539933 
4359.000000	64.585638 
4358.000000	64.633941 
4357.000000	64.676713 
4356.000000	64.707279 
4355.000000	64.721751 
4354.000000	64.720344 
4353.000000	64.706921 
4352.000000	64.688396 
4351.000000	64.672493 
4350.000000	64.666199 
4349.000000	64.674639 
4348.000000	64.699149 
4347.000000	64.737558 
4346.000000	64.784073 
4345.000000	64.831542 
4344.000000	64.872026 
4343.000000	64.898514 
4342.000000	64.906239 
4341.000000	64.893770 
4340.000000	64.863061 
4339.000000	64.818739 
4338.000000	64.767670 
4337.000000	64.717364 
4336.000000	64.675021 
4335.000000	64.646315 
4334.000000	64.634680 
4333.000000	64.641022 
4332.000000	64.664030 
4331.000000	64.700412 
4330.000000	64.745473 
4329.000000	64.793658 
4328.000000	64.838862 
4327.000000	64.875388 
4326.000000	64.897894 
4325.000000	64.903092 
4324.000000	64.890193 
4323.000000	64.861941 
4322.000000	64.823698 
4321.000000	64.783358 
4320.000000	64.750027 
4319.000000	64.732027 
4318.000000	64.735698 
4317.000000	64.763283 
4316.000000	64.812850 
4315.000000	64.878177 
4314.000000	64.950275 
4313.000000	65.019249 
4312.000000	65.076518 
4311.000000	65.116167 
4310.000000	65.135622 
4309.000000	65.135765 
4308.000000	65.120172 
4307.000000	65.093684 
4306.000000	65.061235 
4305.000000	65.027403 
4304.000000	64.995574 
4303.000000	64.968419 
4302.000000	64.947342 
4301.000000	64.932966 
4300.000000	64.924883 
4299.000000	64.921689 
4298.000000	64.921593 
4297.000000	64.922380 
4296.000000	64.922761 
4295.000000	64.921593 
4294.000000	64.919328 
4293.000000	64.917683 
4292.000000	64.919400 
4291.000000	64.927363 
4290.000000	64.943647 
4289.000000	64.968657 
4288.000000	65.000534 
4287.000000	65.035438 
4286.000000	65.067911 
4285.000000	65.092182 
4284.000000	65.103220 
4283.000000	65.098023 
4282.000000	65.075731 
4281.000000	65.037918 
4280.000000	64.987683 
4279.000000	64.929032 
4278.000000	64.866185 
4277.000000	64.802956 
4276.000000	64.742875 
4275.000000	64.688682 
4274.000000	64.642763 
4273.000000	64.606881 
4272.000000	64.582490 
4271.000000	64.570546 
4270.000000	64.570760 
4269.000000	64.581894 
4268.000000	64.601206 
4267.000000	64.625406 
4266.000000	64.650511 
4265.000000	64.673113 
4264.000000	64.690637 
4263.000000	64.702463 
4262.000000	64.709448 
4261.000000	64.714050 
4260.000000	64.719271 
4259.000000	64.728355 
4258.000000	64.743661 
4257.000000	64.766240 
4256.000000	64.795708 
4255.000000	64.830374 
4254.000000	64.867901 
4253.000000	64.905714 
4252.000000	64.941620 
4251.000000	64.973902 
4250.000000	65.001606 
4249.000000	65.024352 
4248.000000	65.042400 
4247.000000	65.056133 
4246.000000	65.066123 
4245.000000	65.073132 
4244.000000	65.078210 
4243.000000	65.082764 
4242.000000	65.088033 
4241.000000	65.095639 
4240.000000	65.106606 
4239.000000	65.121507 
4238.000000	65.139770 
4237.000000	65.160250 
4236.000000	65.180850 
4235.000000	65.199375 
4234.000000	65.213608 
4233.000000	65.221834 
4232.000000	65.222883 
4231.000000	65.216350 
4230.000000	65.202569 
4229.000000	65.182423 
4228.000000	65.158057 
4227.000000	65.132451 
4226.000000	65.109157 
4225.000000	65.091562 
4224.000000	65.082406 
4223.000000	65.082931 
4222.000000	65.092253 
4221.000000	65.107488 
4220.000000	65.124487 
4219.000000	65.138697 
4218.000000	65.146136 
4217.000000	65.144562 
4216.000000	65.134167 
4215.000000	65.117478 
4214.000000	65.098524 
4213.000000	65.082049 
4212.000000	65.071964 
4211.000000	65.070652 
4210.000000	65.078496 
4209.000000	65.093970 
4208.000000	65.114521 
4207.000000	65.136957 
4206.000000	65.158867 
4205.000000	65.177726 
4204.000000	65.191340 
4203.000000	65.197515 
4202.000000	65.194368 
4201.000000	65.180754 
4200.000000	65.156579 
4199.000000	65.123438 
4198.000000	65.084505 
4197.000000	65.044355 
4196.000000	65.008139 
4195.000000	64.980363 
4194.000000	64.963841 
4193.000000	64.959049 
4192.000000	64.964199 
4191.000000	64.975428 
4190.000000	64.988303 
4189.000000	64.999127 
4188.000000	65.005826 
4187.000000	65.008020 
4186.000000	65.007424 
4185.000000	65.006160 
4184.000000	65.007328 
4183.000000	65.012478 
4182.000000	65.023374 
4181.000000	65.041160 
4180.000000	65.067172 
4179.000000	65.102934 
4178.000000	65.149354 
4177.000000	65.206313 
4176.000000	65.271377 
4175.000000	65.339636 
4174.000000	65.403604 
4173.000000	65.454435 
4172.000000	65.483522 
4171.000000	65.484547 
4170.000000	65.455245 
4169.000000	65.398097 
4168.000000	65.320467 
4167.000000	65.232944 
4166.000000	65.147089 
4165.000000	65.072560 
4164.000000	65.015959 
4163.000000	64.979195 
4162.000000	64.960098 
4161.000000	64.953112 
4160.000000	64.951920 
4159.000000	64.950585 
