PE IR       SPECTRUM    SPECTRUM    ASCII       PEDS        1.60        
  -1
BZCB7C~1.ASC
17/04/07
22:05:09.00
17/04/07
22:05:09.00
tln
$BZ1503107-1_t0108$<tbV0>[-7.8,10.4,8.0,0.0,27,1,0]
370.000000
64









2002,4.07    
MIRTGS : RIGHTBACK : INTERNAL 2
MIR : ON : INTERNAL 2
OPTKBR

0.200000
8
8.000000
FILLER
RATIO
SPECTRUM
UNLOCKED 256

DOUBLE
64
COMBINED
1
0
0


1.000000
RATIO


1
0
TRUE
51149
0
LEFT NOT FITTED RIGHT NOT FITTED 0
NONE
NONE
15600
12.000000
4.427000
51148
TRUE
1 0 8 72 0 0 0 0 

15798.010000






#HDR
-1
-1
#GR
CM-1
%T
0.00002384185791015625
0.0
5000.000000
-1.000000
4631
8
86.952853
38.312816
#DATA
5000.000000	66.854143 
4999.000000	67.035031 
4998.000000	67.099118 
4997.000000	67.036104 
4996.000000	66.847443 
4995.000000	66.546821 
4994.000000	66.159391 
4993.000000	65.721702 
4992.000000	65.275764 
4991.000000	64.866352 
4990.000000	64.531397 
4989.000000	64.299201 
4988.000000	64.179635 
4987.000000	64.164328 
4986.000000	64.227628 
4985.000000	64.332890 
4984.000000	64.440131 
4983.000000	64.514470 
4982.000000	64.534282 
4981.000000	64.494109 
4980.000000	64.402914 
4979.000000	64.279365 
4978.000000	64.144396 
4977.000000	64.015221 
4976.000000	63.900303 
4975.000000	63.800120 
4974.000000	63.707470 
4973.000000	63.615393 
4972.000000	63.524079 
4971.000000	63.443374 
4970.000000	63.391661 
4969.000000	63.391351 
4968.000000	63.461303 
4967.000000	63.609766 
4966.000000	63.826680 
4965.000000	64.087104 
4964.000000	64.353084 
4963.000000	64.587044 
4962.000000	64.759373 
4961.000000	64.859652 
4960.000000	64.897656 
4959.000000	64.905214 
4958.000000	64.926815 
4957.000000	65.009522 
4956.000000	65.188479 
4955.000000	65.478801 
4954.000000	65.867757 
4953.000000	66.315579 
4952.000000	66.761207 
4951.000000	67.135548 
4950.000000	67.375636 
4949.000000	67.438817 
4948.000000	67.312741 
4947.000000	67.017889 
4946.000000	66.603827 
4945.000000	66.138052 
4944.000000	65.691637 
4943.000000	65.327525 
4942.000000	65.085864 
4941.000000	64.981579 
4940.000000	65.000939 
4939.000000	65.112304 
4938.000000	65.271258 
4937.000000	65.432977 
4936.000000	65.561103 
4935.000000	65.632271 
4934.000000	65.641498 
4933.000000	65.598344 
4932.000000	65.522670 
4931.000000	65.435528 
4930.000000	65.355753 
4929.000000	65.294647 
4928.000000	65.254735 
4927.000000	65.230536 
4926.000000	65.213584 
4925.000000	65.195012 
4924.000000	65.169000 
4923.000000	65.133380 
4922.000000	65.088129 
4921.000000	65.035843 
4920.000000	64.975666 
4919.000000	64.908552 
4918.000000	64.836740 
4917.000000	64.767432 
4916.000000	64.711999 
4915.000000	64.685487 
4914.000000	64.703297 
4913.000000	64.776706 
4912.000000	64.910054 
4911.000000	65.095877 
4910.000000	65.313625 
4909.000000	65.533852 
4908.000000	65.723896 
4907.000000	65.854883 
4906.000000	65.908432 
4905.000000	65.880870 
4904.000000	65.783691 
4903.000000	65.640735 
4902.000000	65.481972 
4901.000000	65.336418 
4900.000000	65.225481 
4899.000000	65.159368 
4898.000000	65.135598 
4897.000000	65.143227 
4896.000000	65.165925 
4895.000000	65.187025 
4894.000000	65.193772 
4893.000000	65.178751 
4892.000000	65.142297 
4891.000000	65.089511 
4890.000000	65.030074 
4889.000000	64.973306 
4888.000000	64.927530 
4887.000000	64.897084 
4886.000000	64.883017 
4885.000000	64.883351 
4884.000000	64.894676 
4883.000000	64.913845 
4882.000000	64.938402 
4881.000000	64.966940 
4880.000000	64.999008 
4879.000000	65.034532 
4878.000000	65.072584 
4877.000000	65.110635 
4876.000000	65.145754 
4875.000000	65.174746 
4874.000000	65.195226 
4873.000000	65.205931 
4872.000000	65.206789 
4871.000000	65.198588 
4870.000000	65.183210 
4869.000000	65.162754 
4868.000000	65.138053 
4867.000000	65.109205 
4866.000000	65.076184 
4865.000000	65.039229 
4864.000000	64.999818 
4863.000000	64.960813 
4862.000000	64.926505 
4861.000000	64.901304 
4860.000000	64.888858 
4859.000000	64.890384 
4858.000000	64.904212 
4857.000000	64.925050 
4856.000000	64.944672 
4855.000000	64.954018 
4854.000000	64.945411 
4853.000000	64.914989 
4852.000000	64.864015 
4851.000000	64.799547 
4850.000000	64.732623 
4849.000000	64.676952 
4848.000000	64.645290 
4847.000000	64.646983 
4846.000000	64.685559 
4845.000000	64.758062 
4844.000000	64.855599 
4843.000000	64.965248 
4842.000000	65.072655 
4841.000000	65.164780 
4840.000000	65.232396 
4839.000000	65.271043 
4838.000000	65.281438 
4837.000000	65.268135 
4836.000000	65.238642 
4835.000000	65.201568 
4834.000000	65.165090 
4833.000000	65.136480 
4832.000000	65.120601 
4831.000000	65.120744 
4830.000000	65.137052 
4829.000000	65.167403 
4828.000000	65.207409 
4827.000000	65.251135 
4826.000000	65.292906 
4825.000000	65.328049 
4824.000000	65.354228 
4823.000000	65.371561 
4822.000000	65.382218 
4821.000000	65.389537 
4820.000000	65.396928 
4819.000000	65.406560 
4818.000000	65.418791 
4817.000000	65.431880 
4816.000000	65.443062 
4815.000000	65.449404 
4814.000000	65.448927 
4813.000000	65.441060 
4812.000000	65.427112 
4811.000000	65.409636 
4810.000000	65.391731 
4809.000000	65.375685 
4808.000000	65.362477 
4807.000000	65.351414 
4806.000000	65.340781 
4805.000000	65.328311 
4804.000000	65.312290 
4803.000000	65.291523 
4802.000000	65.265727 
4801.000000	65.235757 
4800.000000	65.203022 
4799.000000	65.170264 
4798.000000	65.140891 
4797.000000	65.119099 
4796.000000	65.108895 
4795.000000	65.113902 
4794.000000	65.136361 
4793.000000	65.176033 
4792.000000	65.229916 
4791.000000	65.292620 
4790.000000	65.357589 
4789.000000	65.417551 
4788.000000	65.466666 
4787.000000	65.501928 
4786.000000	65.523886 
4785.000000	65.536212 
4784.000000	65.544795 
4783.000000	65.555977 
4782.000000	65.574836 
4781.000000	65.603947 
4780.000000	65.642333 
4779.000000	65.686202 
4778.000000	65.729737 
4777.000000	65.767216 
4776.000000	65.793895 
4775.000000	65.807437 
4774.000000	65.807867 
4773.000000	65.797567 
4772.000000	65.779924 
4771.000000	65.758228 
4770.000000	65.734839 
4769.000000	65.710687 
4768.000000	65.685224 
4767.000000	65.656876 
4766.000000	65.623831 
4765.000000	65.584635 
4764.000000	65.538620 
4763.000000	65.486168 
4762.000000	65.428423 
4761.000000	65.367436 
4760.000000	65.305972 
4759.000000	65.247726 
4758.000000	65.196371 
4757.000000	65.155887 
4756.000000	65.129804 
4755.000000	65.120744 
4754.000000	65.129303 
4753.000000	65.154051 
4752.000000	65.190911 
4751.000000	65.234279 
4750.000000	65.277123 
4749.000000	65.313386 
4748.000000	65.338826 
4747.000000	65.352058 
4746.000000	65.354561 
4745.000000	65.350103 
4744.000000	65.343379 
4743.000000	65.338540 
4742.000000	65.337753 
4741.000000	65.340733 
4740.000000	65.344905 
4739.000000	65.346765 
4738.000000	65.343165 
4737.000000	65.332031 
4736.000000	65.313291 
4735.000000	65.289092 
4734.000000	65.263700 
4733.000000	65.241861 
4732.000000	65.228343 
4731.000000	65.226387 
4730.000000	65.237522 
4729.000000	65.260791 
4728.000000	65.293312 
4727.000000	65.331530 
4726.000000	65.371394 
4725.000000	65.409469 
4724.000000	65.442848 
4723.000000	65.469765 
4722.000000	65.488767 
4721.000000	65.498590 
4720.000000	65.498065 
4719.000000	65.486216 
4718.000000	65.462827 
4717.000000	65.428900 
4716.000000	65.387296 
4715.000000	65.342903 
4714.000000	65.302348 
4713.000000	65.272903 
4712.000000	65.261197 
4711.000000	65.271449 
4710.000000	65.303969 
4709.000000	65.354800 
4708.000000	65.415978 
4707.000000	65.477466 
4706.000000	65.529704 
4705.000000	65.565562 
4704.000000	65.581989 
4703.000000	65.579748 
4702.000000	65.562796 
4701.000000	65.536665 
4700.000000	65.506505 
4699.000000	65.476131 
4698.000000	65.447688 
4697.000000	65.421867 
4696.000000	65.398907 
4695.000000	65.379285 
4694.000000	65.364551 
4693.000000	65.357041 
4692.000000	65.359354 
4691.000000	65.373945 
4690.000000	65.401911 
4689.000000	65.442681 
4688.000000	65.493583 
4687.000000	65.550684 
4686.000000	65.609121 
4685.000000	65.664029 
4684.000000	65.710830 
4683.000000	65.745282 
4682.000000	65.763759 
4681.000000	65.763306 
4680.000000	65.742516 
4679.000000	65.702199 
4678.000000	65.645742 
4677.000000	65.579390 
4676.000000	65.510892 
4675.000000	65.448927 
4674.000000	65.400838 
4673.000000	65.370893 
4672.000000	65.359854 
4671.000000	65.365171 
4670.000000	65.381884 
4669.000000	65.403890 
4668.000000	65.425896 
4667.000000	65.444159 
4666.000000	65.457725 
4665.000000	65.467691 
4664.000000	65.476608 
4663.000000	65.486907 
4662.000000	65.500068 
4661.000000	65.515947 
4660.000000	65.532875 
4659.000000	65.548110 
4658.000000	65.558981 
4657.000000	65.563631 
4656.000000	65.561366 
4655.000000	65.552711 
4654.000000	65.538859 
4653.000000	65.521287 
4652.000000	65.501570 
4651.000000	65.480756 
4650.000000	65.459442 
4649.000000	65.437483 
4648.000000	65.414452 
4647.000000	65.389728 
4646.000000	65.362834 
4645.000000	65.333867 
4644.000000	65.303540 
4643.000000	65.273594 
4642.000000	65.246295 
4641.000000	65.224599 
4640.000000	65.211367 
4639.000000	65.209054 
4638.000000	65.218830 
4637.000000	65.240764 
4636.000000	65.273618 
4635.000000	65.314912 
4634.000000	65.361237 
4633.000000	65.409040 
4632.000000	65.455126 
4631.000000	65.497159 
4630.000000	65.533638 
4629.000000	65.563845 
4628.000000	65.587282 
4627.000000	65.603923 
4626.000000	65.613365 
4625.000000	65.615177 
4624.000000	65.608429 
4623.000000	65.592956 
4622.000000	65.568852 
4621.000000	65.537261 
4620.000000	65.499639 
4619.000000	65.458464 
4618.000000	65.415787 
4617.000000	65.373754 
4616.000000	65.333604 
4615.000000	65.295648 
4614.000000	65.259528 
4613.000000	65.224814 
4612.000000	65.191054 
4611.000000	65.158152 
4610.000000	65.126681 
4609.000000	65.097451 
4608.000000	65.071725 
4607.000000	65.050673 
4606.000000	65.035510 
4605.000000	65.027260 
4604.000000	65.026974 
4603.000000	65.035247 
4602.000000	65.052676 
4601.000000	65.079426 
4600.000000	65.114855 
4599.000000	65.157175 
4598.000000	65.203404 
4597.000000	65.249300 
4596.000000	65.289878 
4595.000000	65.319752 
4594.000000	65.335130 
4593.000000	65.333509 
4592.000000	65.314722 
4591.000000	65.280103 
4590.000000	65.232825 
4589.000000	65.176630 
4588.000000	65.115332 
4587.000000	65.052890 
4586.000000	64.993214 
4585.000000	64.940094 
4584.000000	64.897227 
4583.000000	64.867877 
4582.000000	64.854335 
4581.000000	64.857482 
4580.000000	64.876341 
4579.000000	64.908218 
4578.000000	64.948868 
4577.000000	64.993548 
4576.000000	65.037655 
4575.000000	65.077567 
4574.000000	65.110445 
4573.000000	65.135192 
4572.000000	65.150976 
4571.000000	65.156745 
4570.000000	65.150070 
4569.000000	65.128111 
4568.000000	65.087366 
4567.000000	65.025877 
4566.000000	64.942932 
4565.000000	64.841556 
4564.000000	64.727044 
4563.000000	64.606547 
4562.000000	64.487648 
4561.000000	64.376878 
4560.000000	64.279294 
4559.000000	64.197659 
4558.000000	64.133262 
4557.000000	64.085769 
4556.000000	64.054584 
4555.000000	64.038801 
4554.000000	64.037847 
4553.000000	64.050984 
4552.000000	64.077973 
4551.000000	64.118242 
4550.000000	64.171075 
4549.000000	64.235067 
4548.000000	64.308452 
4547.000000	64.388823 
4546.000000	64.473223 
4545.000000	64.558291 
4544.000000	64.640450 
4543.000000	64.716315 
4542.000000	64.782643 
4541.000000	64.836812 
4540.000000	64.877700 
4539.000000	64.905071 
4538.000000	64.921021 
4537.000000	64.927887 
4536.000000	64.928054 
4535.000000	64.922761 
4534.000000	64.913225 
4533.000000	64.898872 
4532.000000	64.878368 
4531.000000	64.849758 
4530.000000	64.812445 
4529.000000	64.766573 
4528.000000	64.713859 
4527.000000	64.657258 
4526.000000	64.600944 
4525.000000	64.549827 
4524.000000	64.508891 
4523.000000	64.481949 
4522.000000	64.470553 
4521.000000	64.474201 
4520.000000	64.489960 
4519.000000	64.511990 
4518.000000	64.532923 
4517.000000	64.544844 
4516.000000	64.541792 
4515.000000	64.519906 
4514.000000	64.480209 
4513.000000	64.428043 
4512.000000	64.373469 
4511.000000	64.328670 
4510.000000	64.305591 
4509.000000	64.313507 
4508.000000	64.355993 
4507.000000	64.430093 
4506.000000	64.525890 
4505.000000	64.629101 
4504.000000	64.722800 
4503.000000	64.791727 
4502.000000	64.823794 
4501.000000	64.812588 
4500.000000	64.757513 
4499.000000	64.663934 
4498.000000	64.539670 
4497.000000	64.393258 
4496.000000	64.233016 
4495.000000	64.066648 
4494.000000	63.900732 
4493.000000	63.741755 
4492.000000	63.597941 
4491.000000	63.479113 
4490.000000	63.393831 
4489.000000	63.349509 
4488.000000	63.348865 
4487.000000	63.391160 
4486.000000	63.471293 
4485.000000	63.580465 
4484.000000	63.707637 
4483.000000	63.839483 
4482.000000	63.959264 
4481.000000	64.051628 
4480.000000	64.105319 
4479.000000	64.115309 
4478.000000	64.078807 
4477.000000	64.004468 
4476.000000	63.916492 
4475.000000	63.838839 
4474.000000	63.785052 
4473.000000	63.766717 
4472.000000	63.792443 
4471.000000	63.863348 
4470.000000	63.975024 
4469.000000	64.115834 
4468.000000	64.270329 
4467.000000	64.432239 
4466.000000	64.602541 
4465.000000	64.787101 
4464.000000	64.989328 
4463.000000	65.201973 
4462.000000	65.408802 
4461.000000	65.570759 
4460.000000	65.652322 
4459.000000	65.646576 
4458.000000	65.573525 
4457.000000	65.481710 
4456.000000	65.435123 
4455.000000	65.469336 
4454.000000	65.627002 
4453.000000	65.902471 
4452.000000	66.335153 
4451.000000	67.008924 
4450.000000	68.054962 
4449.000000	69.638562 
4448.000000	71.854734 
4447.000000	74.681067 
4446.000000	77.917242 
4445.000000	81.196188 
4444.000000	84.065866 
4443.000000	86.085653 
4442.000000	86.952853 
4441.000000	86.570596 
4440.000000	85.056996 
4439.000000	82.703280 
4438.000000	79.891657 
4437.000000	76.996278 
4436.000000	74.311733 
4435.000000	71.995353 
4434.000000	70.088791 
4433.000000	68.527221 
4432.000000	67.214822 
4431.000000	66.060423 
4430.000000	65.021061 
4429.000000	64.115262 
4428.000000	63.393926 
4427.000000	62.931394 
4426.000000	62.746715 
4425.000000	62.830615 
4424.000000	63.112401 
4423.000000	63.501071 
4422.000000	63.894820 
4421.000000	64.219546 
4420.000000	64.444327 
4419.000000	64.577150 
4418.000000	64.650821 
4417.000000	64.712214 
4416.000000	64.802002 
4415.000000	64.938831 
4414.000000	65.112781 
4413.000000	65.302491 
4412.000000	65.480732 
4411.000000	65.625548 
4410.000000	65.724587 
4409.000000	65.779089 
4408.000000	65.798616 
4407.000000	65.798258 
4406.000000	65.790057 
4405.000000	65.768527 
4404.000000	65.719676 
4403.000000	65.640544 
4402.000000	65.529441 
4401.000000	65.387082 
4400.000000	65.218281 
4399.000000	65.035629 
4398.000000	64.852046 
4397.000000	64.676117 
4396.000000	64.514183 
4395.000000	64.370322 
4394.000000	64.246368 
4393.000000	64.142346 
4392.000000	64.058923 
4391.000000	63.997364 
4390.000000	63.959312 
4389.000000	63.946342 
4388.000000	63.955426 
4387.000000	63.979172 
4386.000000	64.008235 
4385.000000	64.033794 
4384.000000	64.049959 
4383.000000	64.055585 
4382.000000	64.054369 
4381.000000	64.053988 
4380.000000	64.061808 
4379.000000	64.084267 
4378.000000	64.125061 
4377.000000	64.184331 
4376.000000	64.258766 
4375.000000	64.341974 
4374.000000	64.425992 
4373.000000	64.502811 
4372.000000	64.566087 
4371.000000	64.612388 
4370.000000	64.641404 
4369.000000	64.656281 
4368.000000	64.662909 
4367.000000	64.667582 
4366.000000	64.675116 
4365.000000	64.688491 
4364.000000	64.708566 
4363.000000	64.733386 
4362.000000	64.759230 
4361.000000	64.782071 
4360.000000	64.798808 
4359.000000	64.807295 
4358.000000	64.806771 
4357.000000	64.798021 
4356.000000	64.782691 
4355.000000	64.762973 
4354.000000	64.740490 
4353.000000	64.716410 
4352.000000	64.690828 
4351.000000	64.663076 
4350.000000	64.632081 
4349.000000	64.596796 
4348.000000	64.556860 
4347.000000	64.513206 
4346.000000	64.468169 
4345.000000	64.424633 
4344.000000	64.386200 
4343.000000	64.355969 
4342.000000	64.336299 
4341.000000	64.327406 
4340.000000	64.328551 
4339.000000	64.338231 
4338.000000	64.354729 
4337.000000	64.376449 
4336.000000	64.402937 
4335.000000	64.434552 
4334.000000	64.472246 
4333.000000	64.516615 
4332.000000	64.567279 
4331.000000	64.622449 
4330.000000	64.678764 
4329.000000	64.731645 
4328.000000	64.776539 
4327.000000	64.809226 
4326.000000	64.827728 
4325.000000	64.831924 
4324.000000	64.823341 
4323.000000	64.804649 
4322.000000	64.779734 
4321.000000	64.752221 
4320.000000	64.725208 
4319.000000	64.700484 
4318.000000	64.679670 
4317.000000	64.662957 
4316.000000	64.650082 
4315.000000	64.639902 
4314.000000	64.631271 
4313.000000	64.622735 
4312.000000	64.612722 
4311.000000	64.599943 
4310.000000	64.583539 
4309.000000	64.563632 
4308.000000	64.541554 
4307.000000	64.519381 
4306.000000	64.499640 
4305.000000	64.484834 
4304.000000	64.477324 
4303.000000	64.478135 
4302.000000	64.487934 
4301.000000	64.507365 
4300.000000	64.537334 
4299.000000	64.578866 
4298.000000	64.632678 
4297.000000	64.698791 
4296.000000	64.775681 
4295.000000	64.859294 
4294.000000	64.943838 
4293.000000	65.022253 
4292.000000	65.087771 
4291.000000	65.135407 
4290.000000	65.162920 
4289.000000	65.171551 
4288.000000	65.165352 
4287.000000	65.150833 
4286.000000	65.134239 
4285.000000	65.120148 
4284.000000	65.110468 
4283.000000	65.104603 
4282.000000	65.099453 
4281.000000	65.091037 
4280.000000	65.076136 
4279.000000	65.053439 
4278.000000	65.023660 
4277.000000	64.989018 
4276.000000	64.952540 
4275.000000	64.916896 
4274.000000	64.883565 
4273.000000	64.852643 
4272.000000	64.823055 
4271.000000	64.793419 
4270.000000	64.762759 
4269.000000	64.731264 
4268.000000	64.700150 
4267.000000	64.671826 
4266.000000	64.649128 
4265.000000	64.635062 
4264.000000	64.630961 
4263.000000	64.637517 
4262.000000	64.654111 
4261.000000	64.680004 
4260.000000	64.713811 
4259.000000	64.754772 
4258.000000	64.802718 
4257.000000	64.857721 
4256.000000	64.919304 
4255.000000	64.986371 
4254.000000	65.056562 
4253.000000	65.126395 
4252.000000	65.191411 
4251.000000	65.247416 
4250.000000	65.290856 
4249.000000	65.320014 
4248.000000	65.335011 
4247.000000	65.337872 
4246.000000	65.331578 
4245.000000	65.320062 
4244.000000	65.306758 
4243.000000	65.294098 
4242.000000	65.282988 
4241.000000	65.273857 
4240.000000	65.266180 
4239.000000	65.259146 
4238.000000	65.252184 
4237.000000	65.245556 
4236.000000	65.239906 
4235.000000	65.236258 
4234.000000	65.235519 
4233.000000	65.237855 
4232.000000	65.242409 
4231.000000	65.247511 
4230.000000	65.250372 
4229.000000	65.247917 
4228.000000	65.237331 
4227.000000	65.216779 
4226.000000	65.185904 
4225.000000	65.146064 
4224.000000	65.100431 
4223.000000	65.053510 
4222.000000	65.010404 
4221.000000	64.975929 
4220.000000	64.953684 
4219.000000	64.945793 
4218.000000	64.951944 
4217.000000	64.970636 
4216.000000	64.999222 
4215.000000	65.035033 
4214.000000	65.075635 
4213.000000	65.119123 
4212.000000	65.164113 
4211.000000	65.209364 
4210.000000	65.253424 
4209.000000	65.293955 
4208.000000	65.327692 
4207.000000	65.350914 
4206.000000	65.360450 
4205.000000	65.354347 
4204.000000	65.332722 
4203.000000	65.298295 
4202.000000	65.256190 
4201.000000	65.213465 
4200.000000	65.177702 
4199.000000	65.155601 
4198.000000	65.151596 
4197.000000	65.167641 
4196.000000	65.202355 
4195.000000	65.251827 
4194.000000	65.310072 
4193.000000	65.369868 
4192.000000	65.424108 
4191.000000	65.466451 
4190.000000	65.492796 
4189.000000	65.501189 
4188.000000	65.492796 
4187.000000	65.471100 
4186.000000	65.441632 
4185.000000	65.410900 
4184.000000	65.385603 
4183.000000	65.371346 
4182.000000	65.371870 
4181.000000	65.389037 
4180.000000	65.421676 
4179.000000	65.466427 
4178.000000	65.517497 
4177.000000	65.568089 
4176.000000	65.610742 
4175.000000	65.638518 
4174.000000	65.646314 
4173.000000	65.631842 
4172.000000	65.595984 
4171.000000	65.542626 
4170.000000	65.478205 
4169.000000	65.410447 
4168.000000	65.347504 
4167.000000	65.296006 
4166.000000	65.259957 
4165.000000	65.240144 
4164.000000	65.234470 
4163.000000	65.238928 
4162.000000	65.248799 
4161.000000	65.260362 
4160.000000	65.270900 
4159.000000	65.279912 
