PE IR       SPECTRUM    SPECTRUM    ASCII       PEDS        1.60        
  -1
BZ6EA6~1.ASC
17/04/07
19:29:37.00
17/04/07
19:29:37.00
tln
$BZ1503107-1_t0076$<tbV0>[-10.4,2.6,8.0,0.0,27,1,0]
370.000000
64









2002,4.07    
MIRTGS : RIGHTBACK : INTERNAL 2
MIR : ON : INTERNAL 2
OPTKBR

0.200000
8
8.000000
FILLER
RATIO
SPECTRUM
UNLOCKED 256

DOUBLE
64
COMBINED
1
0
0


1.000000
RATIO


1
0
TRUE
51149
0
LEFT NOT FITTED RIGHT NOT FITTED 0
NONE
NONE
15600
12.000000
4.427000
51148
TRUE
1 0 8 72 0 0 0 0 

15798.010000






#HDR
-1
-1
#GR
CM-1
%T
0.00002384185791015625
0.0
5000.000000
-1.000000
4631
8
95.053720
47.273683
#DATA
5000.000000	64.464068 
4999.000000	64.498662 
4998.000000	64.573597 
4997.000000	64.685297 
4996.000000	64.825534 
4995.000000	64.984273 
4994.000000	65.149235 
4993.000000	65.308284 
4992.000000	65.448808 
4991.000000	65.559244 
4990.000000	65.629076 
4989.000000	65.650677 
4988.000000	65.619301 
4987.000000	65.534734 
4986.000000	65.401554 
4985.000000	65.229892 
4984.000000	65.032887 
4983.000000	64.825844 
4982.000000	64.624047 
4981.000000	64.441633 
4980.000000	64.290237 
4979.000000	64.178824 
4978.000000	64.113569 
4977.000000	64.097642 
4976.000000	64.130616 
4975.000000	64.208221 
4974.000000	64.320874 
4973.000000	64.455342 
4972.000000	64.595007 
4971.000000	64.723467 
4970.000000	64.824366 
4969.000000	64.886736 
4968.000000	64.905905 
4967.000000	64.884996 
4966.000000	64.833736 
4965.000000	64.765906 
4964.000000	64.696931 
4963.000000	64.639353 
4962.000000	64.600658 
4961.000000	64.582014 
4960.000000	64.579653 
4959.000000	64.586019 
4958.000000	64.592909 
4957.000000	64.593529 
4956.000000	64.584398 
4955.000000	64.566493 
4954.000000	64.544796 
4953.000000	64.525985 
4952.000000	64.516305 
4951.000000	64.520931 
4950.000000	64.541196 
4949.000000	64.573502 
4948.000000	64.609146 
4947.000000	64.637541 
4946.000000	64.647197 
4945.000000	64.628171 
4944.000000	64.574623 
4943.000000	64.486432 
4942.000000	64.369845 
4941.000000	64.236927 
4940.000000	64.102911 
4939.000000	63.983225 
4938.000000	63.890099 
4937.000000	63.830280 
4936.000000	63.803744 
4935.000000	63.803887 
4934.000000	63.821029 
4933.000000	63.845038 
4932.000000	63.869190 
4931.000000	63.891386 
4930.000000	63.915014 
4929.000000	63.947010 
4928.000000	63.995242 
4927.000000	64.065337 
4926.000000	64.158487 
4925.000000	64.270710 
4924.000000	64.393544 
4923.000000	64.516234 
4922.000000	64.629030 
4921.000000	64.724946 
4920.000000	64.802098 
4919.000000	64.862442 
4918.000000	64.910626 
4917.000000	64.951419 
4916.000000	64.988088 
4915.000000	65.020990 
4914.000000	65.048408 
4913.000000	65.066385 
4912.000000	65.072536 
4911.000000	65.064620 
4910.000000	65.042948 
4909.000000	65.008974 
4908.000000	64.966201 
4907.000000	64.917874 
4906.000000	64.866518 
4905.000000	64.814162 
4904.000000	64.762401 
4903.000000	64.713096 
4902.000000	64.668726 
4901.000000	64.632344 
4900.000000	64.607262 
4899.000000	64.596223 
4898.000000	64.600682 
4897.000000	64.618921 
4896.000000	64.646720 
4895.000000	64.678239 
4894.000000	64.707469 
4893.000000	64.728927 
4892.000000	64.739227 
4891.000000	64.738154 
4890.000000	64.727973 
4889.000000	64.712166 
4888.000000	64.694976 
4887.000000	64.680457 
4886.000000	64.671635 
4885.000000	64.669895 
4884.000000	64.675045 
4883.000000	64.686155 
4882.000000	64.701724 
4881.000000	64.720249 
4880.000000	64.740419 
4879.000000	64.761114 
4878.000000	64.781427 
4877.000000	64.800357 
4876.000000	64.816665 
4875.000000	64.828777 
4874.000000	64.835381 
4873.000000	64.835262 
4872.000000	64.827275 
4871.000000	64.810419 
4870.000000	64.784479 
4869.000000	64.750409 
4868.000000	64.710283 
4867.000000	64.667201 
4866.000000	64.625763 
4865.000000	64.590525 
4864.000000	64.565062 
4863.000000	64.550971 
4862.000000	64.547610 
4861.000000	64.552140 
4860.000000	64.560008 
4859.000000	64.566302 
4858.000000	64.566564 
4857.000000	64.558386 
4856.000000	64.541697 
4855.000000	64.519071 
4854.000000	64.494323 
4853.000000	64.472174 
4852.000000	64.456868 
4851.000000	64.451313 
4850.000000	64.456272 
4849.000000	64.471030 
4848.000000	64.493680 
4847.000000	64.521789 
4846.000000	64.553093 
4845.000000	64.585399 
4844.000000	64.617395 
4843.000000	64.648032 
4842.000000	64.677476 
4841.000000	64.707040 
4840.000000	64.739155 
4839.000000	64.777088 
4838.000000	64.823722 
4837.000000	64.881014 
4836.000000	64.948415 
4835.000000	65.022873 
4834.000000	65.098071 
4833.000000	65.165996 
4832.000000	65.217447 
4831.000000	65.244984 
4830.000000	65.243411 
4829.000000	65.211653 
4828.000000	65.152597 
4827.000000	65.072965 
4826.000000	64.981865 
4825.000000	64.889168 
4824.000000	64.804220 
4823.000000	64.734768 
4822.000000	64.686226 
4821.000000	64.661383 
4820.000000	64.660716 
4819.000000	64.682269 
4818.000000	64.721798 
4817.000000	64.772844 
4816.000000	64.826583 
4815.000000	64.873218 
4814.000000	64.903020 
4813.000000	64.908528 
4812.000000	64.885258 
4811.000000	64.833498 
4810.000000	64.758658 
4809.000000	64.670157 
4808.000000	64.579844 
4807.000000	64.499402 
4806.000000	64.438128 
4805.000000	64.401221 
4804.000000	64.388751 
4803.000000	64.396977 
4802.000000	64.419484 
4801.000000	64.449977 
4800.000000	64.483308 
4799.000000	64.517426 
4798.000000	64.552974 
4797.000000	64.592576 
4796.000000	64.638757 
4795.000000	64.692258 
4794.000000	64.750766 
4793.000000	64.809250 
4792.000000	64.860486 
4791.000000	64.897084 
4790.000000	64.912915 
4789.000000	64.905261 
4788.000000	64.874958 
4787.000000	64.826345 
4786.000000	64.766073 
4785.000000	64.701604 
4784.000000	64.639878 
4783.000000	64.586520 
4782.000000	64.545345 
4781.000000	64.518594 
4780.000000	64.507055 
4779.000000	64.510440 
4778.000000	64.527487 
4777.000000	64.555954 
4776.000000	64.592552 
4775.000000	64.632749 
4774.000000	64.671826 
4773.000000	64.705061 
4772.000000	64.729070 
4771.000000	64.741992 
4770.000000	64.744257 
4769.000000	64.738225 
4768.000000	64.726972 
4767.000000	64.713430 
4766.000000	64.699101 
4765.000000	64.683675 
4764.000000	64.665389 
4763.000000	64.641809 
4762.000000	64.611268 
4761.000000	64.573812 
4760.000000	64.532160 
4759.000000	64.491295 
4758.000000	64.457488 
4757.000000	64.436864 
4756.000000	64.433169 
4755.000000	64.447021 
4754.000000	64.475703 
4753.000000	64.513492 
4752.000000	64.552831 
4751.000000	64.586544 
4750.000000	64.609432 
4749.000000	64.619779 
4748.000000	64.619064 
4747.000000	64.611816 
4746.000000	64.603686 
4745.000000	64.600443 
4744.000000	64.606761 
4743.000000	64.624857 
4742.000000	64.654135 
4741.000000	64.691781 
4740.000000	64.733839 
4739.000000	64.775443 
4738.000000	64.812135 
4737.000000	64.840674 
4736.000000	64.860033 
4735.000000	64.870738 
4734.000000	64.875602 
4733.000000	64.878535 
4732.000000	64.884686 
4731.000000	64.899468 
4730.000000	64.927291 
4729.000000	64.970755 
4728.000000	65.029335 
4727.000000	65.100121 
4726.000000	65.177035 
4725.000000	65.252327 
4724.000000	65.317106 
4723.000000	65.363645 
4722.000000	65.385961 
4721.000000	65.381312 
4720.000000	65.349745 
4719.000000	65.294575 
4718.000000	65.220785 
4717.000000	65.134692 
4716.000000	65.041971 
4715.000000	64.947319 
4714.000000	64.853596 
4713.000000	64.762544 
4712.000000	64.674782 
4711.000000	64.591145 
4710.000000	64.513945 
4709.000000	64.447546 
4708.000000	64.397215 
4707.000000	64.368915 
4706.000000	64.367389 
4705.000000	64.395260 
4704.000000	64.450860 
4703.000000	64.528608 
4702.000000	64.619183 
4701.000000	64.711308 
4700.000000	64.793562 
4699.000000	64.856481 
4698.000000	64.894342 
4697.000000	64.905428 
4696.000000	64.892625 
4695.000000	64.861321 
4694.000000	64.818263 
4693.000000	64.769434 
4692.000000	64.719557 
4691.000000	64.670944 
4690.000000	64.624142 
4689.000000	64.578175 
4688.000000	64.532160 
4687.000000	64.484739 
4686.000000	64.435100 
4685.000000	64.382982 
4684.000000	64.329123 
4683.000000	64.275145 
4682.000000	64.223980 
4681.000000	64.179563 
4680.000000	64.146494 
4679.000000	64.128708 
4678.000000	64.129137 
4677.000000	64.148592 
4676.000000	64.185786 
4675.000000	64.236545 
4674.000000	64.295625 
4673.000000	64.356517 
4672.000000	64.414167 
4671.000000	64.465141 
4670.000000	64.508795 
4669.000000	64.546465 
4668.000000	64.581298 
4667.000000	64.616799 
4666.000000	64.655613 
4665.000000	64.698624 
4664.000000	64.744758 
4663.000000	64.791417 
4662.000000	64.835000 
4661.000000	64.872264 
4660.000000	64.899730 
4659.000000	64.914560 
4658.000000	64.914774 
4657.000000	64.899945 
4656.000000	64.871120 
4655.000000	64.831447 
4654.000000	64.786124 
4653.000000	64.741969 
4652.000000	64.706325 
4651.000000	64.685773 
4650.000000	64.685082 
4649.000000	64.705824 
4648.000000	64.746189 
4647.000000	64.801168 
4646.000000	64.863371 
4645.000000	64.924764 
4644.000000	64.977765 
4643.000000	65.016913 
4642.000000	65.039348 
4641.000000	65.045166 
4640.000000	65.036678 
4639.000000	65.017628 
4638.000000	64.991903 
4637.000000	64.963579 
4636.000000	64.936256 
4635.000000	64.912891 
4634.000000	64.895677 
4633.000000	64.886116 
4632.000000	64.884853 
4631.000000	64.891314 
4630.000000	64.903736 
4629.000000	64.919304 
4628.000000	64.934587 
4627.000000	64.945936 
4626.000000	64.950370 
4625.000000	64.945459 
4624.000000	64.930582 
4623.000000	64.906477 
4622.000000	64.876031 
4621.000000	64.843845 
4620.000000	64.815902 
4619.000000	64.798188 
4618.000000	64.795994 
4617.000000	64.812922 
4616.000000	64.849972 
4615.000000	64.904999 
4614.000000	64.972519 
4613.000000	65.045118 
4612.000000	65.113592 
4611.000000	65.169000 
4610.000000	65.203714 
4609.000000	65.212726 
4608.000000	65.194606 
4607.000000	65.151834 
4606.000000	65.090847 
4605.000000	65.020871 
4604.000000	64.952921 
4603.000000	64.897990 
4602.000000	64.865899 
4601.000000	64.863038 
4600.000000	64.891743 
4599.000000	64.948773 
4598.000000	65.025830 
4597.000000	65.110254 
4596.000000	65.186953 
4595.000000	65.241312 
4594.000000	65.261578 
4593.000000	65.241909 
4592.000000	65.182971 
4591.000000	65.092587 
4590.000000	64.983510 
4589.000000	64.871668 
4588.000000	64.772820 
4587.000000	64.699959 
4586.000000	64.661645 
4585.000000	64.660358 
4584.000000	64.693140 
4583.000000	64.752173 
4582.000000	64.826917 
4581.000000	64.905595 
4580.000000	64.977002 
4579.000000	65.032148 
4578.000000	65.065264 
4577.000000	65.073990 
4576.000000	65.059113 
4575.000000	65.024518 
4574.000000	64.975810 
4573.000000	64.920067 
4572.000000	64.864301 
4571.000000	64.814853 
4570.000000	64.776325 
4569.000000	64.751601 
4568.000000	64.741253 
4567.000000	64.744377 
4566.000000	64.758706 
4565.000000	64.780998 
4564.000000	64.807510 
4563.000000	64.834332 
4562.000000	64.857649 
4561.000000	64.873719 
4560.000000	64.879894 
4559.000000	64.874505 
4558.000000	64.857864 
4557.000000	64.832162 
4556.000000	64.801144 
4555.000000	64.769268 
4554.000000	64.741206 
4553.000000	64.720940 
4552.000000	64.711284 
4551.000000	64.713406 
4550.000000	64.726257 
4549.000000	64.746546 
4548.000000	64.769244 
4547.000000	64.788484 
4546.000000	64.798355 
4545.000000	64.794468 
4544.000000	64.774703 
4543.000000	64.740133 
4542.000000	64.695215 
4541.000000	64.646697 
4540.000000	64.601802 
4539.000000	64.566802 
4538.000000	64.545774 
4537.000000	64.539623 
4536.000000	64.545869 
4535.000000	64.559721 
4534.000000	64.575505 
4533.000000	64.587903 
4532.000000	64.593505 
4531.000000	64.590811 
4530.000000	64.580321 
4529.000000	64.562988 
4528.000000	64.539241 
4527.000000	64.508366 
4526.000000	64.468717 
4525.000000	64.418840 
4524.000000	64.358806 
4523.000000	64.291572 
4522.000000	64.223432 
4521.000000	64.163064 
4520.000000	64.120364 
4519.000000	64.103770 
4518.000000	64.118885 
4517.000000	64.166760 
4516.000000	64.244079 
4515.000000	64.343404 
4514.000000	64.454817 
4513.000000	64.567518 
4512.000000	64.671659 
4511.000000	64.759254 
4510.000000	64.825534 
4509.000000	64.868903 
4508.000000	64.890909 
4507.000000	64.894986 
4506.000000	64.886140 
4505.000000	64.870572 
4504.000000	64.854025 
4503.000000	64.841794 
4502.000000	64.837336 
4501.000000	64.842748 
4500.000000	64.857673 
4499.000000	64.879870 
4498.000000	64.905381 
4497.000000	64.929628 
4496.000000	64.948320 
4495.000000	64.958667 
4494.000000	64.959883 
4493.000000	64.953684 
4492.000000	64.943838 
4491.000000	64.935207 
4490.000000	64.932632 
4489.000000	64.939045 
4488.000000	64.955306 
4487.000000	64.978289 
4486.000000	65.002894 
4485.000000	65.021038 
4484.000000	65.023827 
4483.000000	65.002560 
4482.000000	64.951395 
4481.000000	64.867806 
4480.000000	64.753246 
4479.000000	64.613580 
4478.000000	64.458131 
4477.000000	64.298987 
4476.000000	64.148879 
4475.000000	64.019918 
4474.000000	63.921594 
4473.000000	63.860082 
4472.000000	63.837790 
4471.000000	63.851642 
4470.000000	63.893628 
4469.000000	63.953042 
4468.000000	64.018464 
4467.000000	64.080286 
4466.000000	64.132046 
4465.000000	64.170718 
4464.000000	64.195680 
4463.000000	64.208698 
4462.000000	64.211177 
4461.000000	64.199495 
4460.000000	64.167332 
4459.000000	64.112043 
4458.000000	64.033102 
4457.000000	63.931465 
4456.000000	63.812541 
4455.000000	63.686847 
4454.000000	63.568139 
4453.000000	63.471841 
4452.000000	63.411140 
4451.000000	63.389372 
4450.000000	63.407230 
4449.000000	63.463544 
4448.000000	63.556265 
4447.000000	63.680028 
4446.000000	63.835597 
4445.000000	64.029860 
4444.000000	64.264988 
4443.000000	64.534044 
4442.000000	64.820790 
4441.000000	65.098428 
4440.000000	65.340852 
4439.000000	65.519118 
4438.000000	65.613102 
4437.000000	65.599751 
4436.000000	65.451121 
4435.000000	65.132331 
4434.000000	64.601254 
4433.000000	63.829493 
4432.000000	62.818861 
4431.000000	61.617326 
4430.000000	60.320210 
4429.000000	59.064340 
4428.000000	57.992434 
4427.000000	57.247948 
4426.000000	56.922388 
4425.000000	57.077288 
4424.000000	57.724738 
4423.000000	58.843040 
4422.000000	60.375952 
4421.000000	62.236571 
4420.000000	64.308500 
4419.000000	66.448760 
4418.000000	68.493914 
4417.000000	70.283722 
4416.000000	71.677947 
4415.000000	72.582602 
4414.000000	72.959899 
4413.000000	72.834181 
4412.000000	72.279763 
4411.000000	71.413135 
4410.000000	70.363354 
4409.000000	69.259381 
4408.000000	68.202614 
4407.000000	67.271184 
4406.000000	66.504693 
4405.000000	65.918707 
4404.000000	65.503668 
4403.000000	65.242171 
4402.000000	65.110588 
4401.000000	65.079712 
4400.000000	65.122938 
4399.000000	65.206527 
4398.000000	65.302991 
4397.000000	65.381503 
4396.000000	65.423393 
4395.000000	65.418434 
4394.000000	65.369939 
4393.000000	65.290784 
4392.000000	65.198636 
4391.000000	65.108871 
4390.000000	65.034985 
4389.000000	64.986157 
4388.000000	64.960193 
4387.000000	64.944934 
4386.000000	64.928197 
4385.000000	64.900732 
4384.000000	64.854478 
4383.000000	64.786052 
4382.000000	64.698696 
4381.000000	64.601016 
4380.000000	64.503955 
4379.000000	64.418745 
4378.000000	64.350652 
4377.000000	64.301276 
4376.000000	64.272069 
4375.000000	64.262223 
4374.000000	64.266705 
4373.000000	64.280509 
4372.000000	64.300179 
4371.000000	64.324235 
4370.000000	64.351415 
4369.000000	64.382839 
4368.000000	64.420008 
4367.000000	64.465045 
4366.000000	64.519214 
4365.000000	64.582467 
4364.000000	64.652800 
4363.000000	64.726519 
4362.000000	64.798474 
4361.000000	64.863395 
4360.000000	64.916610 
4359.000000	64.955139 
4358.000000	64.978027 
4357.000000	64.987254 
4356.000000	64.986395 
4355.000000	64.979314 
4354.000000	64.968991 
4353.000000	64.957094 
4352.000000	64.944052 
4351.000000	64.929723 
4350.000000	64.914035 
4349.000000	64.898610 
4348.000000	64.886021 
4347.000000	64.879369 
4346.000000	64.881277 
4345.000000	64.893102 
4344.000000	64.914417 
4343.000000	64.942908 
4342.000000	64.974951 
4341.000000	65.006256 
4340.000000	65.032601 
4339.000000	65.051221 
4338.000000	65.060377 
4337.000000	65.059518 
4336.000000	65.049099 
4335.000000	65.030503 
4334.000000	65.005254 
4333.000000	64.975094 
4332.000000	64.942383 
4331.000000	64.909934 
4330.000000	64.881181 
4329.000000	64.859437 
4328.000000	64.847517 
4327.000000	64.846992 
4326.000000	64.857387 
4325.000000	64.876294 
4324.000000	64.899754 
4323.000000	64.923048 
4322.000000	64.941763 
4321.000000	64.952611 
4320.000000	64.953446 
4319.000000	64.943718 
4318.000000	64.924311 
4317.000000	64.897012 
4316.000000	64.864206 
4315.000000	64.828038 
4314.000000	64.790534 
4313.000000	64.752888 
4312.000000	64.715790 
4311.000000	64.679670 
4310.000000	64.644861 
4309.000000	64.612269 
4308.000000	64.583635 
4307.000000	64.561247 
4306.000000	64.547753 
4305.000000	64.545297 
4304.000000	64.555048 
4303.000000	64.576482 
4302.000000	64.607596 
4301.000000	64.644455 
4300.000000	64.682507 
4299.000000	64.717173 
4298.000000	64.745473 
4297.000000	64.766430 
4296.000000	64.781355 
4295.000000	64.793586 
4294.000000	64.806818 
4293.000000	64.824080 
4292.000000	64.846348 
4291.000000	64.872026 
4290.000000	64.897346 
4289.000000	64.917778 
4288.000000	64.928936 
4287.000000	64.928531 
4286.000000	64.916801 
4285.000000	64.896464 
4284.000000	64.872217 
4283.000000	64.849495 
4282.000000	64.833092 
4281.000000	64.826154 
4280.000000	64.829945 
4279.000000	64.843750 
4278.000000	64.865326 
4277.000000	64.891552 
4276.000000	64.919447 
4275.000000	64.946556 
4274.000000	64.970803 
4273.000000	64.990687 
4272.000000	65.004897 
4271.000000	65.012526 
4270.000000	65.012931 
4269.000000	65.005946 
4268.000000	64.992427 
4267.000000	64.973711 
4266.000000	64.952015 
4265.000000	64.929461 
4264.000000	64.908075 
4263.000000	64.888954 
4262.000000	64.872550 
4261.000000	64.858174 
4260.000000	64.844393 
4259.000000	64.829611 
4258.000000	64.812493 
4257.000000	64.792394 
4256.000000	64.769673 
4255.000000	64.745879 
4254.000000	64.723372 
4253.000000	64.704942 
4252.000000	64.693379 
4251.000000	64.690709 
4250.000000	64.697957 
4249.000000	64.715051 
4248.000000	64.740800 
4247.000000	64.773392 
4246.000000	64.810776 
4245.000000	64.850878 
4244.000000	64.891958 
4243.000000	64.932966 
4242.000000	64.973139 
4241.000000	65.011763 
4240.000000	65.047693 
4239.000000	65.079379 
4238.000000	65.104293 
4237.000000	65.119695 
4236.000000	65.122842 
4235.000000	65.111994 
4234.000000	65.087056 
4233.000000	65.049958 
4232.000000	65.004944 
4231.000000	64.957714 
4230.000000	64.914822 
4229.000000	64.882516 
4228.000000	64.865207 
4227.000000	64.864706 
4226.000000	64.879870 
4225.000000	64.906930 
4224.000000	64.940190 
4223.000000	64.973497 
4222.000000	65.001320 
4221.000000	65.019893 
4220.000000	65.027832 
4219.000000	65.025997 
4218.000000	65.016865 
4217.000000	65.003538 
4216.000000	64.989137 
4215.000000	64.975523 
4214.000000	64.963340 
4213.000000	64.951467 
4212.000000	64.938044 
4211.000000	64.920711 
4210.000000	64.897704 
4209.000000	64.868378 
4208.000000	64.833569 
4207.000000	64.795732 
4206.000000	64.757990 
4205.000000	64.724063 
4204.000000	64.697337 
4203.000000	64.680147 
4202.000000	64.673471 
4201.000000	64.676761 
4200.000000	64.688205 
4199.000000	64.705395 
4198.000000	64.725589 
4197.000000	64.746189 
4196.000000	64.764904 
4195.000000	64.780044 
4194.000000	64.790391 
4193.000000	64.794898 
4192.000000	64.792776 
4191.000000	64.783334 
4190.000000	64.766430 
4189.000000	64.742898 
4188.000000	64.714765 
4187.000000	64.685297 
4186.000000	64.658379 
4185.000000	64.638042 
4184.000000	64.627528 
4183.000000	64.628601 
4182.000000	64.641237 
4181.000000	64.663290 
4180.000000	64.691305 
4179.000000	64.721202 
4178.000000	64.749145 
4177.000000	64.772248 
4176.000000	64.789342 
4175.000000	64.800691 
4174.000000	64.808106 
4173.000000	64.814066 
4172.000000	64.821076 
4171.000000	64.830827 
4170.000000	64.843869 
4169.000000	64.859533 
4168.000000	64.876294 
4167.000000	64.891958 
4166.000000	64.904642 
4165.000000	64.912748 
4164.000000	64.915752 
4163.000000	64.913654 
4162.000000	64.907097 
4161.000000	64.896965 
4160.000000	64.884090 
4159.000000	64.869451 
