PE IR       SPECTRUM    SPECTRUM    ASCII       PEDS        1.60        
  -1
BZ6A22~1.ASC
17/04/07
13:25:07.00
17/04/07
13:25:07.00
tln
$BZ1503107-1_t0002$<tbV0>[10.4,-13.0,8.0,0.0,27,1,0]
370.000000
64









2002,4.07    
MIRTGS : RIGHTBACK : INTERNAL 2
MIR : ON : INTERNAL 2
OPTKBR

0.200000
8
8.000000
FILLER
RATIO
SPECTRUM
UNLOCKED 256

DOUBLE
64
COMBINED
1
0
0


1.000000
RATIO


1
0
TRUE
51149
0
LEFT NOT FITTED RIGHT NOT FITTED 0
NONE
NONE
15600
12.000000
4.427000
51148
TRUE
1 0 8 72 0 0 0 0 

15798.010000






#HDR
-1
-1
#GR
CM-1
%T
0.00002384185791015625
0.0
5000.000000
-1.000000
4631
8
69.716334
7.017636
#DATA
5000.000000	65.186429 
4999.000000	65.179324 
4998.000000	65.172982 
4997.000000	65.164804 
4996.000000	65.150523 
4995.000000	65.125513 
4994.000000	65.086245 
4993.000000	65.031456 
4992.000000	64.963293 
4991.000000	64.887142 
4990.000000	64.811491 
4989.000000	64.745807 
4988.000000	64.699220 
4987.000000	64.678144 
4986.000000	64.684987 
4985.000000	64.717292 
4984.000000	64.768481 
4983.000000	64.829301 
4982.000000	64.889574 
4981.000000	64.940071 
4980.000000	64.973640 
4979.000000	64.986228 
4978.000000	64.976644 
4977.000000	64.946460 
4976.000000	64.898920 
4975.000000	64.838671 
4974.000000	64.770889 
4973.000000	64.701652 
4972.000000	64.637064 
4971.000000	64.583706 
4970.000000	64.548206 
4969.000000	64.536428 
4968.000000	64.552187 
4967.000000	64.596343 
4966.000000	64.666390 
4965.000000	64.755702 
4964.000000	64.854192 
4963.000000	64.949655 
4962.000000	65.029549 
4961.000000	65.083360 
4960.000000	65.104556 
4959.000000	65.091657 
4958.000000	65.048456 
4957.000000	64.983177 
4956.000000	64.906549 
4955.000000	64.829921 
4954.000000	64.763116 
4953.000000	64.713072 
4952.000000	64.683318 
4951.000000	64.673376 
4950.000000	64.680194 
4949.000000	64.699840 
4948.000000	64.728999 
4947.000000	64.764595 
4946.000000	64.805817 
4945.000000	64.853072 
4944.000000	64.908146 
4943.000000	64.972209 
4942.000000	65.045237 
4941.000000	65.125298 
4940.000000	65.207457 
4939.000000	65.285491 
4938.000000	65.350890 
4937.000000	65.395259 
4936.000000	65.410923 
4935.000000	65.393376 
4934.000000	65.341973 
4933.000000	65.261006 
4932.000000	65.158891 
4931.000000	65.047097 
4930.000000	64.937567 
4929.000000	64.840531 
4928.000000	64.762687 
4927.000000	64.706134 
4926.000000	64.667463 
4925.000000	64.638876 
4924.000000	64.610648 
4923.000000	64.573550 
4922.000000	64.520716 
4921.000000	64.449906 
4920.000000	64.362716 
4919.000000	64.265489 
4918.000000	64.166855 
4917.000000	64.076924 
4916.000000	64.003372 
4915.000000	63.952088 
4914.000000	63.926577 
4913.000000	63.927221 
4912.000000	63.951706 
4911.000000	63.994765 
4910.000000	64.048504 
4909.000000	64.104056 
4908.000000	64.151692 
4907.000000	64.185428 
4906.000000	64.203739 
4905.000000	64.210534 
4904.000000	64.213371 
4903.000000	64.223885 
4902.000000	64.254570 
4901.000000	64.314818 
4900.000000	64.407730 
4899.000000	64.528918 
4898.000000	64.666128 
4897.000000	64.803385 
4896.000000	64.922547 
4895.000000	65.006685 
4894.000000	65.041995 
4893.000000	65.022921 
4892.000000	64.950346 
4891.000000	64.828944 
4890.000000	64.668178 
4889.000000	64.480733 
4888.000000	64.282941 
4887.000000	64.093422 
4886.000000	63.931417 
4885.000000	63.817834 
4884.000000	63.766288 
4883.000000	63.782119 
4882.000000	63.855361 
4881.000000	63.963222 
4880.000000	64.069104 
4879.000000	64.130091 
4878.000000	64.105296 
4877.000000	63.965892 
4876.000000	63.703703 
4875.000000	63.335323 
4874.000000	62.900328 
4873.000000	62.454771 
4872.000000	62.061595 
4871.000000	61.779284 
4870.000000	61.648702 
4869.000000	61.687803 
4868.000000	61.891222 
4867.000000	62.233304 
4866.000000	62.673044 
4865.000000	63.163733 
4864.000000	63.659763 
4863.000000	64.124274 
4862.000000	64.528274 
4861.000000	64.855599 
4860.000000	65.097355 
4859.000000	65.254807 
4858.000000	65.336275 
4857.000000	65.355634 
4856.000000	65.331172 
4855.000000	65.282559 
4854.000000	65.232849 
4853.000000	65.199637 
4852.000000	65.195465 
4851.000000	65.222573 
4850.000000	65.275144 
4849.000000	65.337419 
4848.000000	65.388345 
4847.000000	65.405607 
4846.000000	65.370821 
4845.000000	65.271663 
4844.000000	65.104603 
4843.000000	64.875054 
4842.000000	64.597129 
4841.000000	64.289212 
4840.000000	63.973617 
4839.000000	63.672733 
4838.000000	63.408994 
4837.000000	63.202118 
4836.000000	63.068795 
4835.000000	63.019704 
4834.000000	63.059020 
4833.000000	63.183212 
4832.000000	63.379979 
4831.000000	63.625621 
4830.000000	63.891005 
4829.000000	64.144039 
4828.000000	64.355802 
4827.000000	64.503049 
4826.000000	64.574623 
4825.000000	64.571475 
4824.000000	64.508104 
4823.000000	64.408183 
4822.000000	64.300918 
4821.000000	64.214205 
4820.000000	64.170002 
4819.000000	64.179468 
4818.000000	64.240145 
4817.000000	64.337062 
4816.000000	64.446163 
4815.000000	64.540934 
4814.000000	64.597773 
4813.000000	64.603662 
4812.000000	64.557647 
4811.000000	64.473628 
4810.000000	64.375090 
4809.000000	64.291119 
4808.000000	64.248871 
4807.000000	64.266896 
4806.000000	64.349985 
4805.000000	64.488935 
4804.000000	64.663600 
4803.000000	64.848232 
4802.000000	65.018630 
4801.000000	65.156960 
4800.000000	65.255188 
4799.000000	65.314984 
4798.000000	65.345692 
4797.000000	65.358352 
4796.000000	65.360951 
4795.000000	65.356826 
4794.000000	65.343856 
4793.000000	65.317440 
4792.000000	65.273189 
4791.000000	65.210199 
4790.000000	65.131807 
4789.000000	65.046834 
4788.000000	64.965939 
4787.000000	64.897227 
4786.000000	64.844036 
4785.000000	64.802360 
4784.000000	64.763689 
4783.000000	64.718389 
4782.000000	64.659976 
4781.000000	64.588570 
4780.000000	64.511132 
4779.000000	64.440512 
4778.000000	64.390420 
4777.000000	64.370751 
4776.000000	64.383339 
4775.000000	64.420032 
4774.000000	64.464807 
4773.000000	64.497089 
4772.000000	64.499568 
4771.000000	64.463138 
4770.000000	64.390492 
4769.000000	64.295387 
4768.000000	64.200925 
4767.000000	64.133548 
4766.000000	64.115810 
4765.000000	64.160084 
4764.000000	64.266061 
4763.000000	64.420390 
4762.000000	64.601016 
4761.000000	64.781880 
4760.000000	64.938473 
4759.000000	65.052938 
4758.000000	65.116786 
4757.000000	65.131545 
4756.000000	65.105938 
4755.000000	65.053701 
4754.000000	64.989638 
4753.000000	64.926338 
4752.000000	64.873027 
4751.000000	64.833545 
4750.000000	64.809441 
4749.000000	64.797997 
4748.000000	64.795732 
4747.000000	64.797425 
4746.000000	64.798521 
4745.000000	64.793777 
4744.000000	64.777684 
4743.000000	64.745569 
4742.000000	64.694094 
4741.000000	64.623236 
4740.000000	64.536619 
4739.000000	64.441895 
4738.000000	64.349746 
4737.000000	64.272165 
4736.000000	64.220094 
4735.000000	64.201188 
4734.000000	64.217805 
4733.000000	64.266037 
4732.000000	64.336299 
4731.000000	64.414954 
4730.000000	64.487433 
4729.000000	64.541411 
4728.000000	64.568996 
4727.000000	64.566874 
4726.000000	64.537668 
4725.000000	64.487552 
4724.000000	64.426350 
4723.000000	64.364194 
4722.000000	64.311480 
4721.000000	64.276933 
4720.000000	64.266943 
4719.000000	64.285683 
4718.000000	64.332866 
4717.000000	64.404273 
4716.000000	64.491438 
4715.000000	64.583301 
4714.000000	64.667963 
4713.000000	64.734840 
4712.000000	64.777708 
4711.000000	64.795637 
4710.000000	64.793348 
4709.000000	64.779329 
4708.000000	64.764237 
4707.000000	64.757394 
4706.000000	64.764094 
4705.000000	64.783954 
4704.000000	64.811968 
4703.000000	64.839649 
4702.000000	64.858579 
4701.000000	64.862489 
4700.000000	64.849805 
4699.000000	64.823293 
4698.000000	64.789056 
4697.000000	64.754581 
4696.000000	64.725279 
4695.000000	64.704418 
4694.000000	64.692139 
4693.000000	64.686894 
4692.000000	64.686536 
4691.000000	64.689922 
4690.000000	64.697599 
4689.000000	64.711856 
4688.000000	64.735746 
4687.000000	64.772319 
4686.000000	64.823150 
4685.000000	64.886784 
4684.000000	64.958357 
4683.000000	65.030884 
4682.000000	65.096449 
4681.000000	65.147757 
4680.000000	65.179872 
4679.000000	65.191483 
4678.000000	65.184879 
4677.000000	65.165638 
4676.000000	65.140795 
4675.000000	65.117073 
4674.000000	65.098881 
4673.000000	65.088510 
4672.000000	65.084695 
4671.000000	65.084195 
4670.000000	65.082383 
4669.000000	65.075182 
4668.000000	65.060710 
4667.000000	65.040349 
4666.000000	65.018081 
4665.000000	64.999341 
4664.000000	64.988684 
4663.000000	64.988112 
4662.000000	64.995574 
4661.000000	65.004968 
4660.000000	65.007996 
4659.000000	64.996457 
4658.000000	64.964652 
4657.000000	64.911746 
4656.000000	64.842009 
4655.000000	64.764976 
4654.000000	64.692616 
4653.000000	64.637351 
4652.000000	64.610004 
4651.000000	64.617586 
4650.000000	64.661717 
4649.000000	64.738392 
4648.000000	64.839482 
4647.000000	64.953589 
4646.000000	65.068125 
4645.000000	65.170836 
4644.000000	65.251302 
4643.000000	65.302109 
4642.000000	65.319442 
4641.000000	65.303015 
4640.000000	65.255928 
4639.000000	65.183830 
4638.000000	65.094971 
4637.000000	64.998054 
4636.000000	64.901494 
4635.000000	64.812946 
4634.000000	64.739084 
4633.000000	64.684700 
4632.000000	64.652585 
4631.000000	64.643597 
4630.000000	64.656329 
4629.000000	64.686369 
4628.000000	64.726996 
4627.000000	64.768886 
4626.000000	64.802265 
4625.000000	64.818453 
4624.000000	64.812254 
4623.000000	64.782762 
4622.000000	64.733910 
4621.000000	64.673280 
4620.000000	64.610290 
4619.000000	64.554429 
4618.000000	64.512920 
4617.000000	64.489459 
4616.000000	64.484381 
4615.000000	64.494466 
4614.000000	64.515709 
4613.000000	64.544606 
4612.000000	64.579868 
4611.000000	64.622163 
4610.000000	64.674592 
4609.000000	64.740800 
4608.000000	64.823317 
4607.000000	64.921593 
4606.000000	65.030884 
4605.000000	65.142035 
4604.000000	65.243482 
4603.000000	65.323209 
4602.000000	65.371155 
4601.000000	65.381312 
4600.000000	65.353369 
4599.000000	65.293049 
4598.000000	65.210914 
4597.000000	65.120482 
4596.000000	65.035510 
4595.000000	64.967489 
4594.000000	64.924240 
4593.000000	64.908576 
4592.000000	64.918804 
4591.000000	64.949274 
4590.000000	64.992499 
4589.000000	65.040040 
4588.000000	65.084481 
4587.000000	65.119886 
4586.000000	65.141773 
4585.000000	65.147781 
4584.000000	65.136694 
4583.000000	65.109920 
4582.000000	65.071153 
4581.000000	65.025973 
4580.000000	64.981079 
4579.000000	64.943099 
4578.000000	64.917397 
4577.000000	64.906501 
4576.000000	64.909386 
4575.000000	64.922356 
4574.000000	64.939522 
4573.000000	64.953970 
4572.000000	64.959478 
4571.000000	64.951324 
4570.000000	64.927959 
4569.000000	64.890122 
4568.000000	64.841938 
4567.000000	64.789748 
4566.000000	64.741230 
4565.000000	64.704632 
4564.000000	64.685893 
4563.000000	64.687657 
4562.000000	64.707827 
4561.000000	64.740514 
4560.000000	64.776134 
4559.000000	64.803647 
4558.000000	64.813089 
4557.000000	64.797759 
4556.000000	64.756178 
4555.000000	64.692282 
4554.000000	64.614772 
4553.000000	64.534926 
4552.000000	64.463853 
4551.000000	64.409804 
4550.000000	64.376378 
4549.000000	64.362192 
4548.000000	64.361715 
4547.000000	64.367389 
4546.000000	64.372086 
4545.000000	64.371085 
4544.000000	64.362764 
4543.000000	64.348959 
4542.000000	64.333367 
4541.000000	64.320993 
4540.000000	64.315557 
4539.000000	64.319539 
4538.000000	64.333224 
4537.000000	64.355444 
4536.000000	64.383649 
4535.000000	64.415287 
4534.000000	64.448380 
4533.000000	64.482164 
4532.000000	64.517092 
4531.000000	64.554381 
4530.000000	64.595508 
4529.000000	64.640259 
4528.000000	64.686059 
4527.000000	64.728188 
4526.000000	64.760828 
4525.000000	64.777994 
4524.000000	64.775013 
4523.000000	64.751410 
4522.000000	64.711284 
4521.000000	64.659547 
4520.000000	64.602041 
4519.000000	64.544677 
4518.000000	64.493775 
4517.000000	64.456701 
4516.000000	64.440798 
4515.000000	64.455032 
4514.000000	64.505362 
4513.000000	64.589977 
4512.000000	64.700317 
4511.000000	64.821243 
4510.000000	64.935207 
4509.000000	65.025496 
4508.000000	65.080952 
4507.000000	65.098261 
4506.000000	65.082430 
4505.000000	65.045452 
4504.000000	65.002346 
4503.000000	64.965748 
4502.000000	64.946365 
4501.000000	64.950489 
4500.000000	64.983773 
4499.000000	65.050745 
4498.000000	65.162634 
4497.000000	65.335369 
4496.000000	65.580797 
4495.000000	65.900301 
4494.000000	66.279458 
4493.000000	66.689705 
4492.000000	67.079353 
4491.000000	67.394375 
4490.000000	67.603158 
4489.000000	67.705535 
4488.000000	67.737126 
4487.000000	67.756223 
4486.000000	67.830753 
4485.000000	68.009829 
4484.000000	68.312716 
4483.000000	68.712735 
4482.000000	69.138741 
4481.000000	69.497609 
4480.000000	69.707751 
4479.000000	69.716334 
4478.000000	69.518280 
4477.000000	69.155597 
4476.000000	68.711638 
4475.000000	68.276596 
4474.000000	67.923092 
4473.000000	67.682218 
4472.000000	67.535948 
4471.000000	67.420578 
4470.000000	67.244100 
4469.000000	66.910076 
4468.000000	66.339325 
4467.000000	65.473985 
4466.000000	64.291477 
4465.000000	62.793779 
4464.000000	61.024117 
4463.000000	59.054183 
4462.000000	57.005858 
4461.000000	55.026412 
4460.000000	53.302526 
4459.000000	52.028512 
4458.000000	51.390290 
4457.000000	51.514863 
4456.000000	52.453756 
4455.000000	54.152345 
4454.000000	56.458020 
4453.000000	59.121060 
4452.000000	61.851835 
4451.000000	64.357662 
4450.000000	66.403603 
4449.000000	67.840218 
4448.000000	68.628835 
4447.000000	68.829965 
4446.000000	68.581008 
4445.000000	68.056702 
4444.000000	67.427515 
4443.000000	66.825962 
4442.000000	66.338419 
4441.000000	66.000890 
4440.000000	65.808105 
4439.000000	65.727615 
4438.000000	65.725016 
4437.000000	65.772485 
4436.000000	65.847349 
4435.000000	65.936708 
4434.000000	66.027235 
4433.000000	66.109895 
4432.000000	66.168832 
4431.000000	66.190838 
4430.000000	66.172432 
4429.000000	66.115307 
4428.000000	66.024994 
4427.000000	65.909337 
4426.000000	65.776681 
4425.000000	65.634369 
4424.000000	65.489363 
4423.000000	65.346670 
4422.000000	65.207648 
4421.000000	65.077042 
4420.000000	64.967656 
4419.000000	64.888763 
4418.000000	64.841866 
4417.000000	64.827418 
4416.000000	64.844584 
4415.000000	64.886879 
4414.000000	64.944124 
4413.000000	65.005445 
4412.000000	65.061283 
4411.000000	65.108108 
4410.000000	65.147089 
4409.000000	65.180468 
4408.000000	65.210103 
4407.000000	65.235447 
4406.000000	65.253591 
4405.000000	65.259909 
4404.000000	65.250325 
4403.000000	65.224313 
4402.000000	65.184831 
4401.000000	65.138959 
4400.000000	65.095400 
4399.000000	65.062689 
4398.000000	65.046501 
4397.000000	65.047836 
4396.000000	65.062904 
4395.000000	65.084719 
4394.000000	65.103697 
4393.000000	65.110087 
4392.000000	65.096378 
4391.000000	65.059471 
4390.000000	65.000128 
4389.000000	64.922714 
4388.000000	64.834141 
4387.000000	64.742565 
4386.000000	64.655566 
4385.000000	64.579558 
4384.000000	64.519095 
4383.000000	64.477229 
4382.000000	64.455604 
4381.000000	64.454698 
4380.000000	64.473295 
4379.000000	64.509344 
4378.000000	64.559245 
4377.000000	64.619278 
4376.000000	64.684462 
4375.000000	64.750504 
4374.000000	64.813590 
4373.000000	64.871549 
4372.000000	64.923429 
4371.000000	64.969801 
4370.000000	65.011930 
4369.000000	65.051174 
4368.000000	65.088558 
4367.000000	65.124034 
4366.000000	65.156817 
4365.000000	65.185427 
4364.000000	65.208554 
4363.000000	65.225219 
4362.000000	65.235233 
4361.000000	65.239191 
4360.000000	65.238213 
4359.000000	65.233469 
4358.000000	65.225720 
4357.000000	65.215516 
4356.000000	65.203022 
4355.000000	65.187788 
4354.000000	65.169262 
4353.000000	65.147709 
4352.000000	65.124297 
4351.000000	65.101289 
4350.000000	65.081596 
4349.000000	65.068173 
4348.000000	65.062928 
4347.000000	65.066432 
4346.000000	65.077257 
4345.000000	65.092086 
4344.000000	65.106320 
4343.000000	65.115332 
4342.000000	65.115070 
4341.000000	65.103077 
4340.000000	65.078759 
4339.000000	65.043210 
4338.000000	64.998912 
4337.000000	64.949178 
4336.000000	64.897942 
4335.000000	64.849519 
4334.000000	64.808368 
4333.000000	64.778733 
4332.000000	64.764881 
4331.000000	64.770150 
4330.000000	64.795994 
4329.000000	64.841127 
4328.000000	64.900875 
4327.000000	64.967393 
4326.000000	65.030312 
4325.000000	65.079236 
4324.000000	65.105605 
4323.000000	65.105485 
4322.000000	65.080022 
4321.000000	65.036082 
4320.000000	64.984083 
4319.000000	64.936161 
4318.000000	64.903378 
4317.000000	64.893245 
4316.000000	64.908599 
4315.000000	64.947223 
4314.000000	65.003371 
4313.000000	65.068888 
4312.000000	65.135455 
4311.000000	65.195989 
4310.000000	65.245652 
4309.000000	65.281772 
4308.000000	65.303421 
4307.000000	65.310883 
4306.000000	65.304708 
4305.000000	65.285491 
4304.000000	65.253686 
4303.000000	65.210533 
4302.000000	65.157914 
4301.000000	65.098762 
4300.000000	65.036535 
4299.000000	64.975166 
4298.000000	64.918446 
4297.000000	64.869809 
4296.000000	64.831900 
4295.000000	64.805674 
4294.000000	64.791226 
4293.000000	64.787840 
4292.000000	64.794111 
4291.000000	64.807796 
4290.000000	64.826393 
4289.000000	64.847064 
4288.000000	64.867210 
4287.000000	64.884424 
4286.000000	64.897108 
4285.000000	64.904046 
4284.000000	64.905428 
4283.000000	64.902520 
4282.000000	64.897608 
4281.000000	64.893269 
4280.000000	64.892053 
4279.000000	64.895892 
4278.000000	64.905667 
4277.000000	64.920830 
4276.000000	64.939808 
4275.000000	64.960002 
4274.000000	64.978289 
4273.000000	64.991259 
4272.000000	64.996266 
4271.000000	64.991426 
4270.000000	64.975619 
4269.000000	64.948892 
4268.000000	64.912390 
4267.000000	64.868593 
4266.000000	64.820432 
4265.000000	64.771986 
4264.000000	64.727592 
4263.000000	64.691829 
4262.000000	64.668536 
4261.000000	64.660835 
4260.000000	64.670157 
4259.000000	64.696836 
4258.000000	64.739632 
4257.000000	64.796137 
4256.000000	64.862537 
4255.000000	64.934682 
4254.000000	65.008473 
4253.000000	65.079951 
4252.000000	65.145587 
4251.000000	65.202832 
4250.000000	65.249896 
4249.000000	65.286159 
4248.000000	65.311789 
4247.000000	65.327763 
4246.000000	65.335202 
4245.000000	65.335774 
4244.000000	65.330815 
4243.000000	65.321683 
4242.000000	65.309143 
4241.000000	65.294170 
4240.000000	65.277695 
4239.000000	65.261077 
4238.000000	65.245890 
4237.000000	65.234184 
4236.000000	65.227484 
4235.000000	65.226626 
4234.000000	65.230917 
4233.000000	65.238189 
4232.000000	65.244579 
4231.000000	65.245175 
4230.000000	65.235209 
4229.000000	65.211248 
4228.000000	65.172743 
4227.000000	65.122699 
4226.000000	65.067076 
4225.000000	65.013551 
4224.000000	64.970421 
4223.000000	64.944553 
4222.000000	64.939284 
4221.000000	64.953827 
4220.000000	64.983630 
4219.000000	65.021514 
4218.000000	65.059542 
4217.000000	65.090727 
4216.000000	65.110826 
4215.000000	65.118741 
4214.000000	65.116405 
4213.000000	65.107727 
4212.000000	65.096235 
4211.000000	65.084862 
4210.000000	65.075063 
4209.000000	65.066862 
4208.000000	65.059828 
4207.000000	65.053248 
4206.000000	65.047764 
4205.000000	65.043950 
4204.000000	65.042352 
4203.000000	65.041995 
4202.000000	65.040302 
4201.000000	65.032911 
4200.000000	65.014934 
4199.000000	64.982056 
4198.000000	64.932298 
4197.000000	64.867234 
4196.000000	64.792490 
4195.000000	64.716911 
4194.000000	64.650964 
4193.000000	64.604043 
4192.000000	64.583110 
4191.000000	64.590382 
4190.000000	64.624047 
4189.000000	64.678740 
4188.000000	64.747428 
4187.000000	64.822816 
4186.000000	64.899349 
4185.000000	64.973473 
4184.000000	65.043973 
4183.000000	65.110468 
4182.000000	65.172910 
4181.000000	65.230512 
4180.000000	65.281152 
4179.000000	65.321969 
4178.000000	65.348815 
4177.000000	65.357947 
4176.000000	65.346240 
4175.000000	65.313172 
4174.000000	65.260267 
4173.000000	65.191674 
4172.000000	65.113806 
4171.000000	65.034747 
4170.000000	64.962840 
4169.000000	64.905500 
4168.000000	64.868426 
4167.000000	64.854383 
4166.000000	64.862704 
4165.000000	64.889383 
4164.000000	64.928007 
4163.000000	64.970946 
4162.000000	65.010285 
4161.000000	65.039753 
4160.000000	65.055489 
4159.000000	65.056633 
