PE IR       SPECTRUM    SPECTRUM    ASCII       PEDS        1.60        
  -1
BZ60B0~1.ASC
17/04/07
16:19:45.00
17/04/07
16:19:45.00
tln
$BZ1503107-1_t0038$<tbV0>[2.6,-5.2,8.0,0.0,27,1,0]
370.000000
64









2002,4.07    
MIRTGS : RIGHTBACK : INTERNAL 2
MIR : ON : INTERNAL 2
OPTKBR

0.200000
8
8.000000
FILLER
RATIO
SPECTRUM
UNLOCKED 256

DOUBLE
64
COMBINED
1
0
0


1.000000
RATIO


1
0
TRUE
51149
0
LEFT NOT FITTED RIGHT NOT FITTED 0
NONE
NONE
15600
12.000000
4.427000
51148
TRUE
1 0 8 72 0 0 0 0 

15798.010000






#HDR
-1
-1
#GR
CM-1
%T
0.00002384185791015625
0.0
5000.000000
-1.000000
4631
8
79.389619
53.178691
#DATA
5000.000000	65.534782 
4999.000000	65.395498 
4998.000000	65.214943 
4997.000000	65.005588 
4996.000000	64.783239 
4995.000000	64.565563 
4994.000000	64.370894 
4993.000000	64.215826 
4992.000000	64.114117 
4991.000000	64.074468 
4990.000000	64.099526 
4989.000000	64.184331 
4988.000000	64.317202 
4987.000000	64.480662 
4986.000000	64.653086 
4985.000000	64.811635 
4984.000000	64.936137 
4983.000000	65.012264 
4982.000000	65.033817 
4981.000000	65.003538 
4980.000000	64.933037 
4979.000000	64.839577 
4978.000000	64.743638 
4977.000000	64.663219 
4976.000000	64.610886 
4975.000000	64.590287 
4974.000000	64.596915 
4973.000000	64.619421 
4972.000000	64.643621 
4971.000000	64.656710 
4970.000000	64.650893 
4969.000000	64.625501 
4968.000000	64.586353 
4967.000000	64.544510 
4966.000000	64.511609 
4965.000000	64.497375 
4964.000000	64.505696 
4963.000000	64.534616 
4962.000000	64.576888 
4961.000000	64.622664 
4960.000000	64.662218 
4959.000000	64.689159 
4958.000000	64.702272 
4957.000000	64.704966 
4956.000000	64.703845 
4955.000000	64.705491 
4954.000000	64.714002 
4953.000000	64.730167 
4952.000000	64.751458 
4951.000000	64.772844 
4950.000000	64.789175 
4949.000000	64.797616 
4948.000000	64.798784 
4947.000000	64.798092 
4946.000000	64.802765 
4945.000000	64.819455 
4944.000000	64.850664 
4943.000000	64.894533 
4942.000000	64.942574 
4941.000000	64.981794 
4940.000000	64.997005 
4939.000000	64.975547 
4938.000000	64.910626 
4937.000000	64.803719 
4936.000000	64.665389 
4935.000000	64.513278 
4934.000000	64.368748 
4933.000000	64.252090 
4932.000000	64.177942 
4931.000000	64.152336 
4930.000000	64.171028 
4929.000000	64.221215 
4928.000000	64.283990 
4927.000000	64.339852 
4926.000000	64.373064 
4925.000000	64.376258 
4924.000000	64.351010 
4923.000000	64.308190 
4922.000000	64.263963 
4921.000000	64.236402 
4920.000000	64.240431 
4919.000000	64.284276 
4918.000000	64.367866 
4917.000000	64.482474 
4916.000000	64.613914 
4915.000000	64.745140 
4914.000000	64.860415 
4913.000000	64.948248 
4912.000000	65.003561 
4911.000000	65.027499 
4910.000000	65.025711 
4909.000000	65.006446 
4908.000000	64.978051 
4907.000000	64.947104 
4906.000000	64.917755 
4905.000000	64.891052 
4904.000000	64.866685 
4903.000000	64.842653 
4902.000000	64.817190 
4901.000000	64.789509 
4900.000000	64.760613 
4899.000000	64.733266 
4898.000000	64.711666 
4897.000000	64.700365 
4896.000000	64.702987 
4895.000000	64.721345 
4894.000000	64.754629 
4893.000000	64.798879 
4892.000000	64.848279 
4891.000000	64.895868 
4890.000000	64.936065 
4889.000000	64.965510 
4888.000000	64.984488 
4887.000000	64.996504 
4886.000000	65.007138 
4885.000000	65.022516 
4884.000000	65.046644 
4883.000000	65.080332 
4882.000000	65.119600 
4881.000000	65.156626 
4880.000000	65.181398 
4879.000000	65.184974 
4878.000000	65.161299 
4877.000000	65.109491 
4876.000000	65.033531 
4875.000000	64.941740 
4874.000000	64.844655 
4873.000000	64.753150 
4872.000000	64.676117 
4871.000000	64.619541 
4870.000000	64.585900 
4869.000000	64.574956 
4868.000000	64.584422 
4867.000000	64.611315 
4866.000000	64.652323 
4865.000000	64.704799 
4864.000000	64.766192 
4863.000000	64.834666 
4862.000000	64.907479 
4861.000000	64.982128 
4860.000000	65.055608 
4859.000000	65.124893 
4858.000000	65.187096 
4857.000000	65.239286 
4856.000000	65.279245 
4855.000000	65.304827 
4854.000000	65.314722 
4853.000000	65.308475 
4852.000000	65.287089 
4851.000000	65.253162 
4850.000000	65.211081 
4849.000000	65.166306 
4848.000000	65.124773 
4847.000000	65.091753 
4846.000000	65.070748 
4845.000000	65.062880 
4844.000000	65.066671 
4843.000000	65.078711 
4842.000000	65.094637 
4841.000000	65.109467 
4840.000000	65.119504 
4839.000000	65.122723 
4838.000000	65.119647 
4837.000000	65.112829 
4836.000000	65.106225 
4835.000000	65.103292 
4834.000000	65.106511 
4833.000000	65.116810 
4832.000000	65.133070 
4831.000000	65.152430 
4830.000000	65.171265 
4829.000000	65.186595 
4828.000000	65.196180 
4827.000000	65.199375 
4826.000000	65.196585 
4825.000000	65.189194 
4824.000000	65.178179 
4823.000000	65.163826 
4822.000000	65.145492 
4821.000000	65.122199 
4820.000000	65.093326 
4819.000000	65.059828 
4818.000000	65.024781 
4817.000000	64.993119 
4816.000000	64.971113 
4815.000000	64.964127 
4814.000000	64.975047 
4813.000000	65.002155 
4812.000000	65.038967 
4811.000000	65.075206 
4810.000000	65.098619 
4809.000000	65.098381 
4808.000000	65.067768 
4807.000000	65.006446 
4806.000000	64.920616 
4805.000000	64.822340 
4804.000000	64.726376 
4803.000000	64.646863 
4802.000000	64.593720 
4801.000000	64.570569 
4800.000000	64.574337 
4799.000000	64.596796 
4798.000000	64.627337 
4797.000000	64.655971 
4796.000000	64.676117 
4795.000000	64.685750 
4794.000000	64.687156 
4793.000000	64.685344 
4792.000000	64.685916 
4791.000000	64.692950 
4790.000000	64.707493 
4789.000000	64.727735 
4788.000000	64.749503 
4787.000000	64.767861 
4786.000000	64.778900 
4785.000000	64.781332 
4784.000000	64.777183 
4783.000000	64.770865 
4782.000000	64.768433 
4781.000000	64.775490 
4780.000000	64.796185 
4779.000000	64.831900 
4778.000000	64.880800 
4777.000000	64.938116 
4776.000000	64.997172 
4775.000000	65.050888 
4774.000000	65.093278 
4773.000000	65.120720 
4772.000000	65.132737 
4771.000000	65.131688 
4770.000000	65.122556 
4769.000000	65.111851 
4768.000000	65.105080 
4767.000000	65.105795 
4766.000000	65.114569 
4765.000000	65.129232 
4764.000000	65.146088 
4763.000000	65.161395 
4762.000000	65.172743 
4761.000000	65.180134 
4760.000000	65.186405 
4759.000000	65.196251 
4758.000000	65.214514 
4757.000000	65.244364 
4756.000000	65.286159 
4755.000000	65.336132 
4754.000000	65.386962 
4753.000000	65.428757 
4752.000000	65.451717 
4751.000000	65.448331 
4750.000000	65.415358 
4749.000000	65.355253 
4748.000000	65.275502 
4747.000000	65.188026 
4746.000000	65.106225 
4745.000000	65.043210 
4744.000000	65.008926 
4743.000000	65.008711 
4742.000000	65.042567 
4741.000000	65.104889 
4740.000000	65.185785 
4739.000000	65.273046 
4738.000000	65.354537 
4737.000000	65.420126 
4736.000000	65.463352 
4735.000000	65.481448 
4734.000000	65.475368 
4733.000000	65.448617 
4732.000000	65.405917 
4731.000000	65.351867 
4730.000000	65.290331 
4729.000000	65.225219 
4728.000000	65.160012 
4727.000000	65.098714 
4726.000000	65.045475 
4725.000000	65.004920 
4724.000000	64.981055 
4723.000000	64.976143 
4722.000000	64.990448 
4721.000000	65.021681 
4720.000000	65.066099 
4719.000000	65.118169 
4718.000000	65.173840 
4717.000000	65.230560 
4716.000000	65.288400 
4715.000000	65.349268 
4714.000000	65.415358 
4713.000000	65.487313 
4712.000000	65.562844 
4711.000000	65.635871 
4710.000000	65.697193 
4709.000000	65.735864 
4708.000000	65.742230 
4707.000000	65.709877 
4706.000000	65.638113 
4705.000000	65.532183 
4704.000000	65.402698 
4703.000000	65.263533 
4702.000000	65.129113 
4701.000000	65.011858 
4700.000000	64.920473 
4699.000000	64.858889 
4698.000000	64.826607 
4697.000000	64.819741 
4696.000000	64.832806 
4695.000000	64.859724 
4694.000000	64.894700 
4693.000000	64.932894 
4692.000000	64.969778 
4691.000000	65.001940 
4690.000000	65.026378 
4689.000000	65.041089 
4688.000000	65.044641 
4687.000000	65.036916 
4686.000000	65.019226 
4685.000000	64.994025 
4684.000000	64.964485 
4683.000000	64.933967 
4682.000000	64.905500 
4681.000000	64.881229 
4680.000000	64.862298 
4679.000000	64.848804 
4678.000000	64.840292 
4677.000000	64.836239 
4676.000000	64.836168 
4675.000000	64.839577 
4674.000000	64.846372 
4673.000000	64.856290 
4672.000000	64.869117 
4671.000000	64.884018 
4670.000000	64.900112 
4669.000000	64.916443 
4668.000000	64.931941 
4667.000000	64.945220 
4666.000000	64.954781 
4665.000000	64.959335 
4664.000000	64.957904 
4663.000000	64.950108 
4662.000000	64.936327 
4661.000000	64.917850 
4660.000000	64.896988 
4659.000000	64.876747 
4658.000000	64.860582 
4657.000000	64.851665 
4656.000000	64.852356 
4655.000000	64.863753 
4654.000000	64.885663 
4653.000000	64.916586 
4652.000000	64.954018 
4651.000000	64.994788 
4650.000000	65.035629 
4649.000000	65.073394 
4648.000000	65.104961 
4647.000000	65.127420 
4646.000000	65.138077 
4645.000000	65.134787 
4644.000000	65.116810 
4643.000000	65.084958 
4642.000000	65.041971 
4641.000000	64.992523 
4640.000000	64.942908 
4639.000000	64.899754 
4638.000000	64.869093 
4637.000000	64.854860 
4636.000000	64.858269 
4635.000000	64.877367 
4634.000000	64.907550 
4633.000000	64.943075 
4632.000000	64.978361 
4631.000000	65.009546 
4630.000000	65.035200 
4629.000000	65.056419 
4628.000000	65.076017 
4627.000000	65.097355 
4626.000000	65.122914 
4625.000000	65.152931 
4624.000000	65.184807 
4623.000000	65.213942 
4622.000000	65.233778 
4621.000000	65.238213 
4620.000000	65.222287 
4619.000000	65.184259 
4618.000000	65.125703 
4617.000000	65.051555 
4616.000000	64.969301 
4615.000000	64.887714 
4614.000000	64.815092 
4613.000000	64.758014 
4612.000000	64.719939 
4611.000000	64.701390 
4610.000000	64.699435 
4609.000000	64.708662 
4608.000000	64.722466 
4607.000000	64.734625 
4606.000000	64.740800 
4605.000000	64.739179 
4604.000000	64.730596 
4603.000000	64.717984 
4602.000000	64.705610 
4601.000000	64.697957 
4600.000000	64.697790 
4599.000000	64.705753 
4598.000000	64.720273 
4597.000000	64.738178 
4596.000000	64.755988 
4595.000000	64.770960 
4594.000000	64.781808 
4593.000000	64.789223 
4592.000000	64.795637 
4591.000000	64.804339 
4590.000000	64.817714 
4589.000000	64.837265 
4588.000000	64.862298 
4587.000000	64.891290 
4586.000000	64.921927 
4585.000000	64.952445 
4584.000000	64.982843 
4583.000000	65.013647 
4582.000000	65.045642 
4581.000000	65.078425 
4580.000000	65.110230 
4579.000000	65.136218 
4578.000000	65.149188 
4577.000000	65.141391 
4576.000000	65.107107 
4575.000000	65.044212 
4574.000000	64.956259 
4573.000000	64.852738 
4572.000000	64.748072 
4571.000000	64.658999 
4570.000000	64.601349 
4569.000000	64.585852 
4568.000000	64.616203 
4567.000000	64.688587 
4566.000000	64.792227 
4565.000000	64.911651 
4564.000000	65.030241 
4563.000000	65.133404 
4562.000000	65.211033 
4561.000000	65.258264 
4560.000000	65.276098 
4559.000000	65.269804 
4558.000000	65.247368 
4557.000000	65.216732 
4556.000000	65.185475 
4555.000000	65.159726 
4554.000000	65.144443 
4553.000000	65.143442 
4552.000000	65.160155 
4551.000000	65.197348 
4550.000000	65.256500 
4549.000000	65.336632 
4548.000000	65.433144 
4547.000000	65.536856 
4546.000000	65.635013 
4545.000000	65.712642 
4544.000000	65.755605 
4543.000000	65.753173 
4542.000000	65.701580 
4541.000000	65.604639 
4540.000000	65.473914 
4539.000000	65.326046 
4538.000000	65.180420 
4537.000000	65.054011 
4536.000000	64.959025 
4535.000000	64.899778 
4534.000000	64.872980 
4533.000000	64.868760 
4532.000000	64.874505 
4531.000000	64.877963 
4530.000000	64.869666 
4529.000000	64.846611 
4528.000000	64.811706 
4527.000000	64.773488 
4526.000000	64.742231 
4525.000000	64.728093 
4524.000000	64.737725 
4523.000000	64.772796 
4522.000000	64.829206 
4521.000000	64.898896 
4520.000000	64.971542 
4519.000000	65.037274 
4518.000000	65.088272 
4517.000000	65.119981 
4516.000000	65.131568 
4515.000000	65.125322 
4514.000000	65.105509 
4513.000000	65.077137 
4512.000000	65.044569 
4511.000000	65.011596 
4510.000000	64.979934 
4509.000000	64.950108 
4508.000000	64.921116 
4507.000000	64.891934 
4506.000000	64.861941 
4505.000000	64.831233 
4504.000000	64.801073 
4503.000000	64.773964 
4502.000000	64.752364 
4501.000000	64.738082 
4500.000000	64.730954 
4499.000000	64.728498 
4498.000000	64.725875 
4497.000000	64.717316 
4496.000000	64.697217 
4495.000000	64.662265 
4494.000000	64.613127 
4493.000000	64.555501 
4492.000000	64.499568 
4491.000000	64.458608 
4490.000000	64.445805 
4489.000000	64.471101 
4488.000000	64.539074 
4487.000000	64.646363 
4486.000000	64.781761 
4485.000000	64.927673 
4484.000000	65.064120 
4483.000000	65.171909 
4482.000000	65.236353 
4481.000000	65.250158 
4480.000000	65.215420 
4479.000000	65.141057 
4478.000000	65.039873 
4477.000000	64.926099 
4476.000000	64.812612 
4475.000000	64.708685 
4474.000000	64.619588 
4473.000000	64.547038 
4472.000000	64.491319 
4471.000000	64.449691 
4470.000000	64.418196 
4469.000000	64.393305 
4468.000000	64.373755 
4467.000000	64.361000 
4466.000000	64.359688 
4465.000000	64.376783 
4464.000000	64.420199 
4463.000000	64.495038 
4462.000000	64.602851 
4461.000000	64.740276 
4460.000000	64.899563 
4459.000000	65.068817 
4458.000000	65.236091 
4457.000000	65.386486 
4456.000000	65.511083 
4455.000000	65.616440 
4454.000000	65.713572 
4453.000000	65.809822 
4452.000000	65.909886 
4451.000000	66.014862 
4450.000000	66.119980 
4449.000000	66.214489 
4448.000000	66.290950 
4447.000000	66.347813 
4446.000000	66.396617 
4445.000000	66.462516 
4444.000000	66.569924 
4443.000000	66.734385 
4442.000000	66.958045 
4441.000000	67.228221 
4440.000000	67.511200 
4439.000000	67.765665 
4438.000000	67.958664 
4437.000000	68.075823 
4436.000000	68.141961 
4435.000000	68.195176 
4434.000000	68.296098 
4433.000000	68.466949 
4432.000000	68.681502 
4431.000000	68.837523 
4430.000000	68.775892 
4429.000000	68.316793 
4428.000000	67.316007 
4427.000000	65.715003 
4426.000000	63.576292 
4425.000000	61.087346 
4424.000000	58.522534 
4423.000000	56.202745 
4422.000000	54.411435 
4421.000000	53.368020 
4420.000000	53.178691 
4419.000000	53.837370 
4418.000000	55.231070 
4417.000000	57.173681 
4416.000000	59.442281 
4415.000000	61.806416 
4414.000000	64.059853 
4413.000000	66.035866 
4412.000000	67.621636 
4411.000000	68.753147 
4410.000000	69.415950 
4409.000000	69.644713 
4408.000000	69.504928 
4407.000000	69.102263 
4406.000000	68.541669 
4405.000000	67.928862 
4404.000000	67.335295 
4403.000000	66.810274 
4402.000000	66.365218 
4401.000000	65.994858 
4400.000000	65.680360 
4399.000000	65.414476 
4398.000000	65.196681 
4397.000000	65.033340 
4396.000000	64.935636 
4395.000000	64.907932 
4394.000000	64.948844 
4393.000000	65.041947 
4392.000000	65.168118 
4391.000000	65.308141 
4390.000000	65.441823 
4389.000000	65.550565 
4388.000000	65.621304 
4387.000000	65.647363 
4386.000000	65.632224 
4385.000000	65.587592 
4384.000000	65.523886 
4383.000000	65.449690 
4382.000000	65.378093 
4381.000000	65.320825 
4380.000000	65.282535 
4379.000000	65.262722 
4378.000000	65.260291 
4377.000000	65.272068 
4376.000000	65.293812 
4375.000000	65.321397 
4374.000000	65.349864 
4373.000000	65.375638 
4372.000000	65.398645 
4371.000000	65.418767 
4370.000000	65.434002 
4369.000000	65.441536 
4368.000000	65.438461 
4367.000000	65.421581 
4366.000000	65.388417 
4365.000000	65.338659 
4364.000000	65.275120 
4363.000000	65.202188 
4362.000000	65.125536 
4361.000000	65.050339 
4360.000000	64.980936 
4359.000000	64.921593 
4358.000000	64.876627 
4357.000000	64.849543 
4356.000000	64.843010 
4355.000000	64.858722 
4354.000000	64.896512 
4353.000000	64.952945 
4352.000000	65.022182 
4351.000000	65.095734 
4350.000000	65.164709 
4349.000000	65.221166 
4348.000000	65.259766 
4347.000000	65.278387 
4346.000000	65.278768 
4345.000000	65.265870 
4344.000000	65.246438 
4343.000000	65.227484 
4342.000000	65.214371 
4341.000000	65.210223 
4340.000000	65.214586 
4339.000000	65.224194 
4338.000000	65.233659 
4337.000000	65.237236 
4336.000000	65.228962 
4335.000000	65.203976 
4334.000000	65.159153 
4333.000000	65.093803 
4332.000000	65.008854 
4331.000000	64.907264 
4330.000000	64.793992 
4329.000000	64.675736 
4328.000000	64.560055 
4327.000000	64.454960 
4326.000000	64.368128 
4325.000000	64.306187 
4324.000000	64.272999 
4323.000000	64.269614 
4322.000000	64.293217 
4321.000000	64.338517 
4320.000000	64.397597 
4319.000000	64.462375 
4318.000000	64.524412 
4317.000000	64.577984 
4316.000000	64.619612 
4315.000000	64.649605 
4314.000000	64.670395 
4313.000000	64.687013 
4312.000000	64.705133 
4311.000000	64.730048 
4310.000000	64.765262 
4309.000000	64.811539 
4308.000000	64.866805 
4307.000000	64.926314 
4306.000000	64.984035 
4305.000000	65.033912 
4304.000000	65.071487 
4303.000000	65.095138 
4302.000000	65.106415 
4301.000000	65.109658 
4300.000000	65.110611 
4299.000000	65.115499 
4298.000000	65.129160 
4297.000000	65.153264 
4296.000000	65.186285 
4295.000000	65.224409 
4294.000000	65.262484 
4293.000000	65.295553 
4292.000000	65.320110 
4291.000000	65.335464 
4290.000000	65.342855 
4289.000000	65.345072 
4288.000000	65.344500 
4287.000000	65.342140 
4286.000000	65.337038 
4285.000000	65.326738 
4284.000000	65.307641 
4283.000000	65.276765 
4282.000000	65.232729 
4281.000000	65.176987 
4280.000000	65.113544 
4279.000000	65.048646 
4278.000000	64.989495 
4277.000000	64.943027 
4276.000000	64.913845 
4275.000000	64.903807 
4274.000000	64.911723 
4273.000000	64.934158 
4272.000000	64.965701 
4271.000000	65.000724 
4270.000000	65.034127 
4269.000000	65.062522 
4268.000000	65.083837 
4267.000000	65.097784 
4266.000000	65.104889 
4265.000000	65.106344 
4264.000000	65.103316 
4263.000000	65.096783 
4262.000000	65.087461 
4261.000000	65.075874 
4260.000000	65.062665 
4259.000000	65.048646 
4258.000000	65.035057 
4257.000000	65.023255 
4256.000000	65.014600 
4255.000000	65.009784 
4254.000000	65.008735 
4253.000000	65.010452 
4252.000000	65.013122 
4251.000000	65.014481 
4250.000000	65.012478 
4249.000000	65.005660 
4248.000000	64.993786 
4247.000000	64.977836 
4246.000000	64.960050 
4245.000000	64.943337 
4244.000000	64.931130 
4243.000000	64.926171 
4242.000000	64.930486 
4241.000000	64.944767 
4240.000000	64.968276 
4239.000000	64.999246 
4238.000000	65.034961 
4237.000000	65.072417 
4236.000000	65.108823 
4235.000000	65.141868 
4234.000000	65.170049 
4233.000000	65.192437 
4232.000000	65.208745 
4231.000000	65.218949 
4230.000000	65.223145 
4229.000000	65.221595 
4228.000000	65.214467 
4227.000000	65.201997 
4226.000000	65.184760 
4225.000000	65.163564 
4224.000000	65.139341 
4223.000000	65.112948 
4222.000000	65.085124 
4221.000000	65.056443 
4220.000000	65.027284 
4219.000000	64.998555 
4218.000000	64.970803 
4217.000000	64.945483 
4216.000000	64.924716 
4215.000000	64.911580 
4214.000000	64.909005 
4213.000000	64.919400 
4212.000000	64.943218 
4211.000000	64.978933 
4210.000000	65.022397 
4209.000000	65.067625 
4208.000000	65.107655 
4207.000000	65.135931 
4206.000000	65.147471 
4205.000000	65.140438 
4204.000000	65.116548 
4203.000000	65.080904 
4202.000000	65.040898 
4201.000000	65.005230 
4200.000000	64.981818 
4199.000000	64.976692 
4198.000000	64.991974 
4197.000000	65.025401 
4196.000000	65.070009 
4195.000000	65.115928 
4194.000000	65.151977 
4193.000000	65.167474 
4192.000000	65.155124 
4191.000000	65.112304 
4190.000000	65.042495 
4189.000000	64.954543 
4188.000000	64.861249 
4187.000000	64.776897 
4186.000000	64.714002 
4185.000000	64.681148 
4184.000000	64.680576 
4183.000000	64.708471 
4182.000000	64.755439 
4181.000000	64.808845 
4180.000000	64.855766 
4179.000000	64.885687 
4178.000000	64.892840 
4177.000000	64.876723 
4176.000000	64.842295 
4175.000000	64.797782 
4174.000000	64.753508 
4173.000000	64.719057 
4172.000000	64.702224 
4171.000000	64.707279 
4170.000000	64.735078 
4169.000000	64.783000 
4168.000000	64.846253 
4167.000000	64.918303 
4166.000000	64.991903 
4165.000000	65.059733 
4164.000000	65.114784 
4163.000000	65.151786 
4162.000000	65.167522 
4161.000000	65.161824 
4160.000000	65.137243 
4159.000000	65.099215 
