PE IR       SPECTRUM    SPECTRUM    ASCII       PEDS        1.60        
  -1
BZ6FA1~1.ASC
17/04/07
14:34:59.00
17/04/07
14:34:59.00
tln
$BZ1503107-1_t0017$<tbV0>[0.0,-10.4,8.0,0.0,27,1,0]
370.000000
64









2002,4.07    
MIRTGS : RIGHTBACK : INTERNAL 2
MIR : ON : INTERNAL 2
OPTKBR

0.200000
8
8.000000
FILLER
RATIO
SPECTRUM
UNLOCKED 256

DOUBLE
64
COMBINED
1
0
0


1.000000
RATIO


1
0
TRUE
51149
0
LEFT NOT FITTED RIGHT NOT FITTED 0
NONE
NONE
15600
12.000000
4.427000
51148
TRUE
1 0 8 72 0 0 0 0 

15798.010000






#HDR
-1
-1
#GR
CM-1
%T
0.00002384185791015625
0.0
5000.000000
-1.000000
4631
8
75.257253
45.221090
#DATA
5000.000000	66.783714 
4999.000000	67.059397 
4998.000000	67.298102 
4997.000000	67.497920 
4996.000000	67.653727 
4995.000000	67.759156 
4994.000000	67.799496 
4993.000000	67.758345 
4992.000000	67.617058 
4991.000000	67.364859 
4990.000000	67.001414 
4989.000000	66.544198 
4988.000000	66.024923 
4987.000000	65.487360 
4986.000000	64.978909 
4985.000000	64.542961 
4984.000000	64.212107 
4983.000000	64.004039 
4982.000000	63.920187 
4981.000000	63.948559 
4980.000000	64.069056 
4979.000000	64.259505 
4978.000000	64.497327 
4977.000000	64.764118 
4976.000000	65.043854 
4975.000000	65.323925 
4974.000000	65.589165 
4973.000000	65.824294 
4972.000000	66.015195 
4971.000000	66.148972 
4970.000000	66.218352 
4969.000000	66.218996 
4968.000000	66.154050 
4967.000000	66.029644 
4966.000000	65.857076 
4965.000000	65.648746 
4964.000000	65.419363 
4963.000000	65.183401 
4962.000000	64.955997 
4961.000000	64.750123 
4960.000000	64.576196 
4959.000000	64.441871 
4958.000000	64.352035 
4957.000000	64.308524 
4956.000000	64.310002 
4955.000000	64.353322 
4954.000000	64.433145 
4953.000000	64.540386 
4952.000000	64.662170 
4951.000000	64.782452 
4950.000000	64.883470 
4949.000000	64.946103 
4948.000000	64.955258 
4947.000000	64.901208 
4946.000000	64.785408 
4945.000000	64.621949 
4944.000000	64.436531 
4943.000000	64.262342 
4942.000000	64.132595 
4941.000000	64.074206 
4940.000000	64.100146 
4939.000000	64.206171 
4938.000000	64.372158 
4937.000000	64.567184 
4936.000000	64.756870 
4935.000000	64.911842 
4934.000000	65.012645 
4933.000000	65.052366 
4932.000000	65.035986 
4931.000000	64.977049 
4930.000000	64.891195 
4929.000000	64.791440 
4928.000000	64.686489 
4927.000000	64.580535 
4926.000000	64.475321 
4925.000000	64.373040 
4924.000000	64.279651 
4923.000000	64.205121 
4922.000000	64.161753 
4921.000000	64.161467 
4920.000000	64.210033 
4919.000000	64.306449 
4918.000000	64.441132 
4917.000000	64.598369 
4916.000000	64.758777 
4915.000000	64.903664 
4914.000000	65.018320 
4913.000000	65.094566 
4912.000000	65.131688 
4911.000000	65.134978 
4910.000000	65.113091 
4909.000000	65.075993 
4908.000000	65.032696 
4907.000000	64.989662 
4906.000000	64.950895 
4905.000000	64.917898 
4904.000000	64.891266 
4903.000000	64.871025 
4902.000000	64.857745 
4901.000000	64.851975 
4900.000000	64.854240 
4899.000000	64.864206 
4898.000000	64.880514 
4897.000000	64.901161 
4896.000000	64.923667 
4895.000000	64.944505 
4894.000000	64.960289 
4893.000000	64.968442 
4892.000000	64.968347 
4891.000000	64.961457 
4890.000000	64.951252 
4889.000000	64.942741 
4888.000000	64.940881 
4887.000000	64.949798 
4886.000000	64.970779 
4885.000000	65.001392 
4884.000000	65.036416 
4883.000000	65.069580 
4882.000000	65.094733 
4881.000000	65.107107 
4880.000000	65.105438 
4879.000000	65.092253 
4878.000000	65.073752 
4877.000000	65.058445 
4876.000000	65.055155 
4875.000000	65.070939 
4874.000000	65.109801 
4873.000000	65.171694 
4872.000000	65.252947 
4871.000000	65.347075 
4870.000000	65.446162 
4869.000000	65.542244 
4868.000000	65.628886 
4867.000000	65.701365 
4866.000000	65.757083 
4865.000000	65.794587 
4864.000000	65.814304 
4863.000000	65.816259 
4862.000000	65.801072 
4861.000000	65.768218 
4860.000000	65.717291 
4859.000000	65.648031 
4858.000000	65.561866 
4857.000000	65.462708 
4856.000000	65.357422 
4855.000000	65.255689 
4854.000000	65.168762 
4853.000000	65.107607 
4852.000000	65.080690 
4851.000000	65.091276 
4850.000000	65.136480 
4849.000000	65.207266 
4848.000000	65.290307 
4847.000000	65.370440 
4846.000000	65.433669 
4845.000000	65.469956 
4844.000000	65.474724 
4843.000000	65.449237 
4842.000000	65.399336 
4841.000000	65.333795 
4840.000000	65.261411 
4839.000000	65.188860 
4838.000000	65.119719 
4837.000000	65.055084 
4836.000000	64.994573 
4835.000000	64.938735 
4834.000000	64.889597 
4833.000000	64.851045 
4832.000000	64.828276 
4831.000000	64.826560 
4830.000000	64.848828 
4829.000000	64.893412 
4828.000000	64.954161 
4827.000000	65.020179 
4826.000000	65.079140 
4825.000000	65.119624 
4824.000000	65.135049 
4823.000000	65.125298 
4822.000000	65.097522 
4821.000000	65.064096 
4820.000000	65.039706 
4819.000000	65.036845 
4818.000000	65.061426 
4817.000000	65.110707 
4816.000000	65.173101 
4815.000000	65.231847 
4814.000000	65.269589 
4813.000000	65.274858 
4812.000000	65.244507 
4811.000000	65.187501 
4810.000000	65.122961 
4809.000000	65.076494 
4808.000000	65.073180 
4807.000000	65.130758 
4806.000000	65.254998 
4805.000000	65.435981 
4804.000000	65.651273 
4803.000000	65.868496 
4802.000000	66.054201 
4801.000000	66.179442 
4800.000000	66.226553 
4799.000000	66.192746 
4798.000000	66.090083 
4797.000000	65.942382 
4796.000000	65.778827 
4795.000000	65.628409 
4794.000000	65.513515 
4793.000000	65.447330 
4792.000000	65.431928 
4791.000000	65.459012 
4790.000000	65.512323 
4789.000000	65.572547 
4788.000000	65.620803 
4787.000000	65.641093 
4786.000000	65.623784 
4785.000000	65.564513 
4784.000000	65.466928 
4783.000000	65.340995 
4782.000000	65.201663 
4781.000000	65.066361 
4780.000000	64.950370 
4779.000000	64.865970 
4778.000000	64.817023 
4777.000000	64.800167 
4776.000000	64.803266 
4775.000000	64.808893 
4774.000000	64.798283 
4773.000000	64.755320 
4772.000000	64.672923 
4771.000000	64.554476 
4770.000000	64.415216 
4769.000000	64.277935 
4768.000000	64.170956 
4767.000000	64.120793 
4766.000000	64.146780 
4765.000000	64.255261 
4764.000000	64.437627 
4763.000000	64.670419 
4762.000000	64.920759 
4761.000000	65.152120 
4760.000000	65.330767 
4759.000000	65.432476 
4758.000000	65.446114 
4757.000000	65.375614 
4756.000000	65.237402 
4755.000000	65.056943 
4754.000000	64.862871 
4753.000000	64.681816 
4752.000000	64.534997 
4751.000000	64.434814 
4750.000000	64.386415 
4749.000000	64.386463 
4748.000000	64.426350 
4747.000000	64.493799 
4746.000000	64.576148 
4745.000000	64.661169 
4744.000000	64.737653 
4743.000000	64.797067 
4742.000000	64.833283 
4741.000000	64.844393 
4740.000000	64.832210 
4739.000000	64.802455 
4738.000000	64.763331 
4737.000000	64.724397 
4736.000000	64.694285 
4735.000000	64.679694 
4734.000000	64.683508 
4733.000000	64.705014 
4732.000000	64.739370 
4731.000000	64.779448 
4730.000000	64.816522 
4729.000000	64.842987 
4728.000000	64.853048 
4727.000000	64.843106 
4726.000000	64.813208 
4725.000000	64.765763 
4724.000000	64.707231 
4723.000000	64.646363 
4722.000000	64.593672 
4721.000000	64.559412 
4720.000000	64.551901 
4719.000000	64.577102 
4718.000000	64.634490 
4717.000000	64.717054 
4716.000000	64.811205 
4715.000000	64.899301 
4714.000000	64.963579 
4713.000000	64.990425 
4712.000000	64.973711 
4711.000000	64.916443 
4710.000000	64.830303 
4709.000000	64.732933 
4708.000000	64.643645 
4707.000000	64.578795 
4706.000000	64.548611 
4705.000000	64.554786 
4704.000000	64.591407 
4703.000000	64.646744 
4702.000000	64.706945 
4701.000000	64.760065 
4700.000000	64.798021 
4699.000000	64.819288 
4698.000000	64.827346 
4697.000000	64.830303 
4696.000000	64.836812 
4695.000000	64.854502 
4694.000000	64.887356 
4693.000000	64.934825 
4692.000000	64.993000 
4691.000000	65.054225 
4690.000000	65.109682 
4689.000000	65.151238 
4688.000000	65.173792 
4687.000000	65.176653 
4686.000000	65.163564 
4685.000000	65.141868 
4684.000000	65.120244 
4683.000000	65.106511 
4682.000000	65.105128 
4681.000000	65.116047 
4680.000000	65.134334 
4679.000000	65.151786 
4678.000000	65.159058 
4677.000000	65.148854 
4676.000000	65.117859 
4675.000000	65.067243 
4674.000000	65.003180 
4673.000000	64.934611 
4672.000000	64.872288 
4671.000000	64.825820 
4670.000000	64.802694 
4669.000000	64.805793 
4668.000000	64.834785 
4667.000000	64.887142 
4666.000000	64.958262 
4665.000000	65.042734 
4664.000000	65.133953 
4663.000000	65.224719 
4662.000000	65.306830 
4661.000000	65.371608 
4660.000000	65.411210 
4659.000000	65.419983 
4658.000000	65.396094 
4657.000000	65.342545 
4656.000000	65.267562 
4655.000000	65.183544 
4654.000000	65.104818 
4653.000000	65.044879 
4652.000000	65.014314 
4651.000000	65.017700 
4650.000000	65.053677 
4649.000000	65.114140 
4648.000000	65.186691 
4647.000000	65.256357 
4646.000000	65.309071 
4645.000000	65.333914 
4644.000000	65.324640 
4643.000000	65.280866 
4642.000000	65.207314 
4641.000000	65.113139 
4640.000000	65.009355 
4639.000000	64.907622 
4638.000000	64.818191 
4637.000000	64.748620 
4636.000000	64.703321 
4635.000000	64.682960 
4634.000000	64.685201 
4633.000000	64.705538 
4632.000000	64.738130 
4631.000000	64.776277 
4630.000000	64.813113 
4629.000000	64.842605 
4628.000000	64.860153 
4627.000000	64.862346 
4626.000000	64.847683 
4625.000000	64.816904 
4624.000000	64.773201 
4623.000000	64.722228 
4622.000000	64.671254 
4621.000000	64.628124 
4620.000000	64.600038 
4619.000000	64.592695 
4618.000000	64.608550 
4617.000000	64.646291 
4616.000000	64.700770 
4615.000000	64.763736 
4614.000000	64.825797 
4613.000000	64.878129 
4612.000000	64.914631 
4611.000000	64.932799 
4610.000000	64.934182 
4609.000000	64.923453 
4608.000000	64.907097 
4607.000000	64.891529 
4606.000000	64.880299 
4605.000000	64.873194 
4604.000000	64.866113 
4603.000000	64.852523 
4602.000000	64.825487 
4601.000000	64.780235 
4600.000000	64.715838 
4599.000000	64.636397 
4598.000000	64.549970 
4597.000000	64.467740 
4596.000000	64.400863 
4595.000000	64.359045 
4594.000000	64.347934 
4593.000000	64.368748 
4592.000000	64.418387 
4591.000000	64.489889 
4590.000000	64.573621 
4589.000000	64.659214 
4588.000000	64.736890 
4587.000000	64.799475 
4586.000000	64.842748 
4585.000000	64.866018 
4584.000000	64.871072 
4583.000000	64.862084 
4582.000000	64.844489 
4581.000000	64.823126 
4580.000000	64.801430 
4579.000000	64.780592 
4578.000000	64.759993 
4577.000000	64.737439 
4576.000000	64.710736 
4575.000000	64.678955 
4574.000000	64.643287 
4573.000000	64.607572 
4572.000000	64.577937 
4571.000000	64.560937 
4570.000000	64.562773 
4569.000000	64.586567 
4568.000000	64.632654 
4567.000000	64.697933 
4566.000000	64.776635 
4565.000000	64.862060 
4564.000000	64.946722 
4563.000000	65.023946 
4562.000000	65.087604 
4561.000000	65.133261 
4560.000000	65.157389 
4559.000000	65.157723 
4558.000000	65.133047 
4557.000000	65.083599 
4556.000000	65.011286 
4555.000000	64.920473 
4554.000000	64.817452 
4553.000000	64.710211 
4552.000000	64.608120 
4551.000000	64.520716 
4550.000000	64.456009 
4549.000000	64.419150 
4548.000000	64.411163 
4547.000000	64.428997 
4546.000000	64.465808 
4545.000000	64.512777 
4544.000000	64.560627 
4543.000000	64.601898 
4542.000000	64.632058 
4541.000000	64.650344 
4540.000000	64.658045 
4539.000000	64.659023 
4538.000000	64.657402 
4537.000000	64.657568 
4536.000000	64.663243 
4535.000000	64.676570 
4534.000000	64.698910 
4533.000000	64.729237 
4532.000000	64.765191 
4531.000000	64.801907 
4530.000000	64.833450 
4529.000000	64.852762 
4528.000000	64.853096 
4527.000000	64.829826 
4526.000000	64.782047 
4525.000000	64.712047 
4524.000000	64.625167 
4523.000000	64.530920 
4522.000000	64.441466 
4521.000000	64.367294 
4520.000000	64.316225 
4519.000000	64.292621 
4518.000000	64.297962 
4517.000000	64.331078 
4516.000000	64.389443 
4515.000000	64.471077 
4514.000000	64.573645 
4513.000000	64.691257 
4512.000000	64.816522 
4511.000000	64.939880 
4510.000000	65.052175 
4509.000000	65.146136 
4508.000000	65.217328 
4507.000000	65.264654 
4506.000000	65.289974 
4505.000000	65.298223 
4504.000000	65.295386 
4503.000000	65.285301 
4502.000000	65.274834 
4501.000000	65.273356 
4500.000000	65.294742 
4499.000000	65.354847 
4498.000000	65.472221 
4497.000000	65.663123 
4496.000000	65.934062 
4495.000000	66.277551 
4494.000000	66.668081 
4493.000000	67.067813 
4492.000000	67.429947 
4491.000000	67.714476 
4490.000000	67.900896 
4489.000000	67.995166 
4488.000000	68.032550 
4487.000000	68.063378 
4486.000000	68.143200 
4485.000000	68.307304 
4484.000000	68.562340 
4483.000000	68.874645 
4482.000000	69.183635 
4481.000000	69.409227 
4480.000000	69.477415 
4479.000000	69.336915 
4478.000000	68.982410 
4477.000000	68.447089 
4476.000000	67.794227 
4475.000000	67.105007 
4474.000000	66.462135 
4473.000000	65.925407 
4472.000000	65.520095 
4471.000000	65.239429 
4470.000000	65.052056 
4469.000000	64.919495 
4468.000000	64.810538 
4467.000000	64.701604 
4466.000000	64.583110 
4465.000000	64.457821 
4464.000000	64.337372 
4463.000000	64.227867 
4462.000000	64.130234 
4461.000000	64.039587 
4460.000000	63.946270 
4459.000000	63.840222 
4458.000000	63.710403 
4457.000000	63.558006 
4456.000000	63.379645 
4455.000000	63.178968 
4454.000000	62.939119 
4453.000000	62.636685 
4452.000000	62.218999 
4451.000000	61.618638 
4450.000000	60.764551 
4449.000000	59.602427 
4448.000000	58.128070 
4447.000000	56.398534 
4446.000000	54.551029 
4445.000000	52.782845 
4444.000000	51.332664 
4443.000000	50.432133 
4442.000000	50.262999 
4441.000000	50.915312 
4440.000000	52.362632 
4439.000000	54.465985 
4438.000000	56.992459 
4437.000000	59.665989 
4436.000000	62.215542 
4435.000000	64.426803 
4434.000000	66.167902 
4433.000000	67.400121 
4432.000000	68.160080 
4431.000000	68.531823 
4430.000000	68.619036 
4429.000000	68.507266 
4428.000000	68.260574 
4427.000000	67.904829 
4426.000000	67.465853 
4425.000000	66.955351 
4424.000000	66.405320 
4423.000000	65.856480 
4422.000000	65.371370 
4421.000000	65.008473 
4420.000000	64.810967 
4419.000000	64.794659 
4418.000000	64.941787 
4417.000000	65.206336 
4416.000000	65.523171 
4415.000000	65.828371 
4414.000000	66.072344 
4413.000000	66.224002 
4412.000000	66.275215 
4411.000000	66.234588 
4410.000000	66.123461 
4409.000000	65.968608 
4408.000000	65.796232 
4407.000000	65.624523 
4406.000000	65.463495 
4405.000000	65.326666 
4404.000000	65.222740 
4403.000000	65.151500 
4402.000000	65.109682 
4401.000000	65.097141 
4400.000000	65.112829 
4399.000000	65.151834 
4398.000000	65.208172 
4397.000000	65.272974 
4396.000000	65.337276 
4395.000000	65.392875 
4394.000000	65.432620 
4393.000000	65.450525 
4392.000000	65.443754 
4391.000000	65.413022 
4390.000000	65.361118 
4389.000000	65.292048 
4388.000000	65.212154 
4387.000000	65.129017 
4386.000000	65.049934 
4385.000000	64.980959 
4384.000000	64.925408 
4383.000000	64.883923 
4382.000000	64.856100 
4381.000000	64.840579 
4380.000000	64.834952 
4379.000000	64.836716 
4378.000000	64.842963 
4377.000000	64.851379 
4376.000000	64.860200 
4375.000000	64.868450 
4374.000000	64.874815 
4373.000000	64.878702 
4372.000000	64.880108 
4371.000000	64.879226 
4370.000000	64.876127 
4369.000000	64.870810 
4368.000000	64.863014 
4367.000000	64.853191 
4366.000000	64.842724 
4365.000000	64.833879 
4364.000000	64.829397 
4363.000000	64.831805 
4362.000000	64.842438 
4361.000000	64.860677 
4360.000000	64.883756 
4359.000000	64.906930 
4358.000000	64.924502 
4357.000000	64.931058 
4356.000000	64.923095 
4355.000000	64.899349 
4354.000000	64.861989 
4353.000000	64.816069 
4352.000000	64.769482 
4351.000000	64.731311 
4350.000000	64.710044 
4349.000000	64.712476 
4348.000000	64.741158 
4347.000000	64.794111 
4346.000000	64.864063 
4345.000000	64.940166 
4344.000000	65.009450 
4343.000000	65.059518 
4342.000000	65.081262 
4341.000000	65.070462 
4340.000000	65.029096 
4339.000000	64.964532 
4338.000000	64.888143 
4337.000000	64.812874 
4336.000000	64.750599 
4335.000000	64.709711 
4334.000000	64.693760 
4333.000000	64.701318 
4332.000000	64.726638 
4331.000000	64.761471 
4330.000000	64.796948 
4329.000000	64.825773 
4328.000000	64.842891 
4327.000000	64.846897 
4326.000000	64.838600 
4325.000000	64.821362 
4324.000000	64.799404 
4323.000000	64.777207 
4322.000000	64.758610 
4321.000000	64.746093 
4320.000000	64.740800 
4319.000000	64.742493 
4318.000000	64.750480 
4317.000000	64.763283 
4316.000000	64.779305 
4315.000000	64.796948 
4314.000000	64.814662 
4313.000000	64.831137 
4312.000000	64.845037 
4311.000000	64.855051 
4310.000000	64.860105 
4309.000000	64.859414 
4308.000000	64.852857 
4307.000000	64.841198 
4306.000000	64.826154 
4305.000000	64.809989 
4304.000000	64.795136 
4303.000000	64.784002 
4302.000000	64.778327 
4301.000000	64.778709 
4300.000000	64.784264 
4299.000000	64.793062 
4298.000000	64.802527 
4297.000000	64.810180 
4296.000000	64.814829 
4295.000000	64.816045 
4294.000000	64.815473 
4293.000000	64.815688 
4292.000000	64.820361 
4291.000000	64.832687 
4290.000000	64.854979 
4289.000000	64.887762 
4288.000000	64.929699 
4287.000000	64.977788 
4286.000000	65.027904 
4285.000000	65.075755 
4284.000000	65.117669 
4283.000000	65.151262 
4282.000000	65.175557 
4281.000000	65.191054 
4280.000000	65.199160 
4279.000000	65.201759 
4278.000000	65.200877 
4277.000000	65.197968 
4276.000000	65.194249 
4275.000000	65.190196 
4274.000000	65.185928 
4273.000000	65.181088 
4272.000000	65.175437 
4271.000000	65.168452 
4270.000000	65.159678 
4269.000000	65.148615 
4268.000000	65.134835 
4267.000000	65.117859 
4266.000000	65.097665 
4265.000000	65.074300 
4264.000000	65.048122 
4263.000000	65.019845 
4262.000000	64.990568 
4261.000000	64.961600 
4260.000000	64.934468 
4259.000000	64.910936 
4258.000000	64.892745 
4257.000000	64.881491 
4256.000000	64.878201 
4255.000000	64.882993 
4254.000000	64.895081 
4253.000000	64.912343 
4252.000000	64.931726 
4251.000000	64.949941 
4250.000000	64.964175 
4249.000000	64.972472 
4248.000000	64.974308 
4247.000000	64.970731 
4246.000000	64.963841 
4245.000000	64.956212 
4244.000000	64.949917 
4243.000000	64.946198 
4242.000000	64.944887 
4241.000000	64.944696 
4240.000000	64.943933 
4239.000000	64.941024 
4238.000000	64.935517 
4237.000000	64.928412 
4236.000000	64.922213 
4235.000000	64.919948 
4234.000000	64.924478 
4233.000000	64.937877 
4232.000000	64.960432 
4231.000000	64.990448 
4230.000000	65.024828 
4229.000000	65.059876 
4228.000000	65.092039 
4227.000000	65.118622 
4226.000000	65.138316 
4225.000000	65.151143 
4224.000000	65.157938 
4223.000000	65.159726 
4222.000000	65.157318 
4221.000000	65.150833 
4220.000000	65.139842 
4219.000000	65.123629 
4218.000000	65.101909 
4217.000000	65.075135 
4216.000000	65.045070 
4215.000000	65.014576 
4214.000000	64.986801 
4213.000000	64.965295 
4212.000000	64.952874 
4211.000000	64.951705 
4210.000000	64.962577 
4209.000000	64.985442 
4208.000000	65.019464 
4207.000000	65.063047 
4206.000000	65.113925 
4205.000000	65.168786 
4204.000000	65.223574 
4203.000000	65.273213 
4202.000000	65.312027 
4201.000000	65.334868 
4200.000000	65.338206 
4199.000000	65.321135 
4198.000000	65.286111 
4197.000000	65.239357 
4196.000000	65.189576 
4195.000000	65.146613 
4194.000000	65.118718 
4193.000000	65.110731 
4192.000000	65.122294 
4191.000000	65.148305 
4190.000000	65.180063 
4189.000000	65.207505 
4188.000000	65.221977 
4187.000000	65.218520 
4186.000000	65.197157 
4185.000000	65.162277 
4184.000000	65.121364 
4183.000000	65.082621 
4182.000000	65.052723 
4181.000000	65.035057 
4180.000000	65.028929 
4179.000000	65.030312 
4178.000000	65.033054 
4177.000000	65.030956 
4176.000000	65.019297 
4175.000000	64.996147 
4174.000000	64.962196 
4173.000000	64.920616 
4172.000000	64.875912 
4171.000000	64.833045 
4170.000000	64.796972 
4169.000000	64.772224 
4168.000000	64.762520 
4167.000000	64.770340 
4166.000000	64.796638 
4165.000000	64.840412 
4164.000000	64.898347 
4163.000000	64.965152 
4162.000000	65.033841 
4161.000000	65.097236 
4160.000000	65.148735 
4159.000000	65.183424 
