PE IR       SPECTRUM    SPECTRUM    ASCII       PEDS        1.60        
  -1
BZ6136~1.ASC
17/04/07
20:36:45.00
17/04/07
20:36:45.00
tln
$BZ1503107-1_t0089$<tbV0>[13.0,7.8,8.0,0.0,27,1,0]
370.000000
64









2002,4.07    
MIRTGS : RIGHTBACK : INTERNAL 2
MIR : ON : INTERNAL 2
OPTKBR

0.200000
8
8.000000
FILLER
RATIO
SPECTRUM
UNLOCKED 256

DOUBLE
64
COMBINED
1
0
0


1.000000
RATIO


1
0
TRUE
51149
0
LEFT NOT FITTED RIGHT NOT FITTED 0
NONE
NONE
15600
12.000000
4.427000
51148
TRUE
1 0 8 72 0 0 0 0 

15798.010000






#HDR
-1
-1
#GR
CM-1
%T
0.00002384185791015625
0.0
5000.000000
-1.000000
4631
8
82.304477
42.256140
#DATA
5000.000000	64.144062 
4999.000000	64.166331 
4998.000000	64.185833 
4997.000000	64.201402 
4996.000000	64.212059 
4995.000000	64.216399 
4994.000000	64.212870 
4993.000000	64.200210 
4992.000000	64.178442 
4991.000000	64.149308 
4990.000000	64.116287 
4989.000000	64.084506 
4988.000000	64.058399 
4987.000000	64.039921 
4986.000000	64.029622 
4985.000000	64.026808 
4984.000000	64.029002 
4983.000000	64.032244 
4982.000000	64.033484 
4981.000000	64.030957 
4980.000000	64.023280 
4979.000000	64.010024 
4978.000000	63.990378 
4977.000000	63.964295 
4976.000000	63.932991 
4975.000000	63.899564 
4974.000000	63.868403 
4973.000000	63.844919 
4972.000000	63.834834 
4971.000000	63.841772 
4970.000000	63.866519 
4969.000000	63.905572 
4968.000000	63.950347 
4967.000000	63.990974 
4966.000000	64.016294 
4965.000000	64.021515 
4964.000000	64.008426 
4963.000000	63.989448 
4962.000000	63.983345 
4961.000000	64.014959 
4960.000000	64.108133 
4959.000000	64.280652 
4958.000000	64.538121 
4957.000000	64.872527 
4956.000000	65.261650 
4955.000000	65.672039 
4954.000000	66.063117 
4953.000000	66.392970 
4952.000000	66.624164 
4951.000000	66.729116 
4950.000000	66.695141 
4949.000000	66.526031 
4948.000000	66.242933 
4947.000000	65.882968 
4946.000000	65.492868 
4945.000000	65.123844 
4944.000000	64.820647 
4943.000000	64.619088 
4942.000000	64.535117 
4941.000000	64.565682 
4940.000000	64.687132 
4939.000000	64.862513 
4938.000000	65.047669 
4937.000000	65.199208 
4936.000000	65.284395 
4935.000000	65.284705 
4934.000000	65.200781 
4933.000000	65.049195 
4932.000000	64.857125 
4931.000000	64.654159 
4930.000000	64.465069 
4929.000000	64.304757 
4928.000000	64.176249 
4927.000000	64.073061 
4926.000000	63.985848 
4925.000000	63.907718 
4924.000000	63.837313 
4923.000000	63.780522 
4922.000000	63.747715 
4921.000000	63.751339 
4920.000000	63.796234 
4919.000000	63.882112 
4918.000000	63.999962 
4917.000000	64.138269 
4916.000000	64.285016 
4915.000000	64.432621 
4914.000000	64.579057 
4913.000000	64.727282 
4912.000000	64.884376 
4911.000000	65.053915 
4910.000000	65.232467 
4909.000000	65.407419 
4908.000000	65.559244 
4907.000000	65.665674 
4906.000000	65.708708 
4905.000000	65.679621 
4904.000000	65.583372 
4903.000000	65.436720 
4902.000000	65.265011 
4901.000000	65.095400 
4900.000000	64.950847 
4899.000000	64.845275 
4898.000000	64.781641 
4897.000000	64.754462 
4896.000000	64.752173 
4895.000000	64.761972 
4894.000000	64.773058 
4893.000000	64.778280 
4892.000000	64.775896 
4891.000000	64.767241 
4890.000000	64.756679 
4889.000000	64.746642 
4888.000000	64.739322 
4887.000000	64.735507 
4886.000000	64.735484 
4885.000000	64.739465 
4884.000000	64.748096 
4883.000000	64.763474 
4882.000000	64.787006 
4881.000000	64.818406 
4880.000000	64.855432 
4879.000000	64.894080 
4878.000000	64.928507 
4877.000000	64.952206 
4876.000000	64.959073 
4875.000000	64.944839 
4874.000000	64.907741 
4873.000000	64.848899 
4872.000000	64.771842 
4871.000000	64.681434 
4870.000000	64.583969 
4869.000000	64.485406 
4868.000000	64.389848 
4867.000000	64.299321 
4866.000000	64.214587 
4865.000000	64.135289 
4864.000000	64.060473 
4863.000000	63.989615 
4862.000000	63.922595 
4861.000000	63.860678 
4860.000000	63.805723 
4859.000000	63.760232 
4858.000000	63.726162 
4857.000000	63.704562 
4856.000000	63.694167 
4855.000000	63.692355 
4854.000000	63.694977 
4853.000000	63.698339 
4852.000000	63.699579 
4851.000000	63.698172 
4850.000000	63.695645 
4849.000000	63.694930 
4848.000000	63.699245 
4847.000000	63.711023 
4846.000000	63.731002 
4845.000000	63.758254 
4844.000000	63.790202 
4843.000000	63.823580 
4842.000000	63.855051 
4841.000000	63.882064 
4840.000000	63.903141 
4839.000000	63.918042 
4838.000000	63.927793 
4837.000000	63.933324 
4836.000000	63.936209 
4835.000000	63.938140 
4834.000000	63.941264 
4833.000000	63.948082 
4832.000000	63.961076 
4831.000000	63.982796 
4830.000000	64.014530 
4829.000000	64.055347 
4828.000000	64.102435 
4827.000000	64.151096 
4826.000000	64.196491 
4825.000000	64.234638 
4824.000000	64.263916 
4823.000000	64.285349 
4822.000000	64.301276 
4821.000000	64.314055 
4820.000000	64.324450 
4819.000000	64.331030 
4818.000000	64.330220 
4817.000000	64.317297 
4816.000000	64.288353 
4815.000000	64.241695 
4814.000000	64.179468 
4813.000000	64.106965 
4812.000000	64.032649 
4811.000000	63.965344 
4810.000000	63.912534 
4809.000000	63.878273 
4808.000000	63.862013 
4807.000000	63.859295 
4806.000000	63.863086 
4805.000000	63.865661 
4804.000000	63.860583 
4803.000000	63.844561 
4802.000000	63.817644 
4801.000000	63.783740 
4800.000000	63.748240 
4799.000000	63.718724 
4798.000000	63.702392 
4797.000000	63.705253 
4796.000000	63.730239 
4795.000000	63.776350 
4794.000000	63.838744 
4793.000000	63.908648 
4792.000000	63.975572 
4791.000000	64.029526 
4790.000000	64.063835 
4789.000000	64.076137 
4788.000000	64.069366 
4787.000000	64.050722 
4786.000000	64.029669 
4785.000000	64.015913 
4784.000000	64.016270 
4783.000000	64.033222 
4782.000000	64.064025 
4781.000000	64.103007 
4780.000000	64.141774 
4779.000000	64.172244 
4778.000000	64.188146 
4777.000000	64.187169 
4776.000000	64.170479 
4775.000000	64.141964 
4774.000000	64.106750 
4773.000000	64.069414 
4772.000000	64.033317 
4771.000000	63.999915 
4770.000000	63.968896 
4769.000000	63.939142 
4768.000000	63.908648 
4767.000000	63.875651 
4766.000000	63.838458 
4765.000000	63.796091 
4764.000000	63.748240 
4763.000000	63.695931 
4762.000000	63.640809 
4761.000000	63.586139 
4760.000000	63.536572 
4759.000000	63.498115 
4758.000000	63.476824 
4757.000000	63.478326 
4756.000000	63.506531 
4755.000000	63.562536 
4754.000000	63.643693 
4753.000000	63.743424 
4752.000000	63.851213 
4751.000000	63.954710 
4750.000000	64.041590 
4749.000000	64.102196 
4748.000000	64.131355 
4747.000000	64.129376 
4746.000000	64.101839 
4745.000000	64.057540 
4744.000000	64.006447 
4743.000000	63.957071 
4742.000000	63.915252 
4741.000000	63.882637 
4740.000000	63.857340 
4739.000000	63.835644 
4738.000000	63.813877 
4737.000000	63.789653 
4736.000000	63.763022 
4735.000000	63.736081 
4734.000000	63.712811 
4733.000000	63.696956 
4732.000000	63.691735 
4731.000000	63.698267 
4730.000000	63.716101 
4729.000000	63.743352 
4728.000000	63.777780 
4727.000000	63.817405 
4726.000000	63.860750 
4725.000000	63.906478 
4724.000000	63.953185 
4723.000000	63.998293 
4722.000000	64.038991 
4721.000000	64.072227 
4720.000000	64.095687 
4719.000000	64.108347 
4718.000000	64.111185 
4717.000000	64.107179 
4716.000000	64.100813 
4715.000000	64.097142 
4714.000000	64.100217 
4713.000000	64.112019 
4712.000000	64.132022 
4711.000000	64.157295 
4710.000000	64.182853 
4709.000000	64.202785 
4708.000000	64.212107 
4707.000000	64.207935 
4706.000000	64.190578 
4705.000000	64.163446 
4704.000000	64.132237 
4703.000000	64.103484 
4702.000000	64.082646 
4701.000000	64.072704 
4700.000000	64.073657 
4699.000000	64.082241 
4698.000000	64.093112 
4697.000000	64.100337 
4696.000000	64.098811 
4695.000000	64.086365 
4694.000000	64.064121 
4693.000000	64.036703 
4692.000000	64.010500 
4691.000000	63.992977 
4690.000000	63.990640 
4689.000000	64.007735 
4688.000000	64.044737 
4687.000000	64.099049 
4686.000000	64.165258 
4685.000000	64.236187 
4684.000000	64.304304 
4683.000000	64.362835 
4682.000000	64.406800 
4681.000000	64.433431 
4680.000000	64.442658 
4679.000000	64.436841 
4678.000000	64.420342 
4677.000000	64.398956 
4676.000000	64.378380 
4675.000000	64.364218 
4674.000000	64.360213 
4673.000000	64.368343 
4672.000000	64.388132 
4671.000000	64.417195 
4670.000000	64.451408 
4669.000000	64.486312 
4668.000000	64.517259 
4667.000000	64.540052 
4666.000000	64.551734 
4665.000000	64.550971 
4664.000000	64.538073 
4663.000000	64.514517 
4662.000000	64.483070 
4661.000000	64.447188 
4660.000000	64.410281 
4659.000000	64.375114 
4658.000000	64.343690 
4657.000000	64.317083 
4656.000000	64.295744 
4655.000000	64.279627 
4654.000000	64.268064 
4653.000000	64.259982 
4652.000000	64.254117 
4651.000000	64.249038 
4650.000000	64.242935 
4649.000000	64.234232 
4648.000000	64.221453 
4647.000000	64.204621 
4646.000000	64.184427 
4645.000000	64.163661 
4644.000000	64.146280 
4643.000000	64.137506 
4642.000000	64.142274 
4641.000000	64.164805 
4640.000000	64.207124 
4639.000000	64.268827 
4638.000000	64.346456 
4637.000000	64.434766 
4636.000000	64.527416 
4635.000000	64.617967 
4634.000000	64.700722 
4633.000000	64.770913 
4632.000000	64.824962 
4631.000000	64.860367 
4630.000000	64.875912 
4629.000000	64.871573 
4628.000000	64.848685 
4627.000000	64.810776 
4626.000000	64.762783 
4625.000000	64.711165 
4624.000000	64.662456 
4623.000000	64.622998 
4622.000000	64.597153 
4621.000000	64.586925 
4620.000000	64.591574 
4619.000000	64.607667 
4618.000000	64.630293 
4617.000000	64.654088 
4616.000000	64.674568 
4615.000000	64.688754 
4614.000000	64.695596 
4613.000000	64.695215 
4612.000000	64.688920 
4611.000000	64.678049 
4610.000000	64.664053 
4609.000000	64.648079 
4608.000000	64.631056 
4607.000000	64.613866 
4606.000000	64.597392 
4605.000000	64.582633 
4604.000000	64.570331 
4603.000000	64.561057 
4602.000000	64.555001 
4601.000000	64.552116 
4600.000000	64.551973 
4599.000000	64.553666 
4598.000000	64.555716 
4597.000000	64.556169 
4596.000000	64.552974 
4595.000000	64.544272 
4594.000000	64.528274 
4593.000000	64.504408 
4592.000000	64.473509 
4591.000000	64.438176 
4590.000000	64.402341 
4589.000000	64.371109 
4588.000000	64.349508 
4587.000000	64.341568 
4586.000000	64.349508 
4585.000000	64.372849 
4584.000000	64.408397 
4583.000000	64.450955 
4582.000000	64.494419 
4581.000000	64.533543 
4580.000000	64.564871 
4579.000000	64.587831 
4578.000000	64.604735 
4577.000000	64.620137 
4576.000000	64.639353 
4575.000000	64.666676 
4574.000000	64.704012 
4573.000000	64.750623 
4572.000000	64.803099 
4571.000000	64.856576 
4570.000000	64.905309 
4569.000000	64.945292 
4568.000000	64.973926 
4567.000000	64.990854 
4566.000000	64.996767 
4565.000000	64.993214 
4564.000000	64.981436 
4563.000000	64.961791 
4562.000000	64.934015 
4561.000000	64.898204 
4560.000000	64.855122 
4559.000000	64.807391 
4558.000000	64.759016 
4557.000000	64.715480 
4556.000000	64.681673 
4555.000000	64.660954 
4554.000000	64.653944 
4553.000000	64.658331 
4552.000000	64.670443 
4551.000000	64.686274 
4550.000000	64.703273 
4549.000000	64.720964 
4548.000000	64.741873 
4547.000000	64.770150 
4546.000000	64.809322 
4545.000000	64.861011 
4544.000000	64.923572 
4543.000000	64.992213 
4542.000000	65.059423 
4541.000000	65.117287 
4540.000000	65.159773 
4539.000000	65.184426 
4538.000000	65.193367 
4537.000000	65.192317 
4536.000000	65.189266 
4535.000000	65.191912 
4534.000000	65.205740 
4533.000000	65.232253 
4532.000000	65.268707 
4531.000000	65.309214 
4530.000000	65.346980 
4529.000000	65.376067 
4528.000000	65.393638 
4527.000000	65.399956 
4526.000000	65.398216 
4525.000000	65.392184 
4524.000000	65.384769 
4523.000000	65.376353 
4522.000000	65.364313 
4521.000000	65.344786 
4520.000000	65.313959 
4519.000000	65.269732 
4518.000000	65.212631 
4517.000000	65.146279 
4516.000000	65.076971 
4515.000000	65.011429 
4514.000000	64.956760 
4513.000000	64.918231 
4512.000000	64.899826 
4511.000000	64.903569 
4510.000000	64.929699 
4509.000000	64.976453 
4508.000000	65.040063 
4507.000000	65.115475 
4506.000000	65.195870 
4505.000000	65.272498 
4504.000000	65.336823 
4503.000000	65.381002 
4502.000000	65.400171 
4501.000000	65.393280 
4500.000000	65.363097 
4499.000000	65.315604 
4498.000000	65.257215 
4497.000000	65.193295 
4496.000000	65.125584 
4495.000000	65.052509 
4494.000000	64.970898 
4493.000000	64.878296 
4492.000000	64.775276 
4491.000000	64.667224 
4490.000000	64.562630 
4489.000000	64.473652 
4488.000000	64.411187 
4487.000000	64.385485 
4486.000000	64.404225 
4485.000000	64.471888 
4484.000000	64.582133 
4483.000000	64.725351 
4482.000000	64.896798 
4481.000000	65.090012 
4480.000000	65.289235 
4479.000000	65.479660 
4478.000000	65.654325 
4477.000000	65.805554 
4476.000000	65.922212 
4475.000000	65.995812 
4474.000000	66.022849 
4473.000000	66.003036 
4472.000000	65.941452 
4471.000000	65.842342 
4470.000000	65.709114 
4469.000000	65.549349 
4468.000000	65.376234 
4467.000000	65.202999 
4466.000000	65.043330 
4465.000000	64.920067 
4464.000000	64.854669 
4463.000000	64.864110 
4462.000000	64.941763 
4461.000000	65.076637 
4460.000000	65.217852 
4459.000000	65.287542 
4458.000000	65.167713 
4457.000000	64.739680 
4456.000000	63.885545 
4455.000000	62.526631 
4454.000000	60.636377 
4453.000000	58.265542 
4452.000000	55.534410 
4451.000000	52.612328 
4450.000000	49.710488 
4449.000000	47.036385 
4448.000000	44.799709 
4447.000000	43.178224 
4446.000000	42.307257 
4445.000000	42.256140 
4444.000000	43.013024 
4443.000000	44.483137 
4442.000000	46.491193 
4441.000000	48.813724 
4440.000000	51.229310 
4439.000000	53.558611 
4438.000000	55.690765 
4437.000000	57.588815 
4436.000000	59.262537 
4435.000000	60.748171 
4434.000000	62.070989 
4433.000000	63.234829 
4432.000000	64.229989 
4431.000000	65.027523 
4430.000000	65.631747 
4429.000000	66.047215 
4428.000000	66.305065 
4427.000000	66.434454 
4426.000000	66.473221 
4425.000000	66.446232 
4424.000000	66.370177 
4423.000000	66.251850 
4422.000000	66.106820 
4421.000000	65.943980 
4420.000000	65.771055 
4419.000000	65.598464 
4418.000000	65.443491 
4417.000000	65.319585 
4416.000000	65.234065 
4415.000000	65.190792 
4414.000000	65.188717 
4413.000000	65.219783 
4412.000000	65.271449 
4411.000000	65.324068 
4410.000000	65.357446 
4409.000000	65.364313 
4408.000000	65.347957 
4407.000000	65.311288 
4406.000000	65.259671 
4405.000000	65.204668 
4404.000000	65.155792 
4403.000000	65.112185 
4402.000000	65.068030 
4401.000000	65.018534 
4400.000000	64.959216 
4399.000000	64.887166 
4398.000000	64.805030 
4397.000000	64.721894 
4396.000000	64.650177 
4395.000000	64.601230 
4394.000000	64.583969 
4393.000000	64.601540 
4392.000000	64.651536 
4391.000000	64.726138 
4390.000000	64.813709 
4389.000000	64.900803 
4388.000000	64.975166 
4387.000000	65.027952 
4386.000000	65.053510 
4385.000000	65.050268 
4384.000000	65.019989 
4383.000000	64.967823 
4382.000000	64.901018 
4381.000000	64.828491 
4380.000000	64.760136 
4379.000000	64.705133 
4378.000000	64.671778 
4377.000000	64.665293 
4376.000000	64.687371 
4375.000000	64.735627 
4374.000000	64.803886 
4373.000000	64.883565 
4372.000000	64.964795 
4371.000000	65.038681 
4370.000000	65.098118 
4369.000000	65.139317 
4368.000000	65.161657 
4367.000000	65.167951 
4366.000000	65.162849 
4365.000000	65.152168 
4364.000000	65.141534 
4363.000000	65.135121 
4362.000000	65.135002 
4361.000000	65.141105 
4360.000000	65.151476 
4359.000000	65.162229 
4358.000000	65.168428 
4357.000000	65.165114 
4356.000000	65.148401 
4355.000000	65.116477 
4354.000000	65.070414 
4353.000000	65.014004 
4352.000000	64.953112 
4351.000000	64.894509 
4350.000000	64.844369 
4349.000000	64.807105 
4348.000000	64.784431 
4347.000000	64.775371 
4346.000000	64.776420 
4345.000000	64.782834 
4344.000000	64.789652 
4343.000000	64.792895 
4342.000000	64.790153 
4341.000000	64.780402 
4340.000000	64.764642 
4339.000000	64.745140 
4338.000000	64.724993 
4337.000000	64.706921 
4336.000000	64.694452 
4335.000000	64.691114 
4334.000000	64.700388 
4333.000000	64.724922 
4332.000000	64.766097 
4331.000000	64.823293 
4330.000000	64.893436 
4329.000000	64.971137 
4328.000000	65.049338 
4327.000000	65.120267 
4326.000000	65.176939 
4325.000000	65.213942 
4324.000000	65.228199 
4323.000000	65.219330 
4322.000000	65.190052 
4321.000000	65.145039 
4320.000000	65.090250 
4319.000000	65.031814 
4318.000000	64.976263 
4317.000000	64.928555 
4316.000000	64.891982 
4315.000000	64.867067 
4314.000000	64.852428 
4313.000000	64.844107 
4312.000000	64.836764 
4311.000000	64.824247 
4310.000000	64.801049 
4309.000000	64.764142 
4308.000000	64.713525 
4307.000000	64.652943 
4306.000000	64.588809 
4305.000000	64.528727 
4304.000000	64.479947 
4303.000000	64.447093 
4302.000000	64.431834 
4301.000000	64.432501 
4300.000000	64.445614 
4299.000000	64.466047 
4298.000000	64.489650 
4297.000000	64.514327 
4296.000000	64.540624 
4295.000000	64.570236 
4294.000000	64.605736 
4293.000000	64.648914 
4292.000000	64.699816 
4291.000000	64.755773 
4290.000000	64.811754 
4289.000000	64.861416 
4288.000000	64.898371 
4287.000000	64.918398 
4286.000000	64.919328 
4285.000000	64.901685 
4284.000000	64.868617 
4283.000000	64.825296 
4282.000000	64.778041 
4281.000000	64.733004 
4280.000000	64.695811 
4279.000000	64.670348 
4278.000000	64.658188 
4277.000000	64.657998 
4276.000000	64.666080 
4275.000000	64.676713 
4274.000000	64.682745 
4273.000000	64.677286 
4272.000000	64.654874 
4271.000000	64.613080 
4270.000000	64.552807 
4269.000000	64.478754 
4268.000000	64.398169 
4267.000000	64.319920 
4266.000000	64.252734 
4265.000000	64.203786 
4264.000000	64.176893 
4263.000000	64.172720 
4262.000000	64.189338 
4261.000000	64.222693 
4260.000000	64.267516 
4259.000000	64.318323 
4258.000000	64.369988 
4257.000000	64.417958 
4256.000000	64.458036 
4255.000000	64.487266 
4254.000000	64.503979 
4253.000000	64.508008 
4252.000000	64.500594 
4251.000000	64.484763 
4250.000000	64.464521 
4249.000000	64.444971 
4248.000000	64.430737 
4247.000000	64.425349 
4246.000000	64.429688 
4245.000000	64.443111 
4244.000000	64.462327 
4243.000000	64.482235 
4242.000000	64.496684 
4241.000000	64.500498 
4240.000000	64.489960 
4239.000000	64.463400 
4238.000000	64.421987 
4237.000000	64.369559 
4236.000000	64.311742 
4235.000000	64.254617 
4234.000000	64.203906 
4233.000000	64.164137 
4232.000000	64.137196 
4231.000000	64.122533 
4230.000000	64.116644 
4229.000000	64.114379 
4228.000000	64.109492 
4227.000000	64.096426 
4226.000000	64.071249 
4225.000000	64.032888 
4224.000000	63.983798 
4223.000000	63.930058 
4222.000000	63.880014 
4221.000000	63.843131 
4220.000000	63.827753 
4219.000000	63.839793 
4218.000000	63.881063 
4217.000000	63.949322 
4216.000000	64.038133 
4215.000000	64.138936 
4214.000000	64.242076 
4213.000000	64.338994 
4212.000000	64.423298 
4211.000000	64.491558 
4210.000000	64.542984 
4209.000000	64.578795 
4208.000000	64.600968 
4207.000000	64.611506 
4206.000000	64.612054 
4205.000000	64.603614 
4204.000000	64.587259 
4203.000000	64.564442 
4202.000000	64.537858 
4201.000000	64.510250 
4200.000000	64.484357 
4199.000000	64.462089 
4198.000000	64.444613 
4197.000000	64.432191 
4196.000000	64.424228 
4195.000000	64.420151 
4194.000000	64.419341 
4193.000000	64.421606 
4192.000000	64.426875 
4191.000000	64.434957 
4190.000000	64.445114 
4189.000000	64.456081 
4188.000000	64.465951 
4187.000000	64.472484 
4186.000000	64.473509 
4185.000000	64.467430 
4184.000000	64.453816 
4183.000000	64.432907 
4182.000000	64.406418 
4181.000000	64.377045 
4180.000000	64.348173 
4179.000000	64.322829 
4178.000000	64.304256 
4177.000000	64.295411 
4176.000000	64.298582 
4175.000000	64.314937 
4174.000000	64.344215 
4173.000000	64.384484 
4172.000000	64.432001 
4171.000000	64.481616 
4170.000000	64.527487 
4169.000000	64.563870 
4168.000000	64.586400 
4167.000000	64.592480 
4166.000000	64.581561 
4165.000000	64.555096 
4164.000000	64.516282 
4163.000000	64.469432 
4162.000000	64.419341 
4161.000000	64.370703 
4160.000000	64.327812 
4159.000000	64.294219 
