PE IR       SPECTRUM    SPECTRUM    ASCII       PEDS        1.60        
  -1
BZ6131~1.ASC
17/04/07
18:57:17.00
17/04/07
18:57:17.00
tln
$BZ1503107-1_t0069$<tbV0>[7.8,2.6,8.0,0.0,27,1,0]
370.000000
64









2002,4.07    
MIRTGS : RIGHTBACK : INTERNAL 2
MIR : ON : INTERNAL 2
OPTKBR

0.200000
8
8.000000
FILLER
RATIO
SPECTRUM
UNLOCKED 256

DOUBLE
64
COMBINED
1
0
0


1.000000
RATIO


1
0
TRUE
51149
0
LEFT NOT FITTED RIGHT NOT FITTED 0
NONE
NONE
15600
12.000000
4.427000
51148
TRUE
1 0 8 72 0 0 0 0 

15798.010000






#HDR
-1
-1
#GR
CM-1
%T
0.00002384185791015625
0.0
5000.000000
-1.000000
4631
8
66.381621
46.279501
#DATA
5000.000000	65.395784 
4999.000000	65.465331 
4998.000000	65.507578 
4997.000000	65.526628 
4996.000000	65.529656 
4995.000000	65.524792 
4994.000000	65.519022 
4993.000000	65.517926 
4992.000000	65.523600 
4991.000000	65.536737 
4990.000000	65.554618 
4989.000000	65.573334 
4988.000000	65.587568 
4987.000000	65.592360 
4986.000000	65.583920 
4985.000000	65.560436 
4984.000000	65.522480 
4983.000000	65.473008 
4982.000000	65.416646 
4981.000000	65.358948 
4980.000000	65.305471 
4979.000000	65.260839 
4978.000000	65.228104 
4977.000000	65.208625 
4976.000000	65.201830 
4975.000000	65.205717 
4974.000000	65.217876 
4973.000000	65.235543 
4972.000000	65.256118 
4971.000000	65.276694 
4970.000000	65.293884 
4969.000000	65.304064 
4968.000000	65.303969 
4967.000000	65.290808 
4966.000000	65.262866 
4965.000000	65.220403 
4964.000000	65.165853 
4963.000000	65.104269 
4962.000000	65.042328 
4961.000000	64.987397 
4960.000000	64.946198 
4959.000000	64.922881 
4958.000000	64.918208 
4957.000000	64.928221 
4956.000000	64.945054 
4955.000000	64.958453 
4954.000000	64.958500 
4953.000000	64.938616 
4952.000000	64.897775 
4951.000000	64.841032 
4950.000000	64.778614 
4949.000000	64.723157 
4948.000000	64.686608 
4947.000000	64.677000 
4946.000000	64.696598 
4945.000000	64.741325 
4944.000000	64.802098 
4943.000000	64.867758 
4942.000000	64.927291 
4941.000000	64.972472 
4940.000000	64.999318 
4939.000000	65.008187 
4938.000000	65.003085 
4937.000000	64.989209 
4936.000000	64.972329 
4935.000000	64.956927 
4934.000000	64.946293 
4933.000000	64.942312 
4932.000000	64.945888 
4931.000000	64.957594 
4930.000000	64.976239 
4929.000000	64.999222 
4928.000000	65.021848 
4927.000000	65.038180 
4926.000000	65.041971 
4925.000000	65.028524 
4924.000000	64.995884 
4923.000000	64.946079 
4922.000000	64.884781 
4921.000000	64.820742 
4920.000000	64.763474 
4919.000000	64.722132 
4918.000000	64.703226 
4917.000000	64.710092 
4916.000000	64.742279 
4915.000000	64.796066 
4914.000000	64.865446 
4913.000000	64.943289 
4912.000000	65.022611 
4911.000000	65.097379 
4910.000000	65.162849 
4909.000000	65.215754 
4908.000000	65.253973 
4907.000000	65.276622 
4906.000000	65.283751 
4905.000000	65.276408 
4904.000000	65.256667 
4903.000000	65.226745 
4902.000000	65.189146 
4901.000000	65.146303 
4900.000000	65.100574 
4899.000000	65.054631 
4898.000000	65.011239 
4897.000000	64.973187 
4896.000000	64.942741 
4895.000000	64.921188 
4894.000000	64.908504 
4893.000000	64.902615 
4892.000000	64.900636 
4891.000000	64.898967 
4890.000000	64.895439 
4889.000000	64.888715 
4888.000000	64.880490 
4887.000000	64.874219 
4886.000000	64.875268 
4885.000000	64.888548 
4884.000000	64.918112 
4883.000000	64.965367 
4882.000000	65.028524 
4881.000000	65.102386 
4880.000000	65.179657 
4879.000000	65.252614 
4878.000000	65.314221 
4877.000000	65.359377 
4876.000000	65.385437 
4875.000000	65.392231 
4874.000000	65.381741 
4873.000000	65.357017 
4872.000000	65.321898 
4871.000000	65.279889 
4870.000000	65.234756 
4869.000000	65.189361 
4868.000000	65.145921 
4867.000000	65.105390 
4866.000000	65.068054 
4865.000000	65.033245 
4864.000000	64.999246 
4863.000000	64.964222 
4862.000000	64.926576 
4861.000000	64.885711 
4860.000000	64.841985 
4859.000000	64.797091 
4858.000000	64.753437 
4857.000000	64.713907 
4856.000000	64.680695 
4855.000000	64.655089 
4854.000000	64.636778 
4853.000000	64.624524 
4852.000000	64.616703 
4851.000000	64.611744 
4850.000000	64.608836 
4849.000000	64.608216 
4848.000000	64.611124 
4847.000000	64.618873 
4846.000000	64.631867 
4845.000000	64.649343 
4844.000000	64.669322 
4843.000000	64.688372 
4842.000000	64.703106 
4841.000000	64.711141 
4840.000000	64.712285 
4839.000000	64.708852 
4838.000000	64.704895 
4837.000000	64.705252 
4836.000000	64.714074 
4835.000000	64.733576 
4834.000000	64.763569 
4833.000000	64.801287 
4832.000000	64.842414 
4831.000000	64.882326 
4830.000000	64.916944 
4829.000000	64.943909 
4828.000000	64.962577 
4827.000000	64.973807 
4826.000000	64.979195 
4825.000000	64.980244 
4824.000000	64.978075 
4823.000000	64.973163 
4822.000000	64.965462 
4821.000000	64.954710 
4820.000000	64.940786 
4819.000000	64.923787 
4818.000000	64.903783 
4817.000000	64.880537 
4816.000000	64.853191 
4815.000000	64.820528 
4814.000000	64.781212 
4813.000000	64.734959 
4812.000000	64.682817 
4811.000000	64.627695 
4810.000000	64.574408 
4809.000000	64.528346 
4808.000000	64.494538 
4807.000000	64.475870 
4806.000000	64.471960 
4805.000000	64.479041 
4804.000000	64.490580 
4803.000000	64.499115 
4802.000000	64.497613 
4801.000000	64.482092 
4800.000000	64.452481 
4799.000000	64.412856 
4798.000000	64.370107 
4797.000000	64.332342 
4796.000000	64.306354 
4795.000000	64.295816 
4794.000000	64.300322 
4793.000000	64.315652 
4792.000000	64.335227 
4791.000000	64.352583 
4790.000000	64.362859 
4789.000000	64.364266 
4788.000000	64.358162 
4787.000000	64.348053 
4786.000000	64.338374 
4785.000000	64.332294 
4784.000000	64.331722 
4783.000000	64.336133 
4782.000000	64.344239 
4781.000000	64.354562 
4780.000000	64.366626 
4779.000000	64.381122 
4778.000000	64.400315 
4777.000000	64.426851 
4776.000000	64.463424 
4775.000000	64.511132 
4774.000000	64.569759 
4773.000000	64.637017 
4772.000000	64.709496 
4771.000000	64.783310 
4770.000000	64.854526 
4769.000000	64.919948 
4768.000000	64.976501 
4767.000000	65.021252 
4766.000000	65.050983 
4765.000000	65.062308 
4764.000000	65.052151 
4763.000000	65.018773 
4762.000000	64.962959 
4761.000000	64.888596 
4760.000000	64.802908 
4759.000000	64.715504 
4758.000000	64.637231 
4757.000000	64.578032 
4756.000000	64.545154 
4755.000000	64.541697 
4754.000000	64.566087 
4753.000000	64.612436 
4752.000000	64.671826 
4751.000000	64.734292 
4750.000000	64.790487 
4749.000000	64.833974 
4748.000000	64.861679 
4747.000000	64.874100 
4746.000000	64.874196 
4745.000000	64.865970 
4744.000000	64.853286 
4743.000000	64.838266 
4742.000000	64.821100 
4741.000000	64.800310 
4740.000000	64.774036 
4739.000000	64.740729 
4738.000000	64.700460 
4737.000000	64.655590 
4736.000000	64.610671 
4735.000000	64.571309 
4734.000000	64.543390 
4733.000000	64.531683 
4732.000000	64.539051 
4731.000000	64.565324 
4730.000000	64.607667 
4729.000000	64.660739 
4728.000000	64.718127 
4727.000000	64.773488 
4726.000000	64.821910 
4725.000000	64.860486 
4724.000000	64.888763 
4723.000000	64.908337 
4722.000000	64.921975 
4721.000000	64.932632 
4720.000000	64.941954 
4719.000000	64.949941 
4718.000000	64.954757 
4717.000000	64.954066 
4716.000000	64.945363 
4715.000000	64.927363 
4714.000000	64.900302 
4713.000000	64.866447 
4712.000000	64.829802 
4711.000000	64.795064 
4710.000000	64.766359 
4709.000000	64.746212 
4708.000000	64.735031 
4707.000000	64.731287 
4706.000000	64.731931 
4705.000000	64.733505 
4704.000000	64.733290 
4703.000000	64.730048 
4702.000000	64.723706 
4701.000000	64.715576 
4700.000000	64.707565 
4699.000000	64.701271 
4698.000000	64.697074 
4697.000000	64.693546 
4696.000000	64.688086 
4695.000000	64.676642 
4694.000000	64.655280 
4693.000000	64.620876 
4692.000000	64.572262 
4691.000000	64.511346 
4690.000000	64.442753 
4689.000000	64.373707 
4688.000000	64.312672 
4687.000000	64.268112 
4686.000000	64.246392 
4685.000000	64.250421 
4684.000000	64.278841 
4683.000000	64.326119 
4682.000000	64.383721 
4681.000000	64.441370 
4680.000000	64.489960 
4679.000000	64.522767 
4678.000000	64.537978 
4677.000000	64.538264 
4676.000000	64.530634 
4675.000000	64.524245 
4674.000000	64.528322 
4673.000000	64.549970 
4672.000000	64.592027 
4671.000000	64.652895 
4670.000000	64.726352 
4669.000000	64.803957 
4668.000000	64.876294 
4667.000000	64.935803 
4666.000000	64.977812 
4665.000000	65.001678 
4664.000000	65.009570 
4663.000000	65.005302 
4662.000000	64.992856 
4661.000000	64.975190 
4660.000000	64.952921 
4659.000000	64.924454 
4658.000000	64.887237 
4657.000000	64.839172 
4656.000000	64.779520 
4655.000000	64.710092 
4654.000000	64.635419 
4653.000000	64.562439 
4652.000000	64.498877 
4651.000000	64.452290 
4650.000000	64.427971 
4649.000000	64.428448 
4648.000000	64.453005 
4647.000000	64.497852 
4646.000000	64.556622 
4645.000000	64.621686 
4644.000000	64.684963 
4643.000000	64.739775 
4642.000000	64.780569 
4641.000000	64.805316 
4640.000000	64.814829 
4639.000000	64.813351 
4638.000000	64.806938 
4637.000000	64.802885 
4636.000000	64.808440 
4635.000000	64.828562 
4634.000000	64.865303 
4633.000000	64.916896 
4632.000000	64.978551 
4631.000000	65.043258 
4630.000000	65.103578 
4629.000000	65.153050 
4628.000000	65.187668 
4627.000000	65.206980 
4626.000000	65.213775 
4625.000000	65.212869 
4624.000000	65.209770 
4623.000000	65.209841 
4622.000000	65.216398 
4621.000000	65.230393 
4620.000000	65.250062 
4619.000000	65.272259 
4618.000000	65.292429 
4617.000000	65.306735 
4616.000000	65.311741 
4615.000000	65.305495 
4614.000000	65.287303 
4613.000000	65.258216 
4612.000000	65.220189 
4611.000000	65.175461 
4610.000000	65.126800 
4609.000000	65.077257 
4608.000000	65.029811 
4607.000000	64.987182 
4606.000000	64.951920 
4605.000000	64.926171 
4604.000000	64.911532 
4603.000000	64.909124 
4602.000000	64.920067 
4601.000000	64.945387 
4600.000000	64.985775 
4599.000000	65.041184 
4598.000000	65.110468 
4597.000000	65.190434 
4596.000000	65.276074 
4595.000000	65.359997 
4594.000000	65.433526 
4593.000000	65.487694 
4592.000000	65.515136 
4591.000000	65.511107 
4590.000000	65.474939 
4589.000000	65.410399 
4588.000000	65.325498 
4587.000000	65.230846 
4586.000000	65.138101 
4585.000000	65.057516 
4584.000000	64.996552 
4583.000000	64.958667 
4582.000000	64.943718 
4581.000000	64.947819 
4580.000000	64.964914 
4579.000000	64.987707 
4578.000000	65.009522 
4577.000000	65.025353 
4576.000000	65.032792 
4575.000000	65.032696 
4574.000000	65.028786 
4573.000000	65.026807 
4572.000000	65.032958 
4571.000000	65.052175 
4570.000000	65.086627 
4569.000000	65.134811 
4568.000000	65.191698 
4567.000000	65.250372 
4566.000000	65.303134 
4565.000000	65.343689 
4564.000000	65.368247 
4563.000000	65.376901 
4562.000000	65.372371 
4561.000000	65.359473 
4560.000000	65.342640 
4559.000000	65.324592 
4558.000000	65.305137 
4557.000000	65.281748 
4556.000000	65.250229 
4555.000000	65.206766 
4554.000000	65.150070 
4553.000000	65.083050 
4552.000000	65.012311 
4551.000000	64.946913 
4550.000000	64.896583 
4549.000000	64.869379 
4548.000000	64.869213 
4547.000000	64.894962 
4546.000000	64.940452 
4545.000000	64.995980 
4544.000000	65.050530 
4543.000000	65.094375 
4542.000000	65.120935 
4541.000000	65.128326 
4540.000000	65.119123 
4539.000000	65.099501 
4538.000000	65.077114 
4537.000000	65.058994 
4536.000000	65.049886 
4535.000000	65.051126 
4534.000000	65.060806 
4533.000000	65.074634 
4532.000000	65.087819 
4531.000000	65.096712 
4530.000000	65.100145 
4529.000000	65.099859 
4528.000000	65.099692 
4527.000000	65.105319 
4526.000000	65.122342 
4525.000000	65.155434 
4524.000000	65.206861 
4523.000000	65.276193 
4522.000000	65.360093 
4521.000000	65.452218 
4520.000000	65.544271 
4519.000000	65.627336 
4518.000000	65.693759 
4517.000000	65.738272 
4516.000000	65.759229 
4515.000000	65.759038 
4514.000000	65.742945 
4513.000000	65.718269 
4512.000000	65.691757 
4511.000000	65.668725 
4510.000000	65.651988 
4509.000000	65.642285 
4508.000000	65.638661 
4507.000000	65.639734 
4506.000000	65.644311 
4505.000000	65.652418 
4504.000000	65.665078 
4503.000000	65.683531 
4502.000000	65.709042 
4501.000000	65.741872 
4500.000000	65.780663 
4499.000000	65.821957 
4498.000000	65.861749 
4497.000000	65.896344 
4496.000000	65.922999 
4495.000000	65.940618 
4494.000000	65.950107 
4493.000000	65.954017 
4492.000000	65.954685 
4491.000000	65.953993 
4490.000000	65.953779 
4489.000000	65.954828 
4488.000000	65.956997 
4487.000000	65.958786 
4486.000000	65.958380 
4485.000000	65.953755 
4484.000000	65.942907 
4483.000000	65.924882 
4482.000000	65.901327 
4481.000000	65.874981 
4480.000000	65.850234 
4479.000000	65.830039 
4478.000000	65.815067 
4477.000000	65.802502 
4476.000000	65.786504 
4475.000000	65.760517 
4474.000000	65.719318 
4473.000000	65.661382 
4472.000000	65.589976 
4471.000000	65.510916 
4470.000000	65.430903 
4469.000000	65.353989 
4468.000000	65.280485 
4467.000000	65.207767 
4466.000000	65.131211 
4465.000000	65.046763 
4464.000000	64.952421 
4463.000000	64.846897 
4462.000000	64.732074 
4461.000000	64.613461 
4460.000000	64.499044 
4459.000000	64.398550 
4458.000000	64.320611 
4457.000000	64.265561 
4456.000000	64.230108 
4455.000000	64.214253 
4454.000000	64.215421 
4453.000000	64.221620 
4452.000000	64.223361 
4451.000000	64.218330 
4450.000000	64.209103 
4449.000000	64.198756 
4448.000000	64.197087 
4447.000000	64.217758 
4446.000000	64.272689 
4445.000000	64.370155 
4444.000000	64.496707 
4443.000000	64.618563 
4442.000000	64.694905 
4441.000000	64.692497 
4440.000000	64.597129 
4439.000000	64.424562 
4438.000000	64.229798 
4437.000000	64.090061 
4436.000000	64.092898 
4435.000000	64.292907 
4434.000000	64.709186 
4433.000000	65.280079 
4432.000000	65.874481 
4431.000000	66.296052 
4430.000000	66.338348 
4429.000000	65.818738 
4428.000000	64.639234 
4427.000000	62.800097 
4426.000000	60.421371 
4425.000000	57.704448 
4424.000000	54.877901 
4423.000000	52.183365 
4422.000000	49.810528 
4421.000000	47.938752 
4420.000000	46.717453 
4419.000000	46.279501 
4418.000000	46.726441 
4417.000000	48.082923 
4416.000000	50.274467 
4415.000000	53.094935 
4414.000000	56.229448 
4413.000000	59.314608 
4412.000000	62.006425 
4411.000000	64.056634 
4410.000000	65.352153 
4409.000000	65.918707 
4408.000000	65.899109 
4407.000000	65.498042 
4406.000000	64.931607 
4405.000000	64.389991 
4404.000000	63.993167 
4403.000000	63.815855 
4402.000000	63.854837 
4401.000000	64.073348 
4400.000000	64.398527 
4399.000000	64.762783 
4398.000000	65.108418 
4397.000000	65.399909 
4396.000000	65.627074 
4395.000000	65.796279 
4394.000000	65.924000 
4393.000000	66.019272 
4392.000000	66.092753 
4391.000000	66.154241 
4390.000000	66.207981 
4389.000000	66.253638 
4388.000000	66.291165 
4387.000000	66.321563 
4386.000000	66.346502 
4385.000000	66.367816 
4384.000000	66.381621 
4383.000000	66.379809 
4382.000000	66.360759 
4381.000000	66.325712 
4380.000000	66.270327 
4379.000000	66.190552 
4378.000000	66.091299 
4377.000000	65.981221 
4376.000000	65.868878 
4375.000000	65.763068 
4374.000000	65.670299 
4373.000000	65.595197 
4372.000000	65.541386 
4371.000000	65.510034 
4370.000000	65.499758 
4369.000000	65.507531 
4368.000000	65.528202 
4367.000000	65.557193 
4366.000000	65.591382 
4365.000000	65.628099 
4364.000000	65.664577 
4363.000000	65.698814 
4362.000000	65.729236 
4361.000000	65.754652 
4360.000000	65.773868 
4359.000000	65.786790 
4358.000000	65.793943 
4357.000000	65.796661 
4356.000000	65.796184 
4355.000000	65.793180 
4354.000000	65.786933 
4353.000000	65.775394 
4352.000000	65.755939 
4351.000000	65.726256 
4350.000000	65.685653 
4349.000000	65.635943 
4348.000000	65.581679 
4347.000000	65.528821 
4346.000000	65.484261 
4345.000000	65.453886 
4344.000000	65.441584 
4343.000000	65.447974 
4342.000000	65.470814 
4341.000000	65.505409 
4340.000000	65.546131 
4339.000000	65.587568 
4338.000000	65.625667 
4337.000000	65.658187 
4336.000000	65.684723 
4335.000000	65.706062 
4334.000000	65.723395 
4333.000000	65.737414 
4332.000000	65.748357 
4331.000000	65.755605 
4330.000000	65.758323 
4329.000000	65.755295 
4328.000000	65.745711 
4327.000000	65.729117 
4326.000000	65.705776 
4325.000000	65.676808 
4324.000000	65.644454 
4323.000000	65.611505 
4322.000000	65.581631 
4321.000000	65.557408 
4320.000000	65.540122 
4319.000000	65.528464 
4318.000000	65.519237 
4317.000000	65.507388 
4316.000000	65.487217 
4315.000000	65.454101 
4314.000000	65.405917 
4313.000000	65.343809 
4312.000000	65.272092 
4311.000000	65.197896 
4310.000000	65.129470 
4309.000000	65.074658 
4308.000000	65.039110 
4307.000000	65.024852 
4306.000000	65.030026 
4305.000000	65.049099 
4304.000000	65.074300 
4303.000000	65.097045 
4302.000000	65.110254 
4301.000000	65.109181 
4300.000000	65.092968 
4299.000000	65.064096 
4298.000000	65.028047 
4297.000000	64.991617 
4296.000000	64.961719 
4295.000000	64.943671 
4294.000000	64.940166 
4293.000000	64.951229 
4292.000000	64.974141 
4291.000000	65.004420 
4290.000000	65.037083 
4289.000000	65.067577 
4288.000000	65.092825 
4287.000000	65.111684 
4286.000000	65.125083 
4285.000000	65.135097 
4284.000000	65.144705 
4283.000000	65.156650 
4282.000000	65.173006 
4281.000000	65.194606 
4280.000000	65.221238 
4279.000000	65.251755 
4278.000000	65.284323 
4277.000000	65.316867 
4276.000000	65.347766 
4275.000000	65.375781 
4274.000000	65.400338 
4273.000000	65.421009 
4272.000000	65.437793 
4271.000000	65.450143 
4270.000000	65.457582 
4269.000000	65.458917 
4268.000000	65.453028 
4267.000000	65.438604 
4266.000000	65.415287 
4265.000000	65.383648 
4264.000000	65.345764 
4263.000000	65.304970 
4262.000000	65.265440 
4261.000000	65.231466 
4260.000000	65.206670 
4259.000000	65.193080 
4258.000000	65.190863 
4257.000000	65.198063 
4256.000000	65.210890 
4255.000000	65.224599 
4254.000000	65.234541 
4253.000000	65.237021 
4252.000000	65.230131 
4251.000000	65.214490 
4250.000000	65.192937 
4249.000000	65.169572 
4248.000000	65.148568 
4247.000000	65.133404 
4246.000000	65.125632 
4245.000000	65.124320 
4244.000000	65.126514 
4243.000000	65.128135 
4242.000000	65.125060 
4241.000000	65.114092 
4240.000000	65.093922 
4239.000000	65.065145 
4238.000000	65.030264 
4237.000000	64.992904 
4236.000000	64.957523 
4235.000000	64.927673 
4234.000000	64.906787 
4233.000000	64.897155 
4232.000000	64.900493 
4231.000000	64.917755 
4230.000000	64.949035 
4229.000000	64.993357 
4228.000000	65.047907 
4227.000000	65.108036 
4226.000000	65.167117 
4225.000000	65.217375 
4224.000000	65.251278 
4223.000000	65.262961 
4222.000000	65.249633 
4221.000000	65.212178 
4220.000000	65.155291 
4219.000000	65.086293 
4218.000000	65.013813 
4217.000000	64.946150 
4216.000000	64.889764 
4215.000000	64.848852 
4214.000000	64.825034 
4213.000000	64.818191 
4212.000000	64.826941 
4211.000000	64.849591 
4210.000000	64.884591 
4209.000000	64.930081 
4208.000000	64.983105 
4207.000000	65.039539 
4206.000000	65.093660 
4205.000000	65.138936 
4204.000000	65.168595 
4203.000000	65.177512 
4202.000000	65.163493 
4201.000000	65.127897 
4200.000000	65.075635 
4199.000000	65.014386 
4198.000000	64.953041 
4197.000000	64.899706 
4196.000000	64.859914 
4195.000000	64.835762 
4194.000000	64.825439 
4193.000000	64.824295 
4192.000000	64.826178 
4191.000000	64.824771 
4190.000000	64.815878 
4189.000000	64.797568 
4188.000000	64.771866 
4187.000000	64.742994 
4186.000000	64.717745 
4185.000000	64.702939 
4184.000000	64.704871 
4183.000000	64.727377 
4182.000000	64.771008 
4181.000000	64.833021 
4180.000000	64.907169 
4179.000000	64.985036 
4178.000000	65.057539 
4177.000000	65.116810 
4176.000000	65.157556 
4175.000000	65.177798 
4174.000000	65.179800 
4173.000000	65.169095 
4172.000000	65.153193 
4171.000000	65.139245 
4170.000000	65.132474 
4169.000000	65.134572 
4168.000000	65.143704 
4167.000000	65.155029 
4166.000000	65.162396 
4165.000000	65.160036 
4164.000000	65.145373 
4163.000000	65.118932 
4162.000000	65.084290 
4161.000000	65.046858 
4160.000000	65.012621 
4159.000000	64.985990 
