PE IR       SPECTRUM    SPECTRUM    ASCII       PEDS        1.60        
  -1
BZ3C70~1.ASC
17/04/07
22:14:24.00
17/04/07
22:14:24.00
tln
$BZ1503107-1_t0110$<tbV0>[-13.0,10.4,8.0,0.0,27,1,0]
370.000000
64









2002,4.07    
MIRTGS : RIGHTBACK : INTERNAL 2
MIR : ON : INTERNAL 2
OPTKBR

0.200000
8
8.000000
FILLER
RATIO
SPECTRUM
UNLOCKED 256

DOUBLE
64
COMBINED
1
0
0


1.000000
RATIO


1
0
TRUE
51149
0
LEFT NOT FITTED RIGHT NOT FITTED 0
NONE
NONE
15600
12.000000
4.427000
51148
TRUE
1 0 8 72 0 0 0 0 

15798.010000






#HDR
-1
-1
#GR
CM-1
%T
0.00002384185791015625
0.0
5000.000000
-1.000000
4631
8
91.131949
57.703900
#DATA
5000.000000	64.328980 
4999.000000	64.364981 
4998.000000	64.386129 
4997.000000	64.376282 
4996.000000	64.321374 
4995.000000	64.213347 
4994.000000	64.057588 
4993.000000	63.872885 
4992.000000	63.691306 
4991.000000	63.551402 
4990.000000	63.489651 
4989.000000	63.531064 
4988.000000	63.681912 
4987.000000	63.927483 
4986.000000	64.232397 
4985.000000	64.548444 
4984.000000	64.822030 
4983.000000	65.005564 
4982.000000	65.067505 
4981.000000	64.998340 
4980.000000	64.808940 
4979.000000	64.528322 
4978.000000	64.195799 
4977.000000	63.854646 
4976.000000	63.546061 
4975.000000	63.303160 
4974.000000	63.147950 
4973.000000	63.089847 
4972.000000	63.128757 
4971.000000	63.255167 
4970.000000	63.452577 
4969.000000	63.699889 
4968.000000	63.972020 
4967.000000	64.243698 
4966.000000	64.488863 
4965.000000	64.685964 
4964.000000	64.818120 
4963.000000	64.877295 
4962.000000	64.864063 
4961.000000	64.789295 
4960.000000	64.671826 
4959.000000	64.538288 
4958.000000	64.418458 
4957.000000	64.342522 
4956.000000	64.334988 
4955.000000	64.410662 
4954.000000	64.569592 
4953.000000	64.794492 
4952.000000	65.052032 
4951.000000	65.296077 
4950.000000	65.477919 
4949.000000	65.555906 
4948.000000	65.507149 
4947.000000	65.333008 
4946.000000	65.060758 
4945.000000	64.737248 
4944.000000	64.418721 
4943.000000	64.160037 
4942.000000	64.000129 
4941.000000	63.955092 
4940.000000	64.014697 
4939.000000	64.148545 
4938.000000	64.313745 
4937.000000	64.467620 
4936.000000	64.577555 
4935.000000	64.626812 
4934.000000	64.618539 
4933.000000	64.571452 
4932.000000	64.512228 
4931.000000	64.464950 
4930.000000	64.446282 
4929.000000	64.460396 
4928.000000	64.500665 
4927.000000	64.552497 
4926.000000	64.599633 
4925.000000	64.628672 
4924.000000	64.633584 
4923.000000	64.615654 
4922.000000	64.579796 
4921.000000	64.533448 
4920.000000	64.480471 
4919.000000	64.424014 
4918.000000	64.366126 
4917.000000	64.311051 
4916.000000	64.267015 
4915.000000	64.245223 
4914.000000	64.258956 
4913.000000	64.318299 
4912.000000	64.427924 
4911.000000	64.581418 
4910.000000	64.760470 
4909.000000	64.937424 
4908.000000	65.081048 
4907.000000	65.163159 
4906.000000	65.165710 
4905.000000	65.085029 
4904.000000	64.933133 
4903.000000	64.735436 
4902.000000	64.525246 
4901.000000	64.336609 
4900.000000	64.197063 
4899.000000	64.123773 
4898.000000	64.120507 
4897.000000	64.179968 
4896.000000	64.285588 
4895.000000	64.416027 
4894.000000	64.549875 
4893.000000	64.667415 
4892.000000	64.755988 
4891.000000	64.809679 
4890.000000	64.831018 
4889.000000	64.827466 
4888.000000	64.810156 
4887.000000	64.790177 
4886.000000	64.775919 
4885.000000	64.772391 
4884.000000	64.779520 
4883.000000	64.794492 
4882.000000	64.811873 
4881.000000	64.826488 
4880.000000	64.834427 
4879.000000	64.834642 
4878.000000	64.828324 
4877.000000	64.818382 
4876.000000	64.808559 
4875.000000	64.802074 
4874.000000	64.800691 
4873.000000	64.804291 
4872.000000	64.810776 
4871.000000	64.816427 
4870.000000	64.818072 
4869.000000	64.812874 
4868.000000	64.797949 
4867.000000	64.771294 
4866.000000	64.731931 
4865.000000	64.680743 
4864.000000	64.620018 
4863.000000	64.553952 
4862.000000	64.488101 
4861.000000	64.428472 
4860.000000	64.381122 
4859.000000	64.350056 
4858.000000	64.336299 
4857.000000	64.337611 
4856.000000	64.348649 
4855.000000	64.362764 
4854.000000	64.372944 
4853.000000	64.374709 
4852.000000	64.366865 
4851.000000	64.352631 
4850.000000	64.338374 
4849.000000	64.332318 
4848.000000	64.342117 
4847.000000	64.372706 
4846.000000	64.425039 
4845.000000	64.495801 
4844.000000	64.578390 
4843.000000	64.664959 
4842.000000	64.748263 
4841.000000	64.823889 
4840.000000	64.890575 
4839.000000	64.950203 
4838.000000	65.006184 
4837.000000	65.061593 
4836.000000	65.117287 
4835.000000	65.171694 
4834.000000	65.219902 
4833.000000	65.255713 
4832.000000	65.272426 
4831.000000	65.266227 
4830.000000	65.236258 
4829.000000	65.185761 
4828.000000	65.121412 
4827.000000	65.052199 
4826.000000	64.987874 
4825.000000	64.937019 
4824.000000	64.906048 
4823.000000	64.898204 
4822.000000	64.913082 
4821.000000	64.947223 
4820.000000	64.994716 
4819.000000	65.048336 
4818.000000	65.100073 
4817.000000	65.142488 
4816.000000	65.169405 
4815.000000	65.177226 
4814.000000	65.165162 
4813.000000	65.135765 
4812.000000	65.094208 
4811.000000	65.047454 
4810.000000	65.003490 
4809.000000	64.968991 
4808.000000	64.948558 
4807.000000	64.942979 
4806.000000	64.950346 
4805.000000	64.965629 
4804.000000	64.982056 
4803.000000	64.992737 
4802.000000	64.992213 
4801.000000	64.978098 
4800.000000	64.950847 
4799.000000	64.914917 
4798.000000	64.877247 
4797.000000	64.846444 
4796.000000	64.830803 
4795.000000	64.836907 
4794.000000	64.868235 
4793.000000	64.924693 
4792.000000	65.002417 
4791.000000	65.094542 
4790.000000	65.192294 
4789.000000	65.286612 
4788.000000	65.369486 
4787.000000	65.435242 
4786.000000	65.480875 
4785.000000	65.506100 
4784.000000	65.512108 
4783.000000	65.501642 
4782.000000	65.476918 
4781.000000	65.440535 
4780.000000	65.393996 
4779.000000	65.338611 
4778.000000	65.275621 
4777.000000	65.208077 
4776.000000	65.139889 
4775.000000	65.076017 
4774.000000	65.021634 
4773.000000	64.981341 
4772.000000	64.957666 
4771.000000	64.950275 
4770.000000	64.955878 
4769.000000	64.968729 
4768.000000	64.982438 
4767.000000	64.991593 
4766.000000	64.993071 
4765.000000	64.986467 
4764.000000	64.973950 
4763.000000	64.959263 
4762.000000	64.945793 
4761.000000	64.935827 
4760.000000	64.929437 
4759.000000	64.925050 
4758.000000	64.919710 
4757.000000	64.910817 
4756.000000	64.897799 
4755.000000	64.883065 
4754.000000	64.871144 
4753.000000	64.868617 
4752.000000	64.881944 
4751.000000	64.916062 
4750.000000	64.972329 
4749.000000	65.048146 
4748.000000	65.137171 
4747.000000	65.230202 
4746.000000	65.317511 
4745.000000	65.389728 
4744.000000	65.439367 
4743.000000	65.462207 
4742.000000	65.457797 
4741.000000	65.429282 
4740.000000	65.382385 
4739.000000	65.324997 
4738.000000	65.265536 
4737.000000	65.211701 
4736.000000	65.169143 
4735.000000	65.141034 
4734.000000	65.127658 
4733.000000	65.127229 
4732.000000	65.136432 
4731.000000	65.151333 
4730.000000	65.168070 
4729.000000	65.183329 
4728.000000	65.194749 
4727.000000	65.200448 
4726.000000	65.199422 
4725.000000	65.191078 
4724.000000	65.175461 
4723.000000	65.153098 
4722.000000	65.125489 
4721.000000	65.095019 
4720.000000	65.065264 
4719.000000	65.040755 
4718.000000	65.025925 
4717.000000	65.024280 
4716.000000	65.037584 
4715.000000	65.065217 
4714.000000	65.104341 
4713.000000	65.150570 
4712.000000	65.198206 
4711.000000	65.241384 
4710.000000	65.275001 
4709.000000	65.295648 
4708.000000	65.301799 
4707.000000	65.294289 
4706.000000	65.276050 
4705.000000	65.251207 
4704.000000	65.224957 
4703.000000	65.201711 
4702.000000	65.184235 
4701.000000	65.173268 
4700.000000	65.167093 
4699.000000	65.163469 
4698.000000	65.159773 
4697.000000	65.155553 
4696.000000	65.152001 
4695.000000	65.153431 
4694.000000	65.165710 
4693.000000	65.195226 
4692.000000	65.246272 
4691.000000	65.319681 
4690.000000	65.411829 
4689.000000	65.514326 
4688.000000	65.615248 
4687.000000	65.701484 
4686.000000	65.761232 
4685.000000	65.786576 
4684.000000	65.775060 
4683.000000	65.729832 
4682.000000	65.658783 
4681.000000	65.572881 
4680.000000	65.483665 
4679.000000	65.401792 
4678.000000	65.335011 
4677.000000	65.287852 
4676.000000	65.260934 
4675.000000	65.252184 
4674.000000	65.257358 
4673.000000	65.271520 
4672.000000	65.289831 
4671.000000	65.308380 
4670.000000	65.324234 
4669.000000	65.335106 
4668.000000	65.339255 
4667.000000	65.334868 
4666.000000	65.320181 
4665.000000	65.293431 
4664.000000	65.253734 
4663.000000	65.201640 
4662.000000	65.139961 
4661.000000	65.073704 
4660.000000	65.009808 
4659.000000	64.956164 
4658.000000	64.919805 
4657.000000	64.905238 
4656.000000	64.913487 
4655.000000	64.941716 
4654.000000	64.983224 
4653.000000	65.029454 
4652.000000	65.071916 
4651.000000	65.104413 
4650.000000	65.124177 
4649.000000	65.132236 
4648.000000	65.132093 
4647.000000	65.128374 
4646.000000	65.124893 
4645.000000	65.123057 
4644.000000	65.121555 
4643.000000	65.116715 
4642.000000	65.104031 
4641.000000	65.080332 
4640.000000	65.045690 
4639.000000	65.003824 
4638.000000	64.961647 
4637.000000	64.927434 
4636.000000	64.908576 
4635.000000	64.909124 
4634.000000	64.928293 
4633.000000	64.960837 
4632.000000	64.998459 
4631.000000	65.031957 
4630.000000	65.053677 
4629.000000	65.059208 
4628.000000	65.048170 
4627.000000	65.024113 
4626.000000	64.993119 
4625.000000	64.962196 
4624.000000	64.936876 
4623.000000	64.920544 
4622.000000	64.912629 
4621.000000	64.909982 
4620.000000	64.906692 
4619.000000	64.896798 
4618.000000	64.874625 
4617.000000	64.836883 
4616.000000	64.783024 
4615.000000	64.715600 
4614.000000	64.639592 
4613.000000	64.561414 
4612.000000	64.487409 
4611.000000	64.422750 
4610.000000	64.369940 
4609.000000	64.328503 
4608.000000	64.295554 
4607.000000	64.266729 
4606.000000	64.238142 
4605.000000	64.207720 
4604.000000	64.176034 
4603.000000	64.146089 
4602.000000	64.121866 
4601.000000	64.107036 
4600.000000	64.102840 
4599.000000	64.107942 
4598.000000	64.118218 
4597.000000	64.128541 
4596.000000	64.133977 
4595.000000	64.131784 
4594.000000	64.122104 
4593.000000	64.108395 
4592.000000	64.096331 
4591.000000	64.091968 
4590.000000	64.099597 
4589.000000	64.120602 
4588.000000	64.152598 
4587.000000	64.190363 
4586.000000	64.227437 
4585.000000	64.257621 
4584.000000	64.277076 
4583.000000	64.284229 
4582.000000	64.279770 
4581.000000	64.265966 
4580.000000	64.245915 
4579.000000	64.222407 
4578.000000	64.197492 
4577.000000	64.172577 
4576.000000	64.148449 
4575.000000	64.125847 
4574.000000	64.105319 
4573.000000	64.087295 
4572.000000	64.072108 
4571.000000	64.059758 
4570.000000	64.050197 
4569.000000	64.042854 
4568.000000	64.037084 
4567.000000	64.032387 
4566.000000	64.028286 
4565.000000	64.024305 
4564.000000	64.019703 
4563.000000	64.013314 
4562.000000	64.003658 
4561.000000	63.988924 
4560.000000	63.968300 
4559.000000	63.942337 
4558.000000	63.913655 
4557.000000	63.886904 
4556.000000	63.867259 
4555.000000	63.859224 
4554.000000	63.864803 
4553.000000	63.882851 
4552.000000	63.908624 
4551.000000	63.934683 
4550.000000	63.952612 
4549.000000	63.955163 
4548.000000	63.937497 
4547.000000	63.898468 
4546.000000	63.841199 
4545.000000	63.772177 
4544.000000	63.699913 
4543.000000	63.632917 
4542.000000	63.578176 
4541.000000	63.539743 
4540.000000	63.518261 
4539.000000	63.511180 
4538.000000	63.513946 
4537.000000	63.521337 
4536.000000	63.528323 
4535.000000	63.532161 
4534.000000	63.531780 
4533.000000	63.529157 
4532.000000	63.527607 
4531.000000	63.531804 
4530.000000	63.545656 
4529.000000	63.571643 
4528.000000	63.609981 
4527.000000	63.658404 
4526.000000	63.712644 
4525.000000	63.767886 
4524.000000	63.819909 
4523.000000	63.865923 
4522.000000	63.904976 
4521.000000	63.938522 
4520.000000	63.969278 
4519.000000	63.999915 
4518.000000	64.031600 
4517.000000	64.063453 
4516.000000	64.092469 
4515.000000	64.114141 
4514.000000	64.124059 
4513.000000	64.120006 
4512.000000	64.102411 
4511.000000	64.075922 
4510.000000	64.047288 
4509.000000	64.023709 
4508.000000	64.011049 
4507.000000	64.011883 
4506.000000	64.025211 
4505.000000	64.047312 
4504.000000	64.072275 
4503.000000	64.094328 
4502.000000	64.107847 
4501.000000	64.108824 
4500.000000	64.094305 
4499.000000	64.062833 
4498.000000	64.013338 
4497.000000	63.944983 
4496.000000	63.857436 
4495.000000	63.751339 
4494.000000	63.629221 
4493.000000	63.495898 
4492.000000	63.359022 
4491.000000	63.227939 
4490.000000	63.110995 
4489.000000	63.015127 
4488.000000	62.944006 
4487.000000	62.898874 
4486.000000	62.878465 
4485.000000	62.879705 
4484.000000	62.899374 
4483.000000	62.933063 
4482.000000	62.972807 
4481.000000	63.010668 
4480.000000	63.040232 
4479.000000	63.057398 
4478.000000	63.054537 
4477.000000	63.032793 
4476.000000	63.008713 
4475.000000	62.996721 
4474.000000	63.000130 
4473.000000	63.021016 
4472.000000	63.061165 
4471.000000	63.115167 
4470.000000	63.172578 
4469.000000	63.223028 
4468.000000	63.260006 
4467.000000	63.284492 
4466.000000	63.305807 
4465.000000	63.339972 
4464.000000	63.403892 
4463.000000	63.512301 
4462.000000	63.671660 
4461.000000	63.863873 
4460.000000	64.061164 
4459.000000	64.240765 
4458.000000	64.391279 
4457.000000	64.508628 
4456.000000	64.614057 
4455.000000	64.723110 
4454.000000	64.891886 
4453.000000	65.163826 
4452.000000	65.642213 
4451.000000	66.469001 
4450.000000	67.806077 
4449.000000	69.800519 
4448.000000	72.502207 
4447.000000	75.826072 
4446.000000	79.527449 
4445.000000	83.227872 
4444.000000	86.517739 
4443.000000	89.039778 
4442.000000	90.587139 
4441.000000	91.131949 
4440.000000	90.798497 
4439.000000	89.801549 
4438.000000	88.368844 
4437.000000	86.672401 
4436.000000	84.812140 
4435.000000	82.803559 
4434.000000	80.650615 
4433.000000	78.354597 
4432.000000	75.981783 
4431.000000	73.646783 
4430.000000	71.511435 
4429.000000	69.740438 
4428.000000	68.450093 
4427.000000	67.686390 
4426.000000	67.378830 
4425.000000	67.392134 
4424.000000	67.549324 
4423.000000	67.688822 
4422.000000	67.696619 
4421.000000	67.529058 
4420.000000	67.207264 
4419.000000	66.789698 
4418.000000	66.331577 
4417.000000	65.885519 
4416.000000	65.481662 
4415.000000	65.131354 
4414.000000	64.828705 
4413.000000	64.571166 
4412.000000	64.362454 
4411.000000	64.202713 
4410.000000	64.091587 
4409.000000	64.025759 
4408.000000	63.998913 
4407.000000	63.999938 
4406.000000	64.016199 
4405.000000	64.025592 
4404.000000	64.009523 
4403.000000	63.965058 
4402.000000	63.897943 
4401.000000	63.813662 
4400.000000	63.720726 
4399.000000	63.629889 
4398.000000	63.547801 
4397.000000	63.469791 
4396.000000	63.391590 
4395.000000	63.315296 
4394.000000	63.245177 
4393.000000	63.187503 
4392.000000	63.149762 
4391.000000	63.137817 
4390.000000	63.154911 
4389.000000	63.199687 
4388.000000	63.267540 
4387.000000	63.350987 
4386.000000	63.438963 
4385.000000	63.519644 
4384.000000	63.583970 
4383.000000	63.627457 
4382.000000	63.649654 
4381.000000	63.654589 
4380.000000	63.650059 
4379.000000	63.645243 
4378.000000	63.647413 
4377.000000	63.660883 
4376.000000	63.686442 
4375.000000	63.721489 
4374.000000	63.761949 
4373.000000	63.803148 
4372.000000	63.841938 
4371.000000	63.876652 
4370.000000	63.907170 
4369.000000	63.934803 
4368.000000	63.961267 
4367.000000	63.988375 
4366.000000	64.017057 
4365.000000	64.047908 
4364.000000	64.081168 
4363.000000	64.116263 
4362.000000	64.151906 
4361.000000	64.186072 
4360.000000	64.216423 
4359.000000	64.240598 
4358.000000	64.256453 
4357.000000	64.263010 
4356.000000	64.260292 
4355.000000	64.249825 
4354.000000	64.233684 
4353.000000	64.214420 
4352.000000	64.193558 
4351.000000	64.171743 
4350.000000	64.148020 
4349.000000	64.120244 
4348.000000	64.086294 
4347.000000	64.045023 
4346.000000	63.997316 
4345.000000	63.946175 
4344.000000	63.896918 
4343.000000	63.855838 
4342.000000	63.828706 
4341.000000	63.818812 
4340.000000	63.826465 
4339.000000	63.848710 
4338.000000	63.879919 
4337.000000	63.912892 
4336.000000	63.940787 
4335.000000	63.958597 
4334.000000	63.964176 
4333.000000	63.958930 
4332.000000	63.947391 
4331.000000	63.936281 
4330.000000	63.933014 
4329.000000	63.943862 
4328.000000	63.972711 
4327.000000	64.019823 
4326.000000	64.082407 
4325.000000	64.154410 
4324.000000	64.227962 
4323.000000	64.294457 
4322.000000	64.346528 
4321.000000	64.378619 
4320.000000	64.387679 
4319.000000	64.373564 
4318.000000	64.338946 
4317.000000	64.288592 
4316.000000	64.228653 
4315.000000	64.165520 
4314.000000	64.105558 
4313.000000	64.053726 
4312.000000	64.013433 
4311.000000	63.986229 
4310.000000	63.972115 
4309.000000	63.969922 
4308.000000	63.977932 
4307.000000	63.994264 
4306.000000	64.017319 
4305.000000	64.046120 
4304.000000	64.080405 
4303.000000	64.119887 
4302.000000	64.164400 
4301.000000	64.213275 
4300.000000	64.265799 
4299.000000	64.320349 
4298.000000	64.375138 
4297.000000	64.428400 
4296.000000	64.478325 
4295.000000	64.523601 
4294.000000	64.562916 
4293.000000	64.595699 
4292.000000	64.621281 
4291.000000	64.639377 
4290.000000	64.649558 
4289.000000	64.651679 
4288.000000	64.645624 
4287.000000	64.632105 
4286.000000	64.611697 
4285.000000	64.585137 
4284.000000	64.553546 
4283.000000	64.518642 
4282.000000	64.482188 
4281.000000	64.445900 
4280.000000	64.411902 
4279.000000	64.382529 
4278.000000	64.359951 
4277.000000	64.345765 
4276.000000	64.340591 
4275.000000	64.343810 
4274.000000	64.353251 
4273.000000	64.365768 
4272.000000	64.377021 
4271.000000	64.382791 
4270.000000	64.379858 
4269.000000	64.367127 
4268.000000	64.345288 
4267.000000	64.317512 
4266.000000	64.288496 
4265.000000	64.263987 
4264.000000	64.248800 
4263.000000	64.246773 
4262.000000	64.259457 
4261.000000	64.286661 
4260.000000	64.326119 
4259.000000	64.375066 
4258.000000	64.430594 
4257.000000	64.490628 
4256.000000	64.553785 
4255.000000	64.619255 
4254.000000	64.686179 
4253.000000	64.753222 
4252.000000	64.817929 
4251.000000	64.876747 
4250.000000	64.925265 
4249.000000	64.959621 
4248.000000	64.977097 
4247.000000	64.976835 
4246.000000	64.960098 
4245.000000	64.930868 
4244.000000	64.894437 
4243.000000	64.856672 
4242.000000	64.822745 
4241.000000	64.796590 
4240.000000	64.779925 
4239.000000	64.772891 
4238.000000	64.773821 
4237.000000	64.780521 
4236.000000	64.790153 
4235.000000	64.799976 
4234.000000	64.807796 
4233.000000	64.811873 
4232.000000	64.811372 
4231.000000	64.805984 
4230.000000	64.796304 
4229.000000	64.783287 
4228.000000	64.768457 
4227.000000	64.753699 
4226.000000	64.740777 
4225.000000	64.731216 
4224.000000	64.726328 
4223.000000	64.727139 
4222.000000	64.734315 
4221.000000	64.747881 
4220.000000	64.767718 
4219.000000	64.793229 
4218.000000	64.823174 
4217.000000	64.855813 
4216.000000	64.888906 
4215.000000	64.920091 
4214.000000	64.947056 
4213.000000	64.968132 
4212.000000	64.982295 
4211.000000	64.989852 
4210.000000	64.992475 
4209.000000	64.992427 
4208.000000	64.992308 
4207.000000	64.993858 
4206.000000	64.998149 
4205.000000	65.004801 
4204.000000	65.012598 
4203.000000	65.019655 
4202.000000	65.024137 
4201.000000	65.024948 
4200.000000	65.022206 
4199.000000	65.017104 
4198.000000	65.011596 
4197.000000	65.008187 
4196.000000	65.009021 
4195.000000	65.015196 
4194.000000	65.026330 
4193.000000	65.040707 
4192.000000	65.055751 
4191.000000	65.068268 
4190.000000	65.075707 
4189.000000	65.076851 
4188.000000	65.072464 
4187.000000	65.064668 
4186.000000	65.056824 
4185.000000	65.052461 
4184.000000	65.054273 
4183.000000	65.063524 
4182.000000	65.079641 
4181.000000	65.100574 
4180.000000	65.123009 
4179.000000	65.143561 
4178.000000	65.159201 
4177.000000	65.168333 
4176.000000	65.170478 
4175.000000	65.166258 
4174.000000	65.156602 
4173.000000	65.142369 
4172.000000	65.123963 
4171.000000	65.101242 
4170.000000	65.073919 
4169.000000	65.041851 
4168.000000	65.005517 
4167.000000	64.966344 
4166.000000	64.926505 
4165.000000	64.889049 
4164.000000	64.856767 
4163.000000	64.832568 
4162.000000	64.818787 
4161.000000	64.817547 
4160.000000	64.829969 
4159.000000	64.856386 
