PE IR       SPECTRUM    SPECTRUM    ASCII       PEDS        1.60        
  -1
BZ6CA1~1.ASC
17/04/07
14:21:08.00
17/04/07
14:21:08.00
tln
$BZ1503107-1_t0014$<tbV0>[7.8,-10.4,8.0,0.0,27,1,0]
370.000000
64









2002,4.07    
MIRTGS : RIGHTBACK : INTERNAL 2
MIR : ON : INTERNAL 2
OPTKBR

0.200000
8
8.000000
FILLER
RATIO
SPECTRUM
UNLOCKED 256

DOUBLE
64
COMBINED
1
0
0


1.000000
RATIO


1
0
TRUE
51149
0
LEFT NOT FITTED RIGHT NOT FITTED 0
NONE
NONE
15600
12.000000
4.427000
51148
TRUE
1 0 8 72 0 0 0 0 

15798.010000






#HDR
-1
-1
#GR
CM-1
%T
0.00002384185791015625
0.0
5000.000000
-1.000000
4631
8
98.343729
52.198863
#DATA
5000.000000	64.052343 
4999.000000	64.100360 
4998.000000	64.192771 
4997.000000	64.321255 
4996.000000	64.464879 
4995.000000	64.594292 
4994.000000	64.676690 
4993.000000	64.680194 
4992.000000	64.588165 
4991.000000	64.402627 
4990.000000	64.151191 
4989.000000	63.880968 
4988.000000	63.652348 
4987.000000	63.525104 
4986.000000	63.543415 
4985.000000	63.724851 
4984.000000	64.051985 
4983.000000	64.475560 
4982.000000	64.926123 
4981.000000	65.330410 
4980.000000	65.628099 
4979.000000	65.784454 
4978.000000	65.799164 
4977.000000	65.700221 
4976.000000	65.531039 
4975.000000	65.335202 
4974.000000	65.144801 
4973.000000	64.971470 
4972.000000	64.809274 
4971.000000	64.638185 
4970.000000	64.441561 
4969.000000	64.208912 
4968.000000	63.945555 
4967.000000	63.670182 
4966.000000	63.410353 
4965.000000	63.195466 
4964.000000	63.044881 
4963.000000	62.967181 
4962.000000	62.954425 
4961.000000	62.991642 
4960.000000	63.060808 
4959.000000	63.148427 
4958.000000	63.248705 
4957.000000	63.363814 
4956.000000	63.501214 
4955.000000	63.667345 
4954.000000	63.863754 
4953.000000	64.087295 
4952.000000	64.329504 
4951.000000	64.578700 
4950.000000	64.821553 
4949.000000	65.048241 
4948.000000	65.251350 
4947.000000	65.424513 
4946.000000	65.563273 
4945.000000	65.664124 
4944.000000	65.726876 
4943.000000	65.756416 
4942.000000	65.762686 
4941.000000	65.760707 
4940.000000	65.767312 
4939.000000	65.802907 
4938.000000	65.879940 
4937.000000	66.001272 
4936.000000	66.155076 
4935.000000	66.318702 
4934.000000	66.460824 
4933.000000	66.549801 
4932.000000	66.561412 
4931.000000	66.486048 
4930.000000	66.329026 
4929.000000	66.109395 
4928.000000	65.853357 
4927.000000	65.587401 
4926.000000	65.332078 
4925.000000	65.098023 
4924.000000	64.884996 
4923.000000	64.685559 
4922.000000	64.491128 
4921.000000	64.298129 
4920.000000	64.109110 
4919.000000	63.937044 
4918.000000	63.800883 
4917.000000	63.723778 
4916.000000	63.721036 
4915.000000	63.800859 
4914.000000	63.959550 
4913.000000	64.182400 
4912.000000	64.444589 
4911.000000	64.716267 
4910.000000	64.967226 
4909.000000	65.171718 
4908.000000	65.311670 
4907.000000	65.379905 
4906.000000	65.379667 
4905.000000	65.324068 
4904.000000	65.232443 
4903.000000	65.126633 
4902.000000	65.026593 
4901.000000	64.947772 
4900.000000	64.898777 
4899.000000	64.880251 
4898.000000	64.886069 
4897.000000	64.906954 
4896.000000	64.932632 
4895.000000	64.953422 
4894.000000	64.962506 
4893.000000	64.957642 
4892.000000	64.939975 
4891.000000	64.911127 
4890.000000	64.873027 
4889.000000	64.826250 
4888.000000	64.771056 
4887.000000	64.707803 
4886.000000	64.637994 
4885.000000	64.565658 
4884.000000	64.496517 
4883.000000	64.437675 
4882.000000	64.395546 
4881.000000	64.373350 
4880.000000	64.371538 
4879.000000	64.387392 
4878.000000	64.415836 
4877.000000	64.450550 
4876.000000	64.486575 
4875.000000	64.521670 
4874.000000	64.556455 
4873.000000	64.594078 
4872.000000	64.638209 
4871.000000	64.691662 
4870.000000	64.755201 
4869.000000	64.826917 
4868.000000	64.903044 
4867.000000	64.978122 
4866.000000	65.047860 
4865.000000	65.107917 
4864.000000	65.155601 
4863.000000	65.188097 
4862.000000	65.202975 
4861.000000	65.197372 
4860.000000	65.168714 
4859.000000	65.115714 
4858.000000	65.039515 
4857.000000	64.944887 
4856.000000	64.839720 
4855.000000	64.735770 
4854.000000	64.646673 
4853.000000	64.586257 
4852.000000	64.565849 
4851.000000	64.592051 
4850.000000	64.665055 
4849.000000	64.777541 
4848.000000	64.915752 
4847.000000	65.061783 
4846.000000	65.196704 
4845.000000	65.303635 
4844.000000	65.370726 
4843.000000	65.392780 
4842.000000	65.371561 
4841.000000	65.315914 
4840.000000	65.238690 
4839.000000	65.153813 
4838.000000	65.073132 
4837.000000	65.005016 
4836.000000	64.952945 
4835.000000	64.916682 
4834.000000	64.893221 
4833.000000	64.879345 
4832.000000	64.872598 
4831.000000	64.872717 
4830.000000	64.880585 
4829.000000	64.896512 
4828.000000	64.919948 
4827.000000	64.947462 
4826.000000	64.975118 
4825.000000	64.998650 
4824.000000	65.016865 
4823.000000	65.031981 
4822.000000	65.050601 
4821.000000	65.081477 
4820.000000	65.133237 
4819.000000	65.210294 
4818.000000	65.309643 
4817.000000	65.419411 
4816.000000	65.519738 
4815.000000	65.587282 
4814.000000	65.601491 
4813.000000	65.551018 
4812.000000	65.437030 
4811.000000	65.275645 
4810.000000	65.095162 
4809.000000	64.930558 
4808.000000	64.815640 
4807.000000	64.774966 
4806.000000	64.818811 
4805.000000	64.940047 
4804.000000	65.117573 
4803.000000	65.319752 
4802.000000	65.512514 
4801.000000	65.666198 
4800.000000	65.760898 
4799.000000	65.791034 
4798.000000	65.764355 
4797.000000	65.698909 
4796.000000	65.616703 
4795.000000	65.539073 
4794.000000	65.481066 
4793.000000	65.449929 
4792.000000	65.444183 
4791.000000	65.455913 
4790.000000	65.473222 
4789.000000	65.484523 
4788.000000	65.480828 
4787.000000	65.456247 
4786.000000	65.409708 
4785.000000	65.342426 
4784.000000	65.259718 
4783.000000	65.169382 
4782.000000	65.081524 
4781.000000	65.007567 
4780.000000	64.957427 
4779.000000	64.938735 
4778.000000	64.953041 
4777.000000	64.996576 
4776.000000	65.057849 
4775.000000	65.119910 
4774.000000	65.163135 
4773.000000	65.169191 
4772.000000	65.126299 
4771.000000	65.032100 
4770.000000	64.895486 
4769.000000	64.734625 
4768.000000	64.575314 
4767.000000	64.445447 
4766.000000	64.369392 
4765.000000	64.362359 
4764.000000	64.427566 
4763.000000	64.555406 
4762.000000	64.726090 
4761.000000	64.913749 
4760.000000	65.091180 
4759.000000	65.235733 
4758.000000	65.331983 
4757.000000	65.375065 
4756.000000	65.369606 
4755.000000	65.328407 
4754.000000	65.268015 
4753.000000	65.204834 
4752.000000	65.152192 
4751.000000	65.117216 
4750.000000	65.102005 
4749.000000	65.102720 
4748.000000	65.113329 
4747.000000	65.126323 
4746.000000	65.136146 
4745.000000	65.138673 
4744.000000	65.131831 
4743.000000	65.115261 
4742.000000	65.089416 
4741.000000	65.056467 
4740.000000	65.019440 
4739.000000	64.982581 
4738.000000	64.950394 
4737.000000	64.926815 
4736.000000	64.914035 
4735.000000	64.912390 
4734.000000	64.919734 
4733.000000	64.931726 
4732.000000	64.942359 
4731.000000	64.945864 
4730.000000	64.937019 
4729.000000	64.913129 
4728.000000	64.873409 
4727.000000	64.818716 
4726.000000	64.751386 
4725.000000	64.674615 
4724.000000	64.592647 
4723.000000	64.509630 
4722.000000	64.430761 
4721.000000	64.361715 
4720.000000	64.308691 
4719.000000	64.277839 
4718.000000	64.272975 
4717.000000	64.294171 
4716.000000	64.336800 
4715.000000	64.392018 
4714.000000	64.448547 
4713.000000	64.495086 
4712.000000	64.523196 
4711.000000	64.529323 
4710.000000	64.515066 
4709.000000	64.486980 
4708.000000	64.454603 
4707.000000	64.428257 
4706.000000	64.416265 
4705.000000	64.423012 
4704.000000	64.448928 
4703.000000	64.489960 
4702.000000	64.539194 
4701.000000	64.588117 
4700.000000	64.628934 
4699.000000	64.656090 
4698.000000	64.666986 
4697.000000	64.662909 
4696.000000	64.647698 
4695.000000	64.627790 
4694.000000	64.610433 
4693.000000	64.602541 
4692.000000	64.609622 
4691.000000	64.634060 
4690.000000	64.674782 
4689.000000	64.727616 
4688.000000	64.786434 
4687.000000	64.844703 
4686.000000	64.897108 
4685.000000	64.940977 
4684.000000	64.976692 
4683.000000	65.007495 
4682.000000	65.038275 
4681.000000	65.073633 
4680.000000	65.116095 
4679.000000	65.165662 
4678.000000	65.218830 
4677.000000	65.270376 
4676.000000	65.313482 
4675.000000	65.342307 
4674.000000	65.352249 
4673.000000	65.342116 
4672.000000	65.312981 
4671.000000	65.268754 
4670.000000	65.214633 
4669.000000	65.155744 
4668.000000	65.096807 
4667.000000	65.042138 
4666.000000	64.995026 
4665.000000	64.958071 
4664.000000	64.932966 
4663.000000	64.920735 
4662.000000	64.920973 
4661.000000	64.931797 
4660.000000	64.949727 
4659.000000	64.970111 
4658.000000	64.987349 
4657.000000	64.995980 
4656.000000	64.992427 
4655.000000	64.975810 
4654.000000	64.948344 
4653.000000	64.914870 
4652.000000	64.882230 
4651.000000	64.857387 
4650.000000	64.845848 
4649.000000	64.849615 
4648.000000	64.866876 
4647.000000	64.891505 
4646.000000	64.915108 
4645.000000	64.928483 
4644.000000	64.923572 
4643.000000	64.895653 
4642.000000	64.844655 
4641.000000	64.775347 
4640.000000	64.696025 
4639.000000	64.616990 
4638.000000	64.548301 
4637.000000	64.497208 
4636.000000	64.466500 
4635.000000	64.454293 
4634.000000	64.454984 
4633.000000	64.460802 
4632.000000	64.463925 
4631.000000	64.458513 
4630.000000	64.442181 
4629.000000	64.416289 
4628.000000	64.385509 
4627.000000	64.355754 
4626.000000	64.332985 
4625.000000	64.321494 
4624.000000	64.323663 
4623.000000	64.339470 
4622.000000	64.367556 
4621.000000	64.406156 
4620.000000	64.453887 
4619.000000	64.510440 
4618.000000	64.575815 
4617.000000	64.649772 
4616.000000	64.730882 
4615.000000	64.815711 
4614.000000	64.899063 
4613.000000	64.974403 
4612.000000	65.035653 
4611.000000	65.078520 
4610.000000	65.101528 
4609.000000	65.106487 
4608.000000	65.097880 
4607.000000	65.082192 
4606.000000	65.064835 
4605.000000	65.049195 
4604.000000	65.035438 
4603.000000	65.020990 
4602.000000	65.001726 
4601.000000	64.973831 
4600.000000	64.935445 
4599.000000	64.888000 
4598.000000	64.836525 
4597.000000	64.788317 
4596.000000	64.751029 
4595.000000	64.730525 
4594.000000	64.728951 
4593.000000	64.744305 
4592.000000	64.770388 
4591.000000	64.799237 
4590.000000	64.822912 
4589.000000	64.836049 
4588.000000	64.836692 
4587.000000	64.827132 
4586.000000	64.812898 
4585.000000	64.801049 
4584.000000	64.797210 
4583.000000	64.804983 
4582.000000	64.824891 
4581.000000	64.854168 
4580.000000	64.887475 
4579.000000	64.918494 
4578.000000	64.941358 
4577.000000	64.951658 
4576.000000	64.947152 
4575.000000	64.928030 
4574.000000	64.896535 
4573.000000	64.856648 
4572.000000	64.813041 
4571.000000	64.770054 
4570.000000	64.731001 
4569.000000	64.698505 
4568.000000	64.673781 
4567.000000	64.657115 
4566.000000	64.647650 
4565.000000	64.644074 
4564.000000	64.644789 
4563.000000	64.647698 
4562.000000	64.650678 
4561.000000	64.651513 
4560.000000	64.648175 
4559.000000	64.639377 
4558.000000	64.624166 
4557.000000	64.602208 
4556.000000	64.573454 
4555.000000	64.538025 
4554.000000	64.496088 
4553.000000	64.448165 
4552.000000	64.395546 
4551.000000	64.340615 
4550.000000	64.286851 
4549.000000	64.238786 
4548.000000	64.201259 
4547.000000	64.178824 
4546.000000	64.174652 
4545.000000	64.190363 
4544.000000	64.225625 
4543.000000	64.278340 
4542.000000	64.344954 
4541.000000	64.420342 
4540.000000	64.497828 
4539.000000	64.570188 
4538.000000	64.630198 
4537.000000	64.671945 
4536.000000	64.691066 
4535.000000	64.686369 
4534.000000	64.660382 
4533.000000	64.618992 
4532.000000	64.570546 
4531.000000	64.524054 
4530.000000	64.488458 
4529.000000	64.469122 
4528.000000	64.466881 
4527.000000	64.478445 
4526.000000	64.497733 
4525.000000	64.517068 
4524.000000	64.528918 
4523.000000	64.529752 
4522.000000	64.520883 
4521.000000	64.505505 
4520.000000	64.487862 
4519.000000	64.471864 
4518.000000	64.460515 
4517.000000	64.455008 
4516.000000	64.455342 
4515.000000	64.462780 
4514.000000	64.478683 
4513.000000	64.501667 
4512.000000	64.530205 
4511.000000	64.561843 
4510.000000	64.595198 
4509.000000	64.630603 
4508.000000	64.669585 
4507.000000	64.713382 
4506.000000	64.763045 
4505.000000	64.818668 
4504.000000	64.879083 
4503.000000	64.939117 
4502.000000	64.997649 
4501.000000	65.058374 
4500.000000	65.131735 
4499.000000	65.231776 
4498.000000	65.377235 
4497.000000	65.585875 
4496.000000	65.865182 
4495.000000	66.208291 
4494.000000	66.591119 
4493.000000	66.978502 
4492.000000	67.327976 
4491.000000	67.605042 
4490.000000	67.796921 
4489.000000	67.916297 
4488.000000	68.002581 
4487.000000	68.104958 
4486.000000	68.271613 
4485.000000	68.525552 
4484.000000	68.857598 
4483.000000	69.220662 
4482.000000	69.545149 
4481.000000	69.750785 
4480.000000	69.779729 
4479.000000	69.598531 
4478.000000	69.211602 
4477.000000	68.654680 
4476.000000	67.989635 
4475.000000	67.284202 
4474.000000	66.598391 
4473.000000	65.971207 
4472.000000	65.418624 
4471.000000	64.931225 
4470.000000	64.484381 
4469.000000	64.055824 
4468.000000	63.637113 
4467.000000	63.235187 
4466.000000	62.871360 
4465.000000	62.571239 
4464.000000	62.354946 
4463.000000	62.226700 
4462.000000	62.171816 
4461.000000	62.146234 
4460.000000	62.099623 
4459.000000	61.981678 
4458.000000	61.774158 
4457.000000	61.484479 
4456.000000	61.170125 
4455.000000	60.929536 
4454.000000	60.876250 
4453.000000	61.110544 
4452.000000	61.678624 
4451.000000	62.548851 
4450.000000	63.614869 
4449.000000	64.706730 
4448.000000	65.655112 
4447.000000	66.331315 
4446.000000	66.699814 
4445.000000	66.827464 
4444.000000	66.867709 
4443.000000	67.011499 
4442.000000	67.431235 
4441.000000	68.221187 
4440.000000	69.359946 
4439.000000	70.703792 
4438.000000	72.030544 
4437.000000	73.086476 
4436.000000	73.660898 
4435.000000	73.628306 
4434.000000	72.990894 
4433.000000	71.860313 
4432.000000	70.420408 
4431.000000	68.880963 
4430.000000	67.421174 
4429.000000	66.164493 
4428.000000	65.172147 
4427.000000	64.443850 
4426.000000	63.955950 
4425.000000	63.663959 
4424.000000	63.530373 
4423.000000	63.523387 
4422.000000	63.610196 
4421.000000	63.766360 
4420.000000	63.962125 
4419.000000	64.171671 
4418.000000	64.364576 
4417.000000	64.523792 
4416.000000	64.644670 
4415.000000	64.734315 
4414.000000	64.806628 
4413.000000	64.878606 
4412.000000	64.963173 
4411.000000	65.061426 
4410.000000	65.162825 
4409.000000	65.251040 
4408.000000	65.308117 
4407.000000	65.324950 
4406.000000	65.300154 
4405.000000	65.244317 
4404.000000	65.171885 
4403.000000	65.093827 
4402.000000	65.016889 
4401.000000	64.940142 
4400.000000	64.859890 
4399.000000	64.778876 
4398.000000	64.700651 
4397.000000	64.628005 
4396.000000	64.565944 
4395.000000	64.521551 
4394.000000	64.500212 
4393.000000	64.503073 
4392.000000	64.528155 
4391.000000	64.570188 
4390.000000	64.622497 
4389.000000	64.678406 
4388.000000	64.732670 
4387.000000	64.781856 
4386.000000	64.825797 
4385.000000	64.866209 
4384.000000	64.904308 
4383.000000	64.939618 
4382.000000	64.969778 
4381.000000	64.990520 
4380.000000	64.997148 
4379.000000	64.985537 
4378.000000	64.954233 
4377.000000	64.904928 
4376.000000	64.843010 
4375.000000	64.776659 
4374.000000	64.715480 
4373.000000	64.668440 
4372.000000	64.642500 
4371.000000	64.640307 
4370.000000	64.659786 
4369.000000	64.694499 
4368.000000	64.735746 
4367.000000	64.774560 
4366.000000	64.803767 
4365.000000	64.819693 
4364.000000	64.822506 
4363.000000	64.815425 
4362.000000	64.803123 
4361.000000	64.789676 
4360.000000	64.777255 
4359.000000	64.765691 
4358.000000	64.752745 
4357.000000	64.735150 
4356.000000	64.710116 
4355.000000	64.676928 
4354.000000	64.637804 
4353.000000	64.597344 
4352.000000	64.562129 
4351.000000	64.539122 
4350.000000	64.534115 
4349.000000	64.550065 
4348.000000	64.586329 
4347.000000	64.638471 
4346.000000	64.699101 
4345.000000	64.759826 
4344.000000	64.812374 
4343.000000	64.850330 
4342.000000	64.870095 
4341.000000	64.871716 
4340.000000	64.857721 
4339.000000	64.832139 
4338.000000	64.799404 
4337.000000	64.763569 
4336.000000	64.727497 
4335.000000	64.692711 
4334.000000	64.660024 
4333.000000	64.629673 
4332.000000	64.601850 
4331.000000	64.577031 
4330.000000	64.555668 
4329.000000	64.538502 
4328.000000	64.525675 
4327.000000	64.517259 
4326.000000	64.512538 
4325.000000	64.511084 
4324.000000	64.512372 
4323.000000	64.516973 
4322.000000	64.525747 
4321.000000	64.540719 
4320.000000	64.563798 
4319.000000	64.597058 
4318.000000	64.641261 
4317.000000	64.695954 
4316.000000	64.759087 
4315.000000	64.827203 
4314.000000	64.895868 
4313.000000	64.960741 
4312.000000	65.018391 
4311.000000	65.066766 
4310.000000	65.105271 
4309.000000	65.134644 
4308.000000	65.156364 
4307.000000	65.172410 
4306.000000	65.184497 
4305.000000	65.193581 
4304.000000	65.199518 
4303.000000	65.202021 
4302.000000	65.200376 
4301.000000	65.194225 
4300.000000	65.183377 
4299.000000	65.168404 
4298.000000	65.150427 
4297.000000	65.131115 
4296.000000	65.112090 
4295.000000	65.094947 
4294.000000	65.080833 
4293.000000	65.070676 
4292.000000	65.064573 
4291.000000	65.061974 
4290.000000	65.061402 
4289.000000	65.060925 
4288.000000	65.058183 
4287.000000	65.050816 
4286.000000	65.037417 
4285.000000	65.017771 
4284.000000	64.993619 
4283.000000	64.968109 
4282.000000	64.945578 
4281.000000	64.930486 
4280.000000	64.926290 
4279.000000	64.934468 
4278.000000	64.953994 
4277.000000	64.981269 
4276.000000	65.011048 
4275.000000	65.037155 
4274.000000	65.054178 
4273.000000	65.058517 
4272.000000	65.049242 
4271.000000	65.027904 
4270.000000	64.998149 
4269.000000	64.964652 
4268.000000	64.931917 
4267.000000	64.903569 
4266.000000	64.881420 
4265.000000	64.866018 
4264.000000	64.856648 
4263.000000	64.852476 
4262.000000	64.853000 
4261.000000	64.858627 
4260.000000	64.870285 
4259.000000	64.889526 
4258.000000	64.917564 
4257.000000	64.955019 
4256.000000	65.001034 
4255.000000	65.053462 
4254.000000	65.109086 
4253.000000	65.164208 
4252.000000	65.215182 
4251.000000	65.259003 
4250.000000	65.293478 
4249.000000	65.317726 
4248.000000	65.331888 
4247.000000	65.336942 
4246.000000	65.334320 
4245.000000	65.326189 
4244.000000	65.314936 
4243.000000	65.303707 
4242.000000	65.295147 
4241.000000	65.292263 
4240.000000	65.296459 
4239.000000	65.307855 
4238.000000	65.324401 
4237.000000	65.342640 
4236.000000	65.357899 
4235.000000	65.365481 
4234.000000	65.362095 
4233.000000	65.346622 
4232.000000	65.320301 
4231.000000	65.286660 
4230.000000	65.250444 
4229.000000	65.216517 
4228.000000	65.188980 
4227.000000	65.170407 
4226.000000	65.161371 
4225.000000	65.160489 
4224.000000	65.165638 
4223.000000	65.174579 
4222.000000	65.185427 
4221.000000	65.197110 
4220.000000	65.209269 
4219.000000	65.222334 
4218.000000	65.236449 
4217.000000	65.251636 
4216.000000	65.267586 
4215.000000	65.283584 
4214.000000	65.299105 
4213.000000	65.313434 
4212.000000	65.326380 
4211.000000	65.338039 
4210.000000	65.348434 
4209.000000	65.358018 
4208.000000	65.367627 
4207.000000	65.377783 
4206.000000	65.388870 
4205.000000	65.400123 
4204.000000	65.410161 
4203.000000	65.416264 
4202.000000	65.415453 
4201.000000	65.404629 
4200.000000	65.381669 
4199.000000	65.345954 
4198.000000	65.299272 
4197.000000	65.245294 
4196.000000	65.189409 
4195.000000	65.137839 
4194.000000	65.096831 
4193.000000	65.071535 
4192.000000	65.065073 
4191.000000	65.078234 
4190.000000	65.108752 
4189.000000	65.151953 
4188.000000	65.200591 
4187.000000	65.246510 
4186.000000	65.281152 
4185.000000	65.296912 
4184.000000	65.288472 
4183.000000	65.253281 
4182.000000	65.193128 
4181.000000	65.113687 
4180.000000	65.023994 
4179.000000	64.935183 
4178.000000	64.858365 
4177.000000	64.803004 
4176.000000	64.774751 
4175.000000	64.774799 
4174.000000	64.799594 
4173.000000	64.841890 
4172.000000	64.892387 
4171.000000	64.941883 
4170.000000	64.982843 
4169.000000	65.011191 
4168.000000	65.026450 
4167.000000	65.031766 
4166.000000	65.032529 
4165.000000	65.035104 
4164.000000	65.045332 
4163.000000	65.066814 
4162.000000	65.100431 
4161.000000	65.143632 
4160.000000	65.191984 
4159.000000	65.239238 
