PE IR       SPECTRUM    SPECTRUM    ASCII       PEDS        1.60        
  -1
BZ6032~1.ASC
17/04/07
13:52:49.00
17/04/07
13:52:49.00
tln
$BZ1503107-1_t0008$<tbV0>[-5.2,-13.0,8.0,0.0,27,1,0]
370.000000
64









2002,4.07    
MIRTGS : RIGHTBACK : INTERNAL 2
MIR : ON : INTERNAL 2
OPTKBR

0.200000
8
8.000000
FILLER
RATIO
SPECTRUM
UNLOCKED 256

DOUBLE
64
COMBINED
1
0
0


1.000000
RATIO


1
0
TRUE
51149
0
LEFT NOT FITTED RIGHT NOT FITTED 0
NONE
NONE
15600
12.000000
4.427000
51148
TRUE
1 0 8 72 0 0 0 0 

15798.010000






#HDR
-1
-1
#GR
CM-1
%T
0.00002384185791015625
0.0
5000.000000
-1.000000
4631
8
85.573005
44.066548
#DATA
5000.000000	61.925411 
4999.000000	61.948394 
4998.000000	61.979269 
4997.000000	62.023115 
4996.000000	62.086892 
4995.000000	62.175130 
4994.000000	62.291812 
4993.000000	62.437987 
4992.000000	62.612652 
4991.000000	62.812566 
4990.000000	63.031077 
4989.000000	63.258814 
4988.000000	63.481974 
4987.000000	63.684058 
4986.000000	63.846778 
4985.000000	63.953471 
4984.000000	63.991737 
4983.000000	63.956403 
4982.000000	63.852381 
4981.000000	63.693952 
4980.000000	63.501954 
4979.000000	63.299179 
4978.000000	63.106656 
4977.000000	62.939310 
4976.000000	62.804675 
4975.000000	62.702679 
4974.000000	62.627482 
4973.000000	62.571310 
4972.000000	62.528109 
4971.000000	62.496376 
4970.000000	62.478280 
4969.000000	62.479853 
4968.000000	62.505888 
4967.000000	62.559485 
4966.000000	62.638044 
4965.000000	62.734246 
4964.000000	62.835621 
4963.000000	62.928867 
4962.000000	63.002800 
4961.000000	63.051271 
4960.000000	63.074588 
4959.000000	63.078284 
4958.000000	63.070583 
4957.000000	63.060379 
4956.000000	63.053774 
4955.000000	63.051104 
4954.000000	63.045573 
4953.000000	63.025021 
4952.000000	62.974119 
4951.000000	62.878441 
4950.000000	62.728786 
4949.000000	62.522983 
4948.000000	62.269973 
4947.000000	61.987328 
4946.000000	61.702537 
4945.000000	61.445689 
4944.000000	61.249089 
4943.000000	61.138629 
4942.000000	61.133718 
4941.000000	61.242270 
4940.000000	61.461257 
4939.000000	61.775422 
4938.000000	62.159609 
4937.000000	62.580847 
4936.000000	63.002157 
4935.000000	63.386726 
4934.000000	63.701248 
4933.000000	63.919210 
4932.000000	64.024281 
4931.000000	64.012217 
4930.000000	63.890910 
4929.000000	63.679242 
4928.000000	63.405561 
4927.000000	63.103342 
4926.000000	62.807416 
4925.000000	62.547898 
4924.000000	62.348508 
4923.000000	62.221384 
4922.000000	62.166428 
4921.000000	62.171649 
4920.000000	62.216091 
4919.000000	62.275457 
4918.000000	62.325072 
4917.000000	62.348151 
4916.000000	62.335538 
4915.000000	62.291145 
4914.000000	62.226176 
4913.000000	62.160253 
4912.000000	62.114048 
4911.000000	62.106442 
4910.000000	62.149071 
4909.000000	62.244701 
4908.000000	62.386441 
4907.000000	62.560057 
4906.000000	62.748360 
4905.000000	62.932348 
4904.000000	63.094806 
4903.000000	63.223528 
4902.000000	63.312602 
4901.000000	63.361167 
4900.000000	63.372516 
4899.000000	63.353204 
4898.000000	63.311100 
4897.000000	63.256192 
4896.000000	63.198041 
4895.000000	63.144040 
4894.000000	63.098859 
4893.000000	63.066434 
4892.000000	63.049173 
4891.000000	63.047695 
4890.000000	63.061881 
4889.000000	63.091206 
4888.000000	63.134789 
4887.000000	63.190960 
4886.000000	63.256788 
4885.000000	63.327932 
4884.000000	63.398051 
4883.000000	63.459587 
4882.000000	63.504052 
4881.000000	63.523864 
4880.000000	63.512802 
4879.000000	63.467645 
4878.000000	63.388729 
4877.000000	63.280630 
4876.000000	63.152003 
4875.000000	63.015198 
4874.000000	62.884306 
4873.000000	62.773704 
4872.000000	62.698125 
4871.000000	62.670445 
4870.000000	62.699103 
4869.000000	62.786054 
4868.000000	62.925744 
4867.000000	63.105130 
4866.000000	63.303828 
4865.000000	63.498735 
4864.000000	63.667511 
4863.000000	63.793587 
4862.000000	63.868522 
4861.000000	63.893866 
4860.000000	63.879632 
4859.000000	63.841915 
4858.000000	63.798856 
4857.000000	63.766026 
4856.000000	63.754200 
4855.000000	63.766455 
4854.000000	63.799953 
4853.000000	63.846087 
4852.000000	63.894915 
4851.000000	63.936138 
4850.000000	63.962149 
4849.000000	63.968181 
4848.000000	63.953065 
4847.000000	63.918542 
4846.000000	63.868498 
4845.000000	63.807916 
4844.000000	63.741445 
4843.000000	63.674211 
4842.000000	63.609933 
4841.000000	63.550710 
4840.000000	63.496232 
4839.000000	63.444018 
4838.000000	63.390851 
4837.000000	63.333559 
4836.000000	63.271546 
4835.000000	63.207197 
4834.000000	63.146567 
4833.000000	63.097977 
4832.000000	63.069725 
4831.000000	63.067793 
4830.000000	63.092780 
4829.000000	63.138842 
4828.000000	63.193845 
4827.000000	63.241410 
4826.000000	63.265562 
4825.000000	63.254332 
4824.000000	63.204836 
4823.000000	63.124036 
4822.000000	63.028931 
4821.000000	62.942314 
4820.000000	62.887215 
4819.000000	62.880349 
4818.000000	62.927269 
4817.000000	63.020396 
4816.000000	63.139533 
4815.000000	63.257622 
4814.000000	63.347363 
4813.000000	63.389992 
4812.000000	63.378930 
4811.000000	63.324308 
4810.000000	63.249588 
4809.000000	63.187146 
4808.000000	63.168907 
4807.000000	63.218235 
4806.000000	63.343715 
4805.000000	63.535642 
4804.000000	63.769650 
4803.000000	64.010715 
4802.000000	64.222979 
4801.000000	64.376640 
4800.000000	64.455103 
4799.000000	64.457154 
4798.000000	64.395713 
4797.000000	64.293313 
4796.000000	64.175391 
4795.000000	64.064145 
4794.000000	63.973712 
4793.000000	63.909339 
4792.000000	63.867735 
4791.000000	63.839030 
4790.000000	63.810467 
4789.000000	63.770866 
4788.000000	63.713121 
4787.000000	63.634300 
4786.000000	63.537096 
4785.000000	63.426136 
4784.000000	63.309574 
4783.000000	63.196921 
4782.000000	63.098549 
4781.000000	63.023686 
4780.000000	62.978839 
4779.000000	62.967419 
4778.000000	62.986993 
4777.000000	63.029909 
4776.000000	63.083100 
4775.000000	63.129830 
4774.000000	63.153767 
4773.000000	63.141036 
4772.000000	63.086128 
4771.000000	62.992858 
4770.000000	62.875556 
4769.000000	62.755370 
4768.000000	62.659072 
4767.000000	62.612533 
4766.000000	62.635445 
4765.000000	62.735795 
4764.000000	62.906551 
4763.000000	63.125801 
4762.000000	63.361358 
4761.000000	63.576531 
4760.000000	63.737201 
4759.000000	63.818979 
4758.000000	63.812041 
4757.000000	63.722777 
4756.000000	63.570880 
4755.000000	63.385272 
4754.000000	63.197398 
4753.000000	63.035035 
4752.000000	62.918543 
4751.000000	62.857007 
4750.000000	62.850546 
4749.000000	62.889552 
4748.000000	62.959766 
4747.000000	63.044142 
4746.000000	63.127040 
4745.000000	63.195562 
4744.000000	63.240385 
4743.000000	63.256788 
4742.000000	63.243317 
4741.000000	63.203477 
4740.000000	63.144159 
4739.000000	63.075470 
4738.000000	63.009023 
4737.000000	62.956237 
4736.000000	62.926554 
4735.000000	62.926173 
4734.000000	62.956404 
4733.000000	63.014292 
4732.000000	63.092088 
4731.000000	63.179278 
4730.000000	63.263106 
4729.000000	63.331055 
4728.000000	63.371992 
4727.000000	63.376879 
4726.000000	63.341474 
4725.000000	63.266444 
4724.000000	63.159132 
4723.000000	63.032293 
4722.000000	62.902665 
4721.000000	62.788081 
4720.000000	62.704229 
4719.000000	62.662720 
4718.000000	62.666916 
4717.000000	62.711429 
4716.000000	62.782311 
4715.000000	62.860298 
4714.000000	62.925028 
4713.000000	62.959837 
4712.000000	62.955307 
4711.000000	62.911629 
4710.000000	62.838077 
4709.000000	62.750911 
4708.000000	62.669324 
4707.000000	62.610721 
4706.000000	62.587189 
4705.000000	62.602281 
4704.000000	62.651896 
4703.000000	62.724232 
4702.000000	62.803578 
4701.000000	62.873411 
4700.000000	62.919735 
4699.000000	62.934589 
4698.000000	62.916421 
4697.000000	62.871432 
4696.000000	62.810254 
4695.000000	62.746953 
4694.000000	62.695074 
4693.000000	62.665486 
4692.000000	62.664914 
4691.000000	62.693810 
4690.000000	62.746953 
4689.000000	62.815093 
4688.000000	62.887597 
4687.000000	62.954545 
4686.000000	63.008856 
4685.000000	63.047575 
4684.000000	63.071703 
4683.000000	63.085746 
4682.000000	63.095664 
4681.000000	63.106703 
4680.000000	63.121414 
4679.000000	63.139367 
4678.000000	63.156914 
4677.000000	63.169264 
4676.000000	63.171434 
4675.000000	63.159990 
4674.000000	63.134169 
4673.000000	63.096809 
4672.000000	63.053750 
4671.000000	63.012266 
4670.000000	62.980151 
4669.000000	62.963080 
4668.000000	62.964940 
4667.000000	62.987399 
4666.000000	63.029599 
4665.000000	63.088583 
4664.000000	63.159179 
4663.000000	63.235211 
4662.000000	63.309049 
4661.000000	63.372516 
4660.000000	63.417625 
4659.000000	63.437914 
4658.000000	63.429117 
4657.000000	63.390350 
4656.000000	63.325333 
4655.000000	63.242149 
4654.000000	63.152074 
4653.000000	63.067865 
4652.000000	63.002204 
4651.000000	62.965369 
4650.000000	62.963342 
4649.000000	62.996768 
4648.000000	63.061475 
4647.000000	63.148522 
4646.000000	63.246560 
4645.000000	63.342785 
4644.000000	63.425016 
4643.000000	63.483047 
4642.000000	63.509726 
4641.000000	63.501834 
4640.000000	63.459730 
4639.000000	63.387584 
4638.000000	63.292932 
4637.000000	63.184952 
4636.000000	63.073420 
4635.000000	62.967181 
4634.000000	62.873458 
4633.000000	62.796425 
4632.000000	62.737202 
4631.000000	62.693715 
4630.000000	62.661957 
4629.000000	62.637209 
4628.000000	62.615776 
4627.000000	62.594890 
4626.000000	62.574005 
4625.000000	62.553668 
4624.000000	62.536025 
4623.000000	62.522983 
4622.000000	62.516427 
4621.000000	62.516689 
4620.000000	62.523603 
4619.000000	62.536144 
4618.000000	62.553262 
4617.000000	62.573909 
4616.000000	62.597513 
4615.000000	62.623476 
4614.000000	62.651729 
4613.000000	62.682199 
4612.000000	62.714982 
4611.000000	62.749576 
4610.000000	62.785649 
4609.000000	62.822747 
4608.000000	62.860441 
4607.000000	62.898349 
4606.000000	62.934494 
4605.000000	62.965536 
4604.000000	62.987112 
4603.000000	62.994766 
4602.000000	62.984848 
4601.000000	62.955784 
4600.000000	62.909650 
4599.000000	62.851953 
4598.000000	62.791061 
4597.000000	62.736654 
4596.000000	62.697410 
4595.000000	62.679362 
4594.000000	62.684988 
4593.000000	62.712454 
4592.000000	62.756013 
4591.000000	62.807345 
4590.000000	62.857532 
4589.000000	62.898707 
4588.000000	62.924933 
4587.000000	62.933945 
4586.000000	62.926697 
4585.000000	62.907528 
4584.000000	62.882161 
4583.000000	62.857604 
4582.000000	62.840461 
4581.000000	62.836194 
4580.000000	62.847971 
4579.000000	62.876081 
4578.000000	62.917900 
4577.000000	62.967944 
4576.000000	63.019037 
4575.000000	63.063120 
4574.000000	63.092732 
4573.000000	63.102364 
4572.000000	63.089084 
4571.000000	63.052439 
4570.000000	62.994170 
4569.000000	62.918281 
4568.000000	62.829661 
4567.000000	62.733530 
4566.000000	62.634539 
4565.000000	62.537217 
4564.000000	62.444782 
4563.000000	62.359666 
4562.000000	62.283325 
4561.000000	62.216210 
4560.000000	62.158846 
4559.000000	62.111854 
4558.000000	62.076306 
4557.000000	62.052726 
4556.000000	62.041854 
4555.000000	62.043881 
4554.000000	62.058019 
4553.000000	62.081694 
4552.000000	62.112236 
4551.000000	62.146973 
4550.000000	62.183880 
4549.000000	62.221932 
4548.000000	62.260961 
4547.000000	62.301969 
4546.000000	62.346529 
4545.000000	62.396383 
4544.000000	62.453293 
4543.000000	62.517499 
4542.000000	62.588620 
4541.000000	62.663626 
4540.000000	62.736654 
4539.000000	62.799024 
4538.000000	62.842154 
4537.000000	62.858462 
4536.000000	62.843656 
4535.000000	62.797665 
4534.000000	62.727499 
4533.000000	62.642598 
4532.000000	62.553739 
4531.000000	62.469315 
4530.000000	62.394905 
4529.000000	62.330007 
4528.000000	62.268996 
4527.000000	62.204003 
4526.000000	62.128376 
4525.000000	62.038779 
4524.000000	61.937046 
4523.000000	61.831831 
4522.000000	61.737179 
4521.000000	61.667513 
4520.000000	61.635136 
4519.000000	61.646080 
4518.000000	61.700177 
4517.000000	61.791896 
4516.000000	61.912107 
4515.000000	62.051606 
4514.000000	62.201714 
4513.000000	62.352299 
4512.000000	62.495398 
4511.000000	62.623119 
4510.000000	62.731671 
4509.000000	62.821102 
4508.000000	62.895560 
4507.000000	62.961459 
4506.000000	63.026070 
4505.000000	63.096690 
4504.000000	63.177776 
4503.000000	63.268113 
4502.000000	63.367104 
4501.000000	63.476109 
4500.000000	63.600730 
4499.000000	63.749670 
4498.000000	63.934946 
4497.000000	64.167690 
4496.000000	64.450120 
4495.000000	64.772057 
4494.000000	65.108633 
4493.000000	65.426182 
4492.000000	65.685534 
4491.000000	65.857148 
4490.000000	65.934848 
4489.000000	65.938806 
4488.000000	65.915870 
4487.000000	65.921401 
4486.000000	66.010117 
4485.000000	66.208791 
4484.000000	66.506814 
4483.000000	66.851997 
4482.000000	67.169976 
4481.000000	67.373585 
4480.000000	67.396092 
4479.000000	67.196321 
4478.000000	66.768145 
4477.000000	66.145610 
4476.000000	65.401268 
4475.000000	64.618611 
4474.000000	63.871574 
4473.000000	63.215732 
4472.000000	62.681961 
4471.000000	62.268185 
4470.000000	61.946702 
4469.000000	61.676645 
4468.000000	61.418175 
4467.000000	61.139273 
4466.000000	60.824561 
4465.000000	60.473036 
4464.000000	60.095262 
4463.000000	59.715127 
4462.000000	59.351921 
4461.000000	59.010052 
4460.000000	58.672523 
4459.000000	58.293890 
4458.000000	57.829809 
4457.000000	57.224535 
4456.000000	56.481528 
4455.000000	55.657982 
4454.000000	54.901719 
4453.000000	54.408335 
4452.000000	54.406332 
4451.000000	55.089902 
4450.000000	56.572699 
4449.000000	58.835959 
4448.000000	61.728501 
4447.000000	64.982318 
4446.000000	68.267059 
4445.000000	71.252751 
4444.000000	73.675370 
4443.000000	75.379395 
4442.000000	76.339721 
4441.000000	76.642298 
4440.000000	76.436066 
4439.000000	75.878500 
4438.000000	75.105190 
4437.000000	74.193787 
4436.000000	73.182559 
4435.000000	72.067165 
4434.000000	70.864176 
4433.000000	69.599103 
4432.000000	68.331313 
4431.000000	67.135000 
4430.000000	66.082310 
4429.000000	65.231990 
4428.000000	64.605879 
4427.000000	64.196729 
4426.000000	63.961958 
4425.000000	63.846826 
4424.000000	63.793468 
4423.000000	63.758254 
4422.000000	63.711667 
4421.000000	63.647603 
4420.000000	63.573670 
4419.000000	63.505101 
4418.000000	63.449144 
4417.000000	63.413953 
4416.000000	63.404393 
4415.000000	63.417959 
4414.000000	63.445067 
4413.000000	63.481378 
4412.000000	63.526558 
4411.000000	63.573789 
4410.000000	63.613247 
4409.000000	63.635563 
4408.000000	63.632893 
4407.000000	63.604927 
4406.000000	63.555097 
4405.000000	63.485646 
4404.000000	63.398933 
4403.000000	63.299965 
4402.000000	63.193488 
4401.000000	63.080668 
4400.000000	62.963962 
4399.000000	62.852025 
4398.000000	62.754034 
4397.000000	62.676119 
4396.000000	62.623095 
4395.000000	62.597823 
4394.000000	62.598991 
4393.000000	62.620258 
4392.000000	62.652683 
4391.000000	62.686133 
4390.000000	62.711882 
4389.000000	62.724518 
4388.000000	62.722921 
4387.000000	62.710285 
4386.000000	62.692379 
4385.000000	62.675786 
4384.000000	62.665748 
4383.000000	62.664985 
4382.000000	62.673282 
4381.000000	62.688064 
4380.000000	62.705540 
4379.000000	62.722277 
4378.000000	62.736392 
4377.000000	62.748241 
4376.000000	62.759995 
4375.000000	62.775206 
4374.000000	62.797331 
4373.000000	62.829017 
4372.000000	62.871432 
4371.000000	62.923073 
4370.000000	62.979841 
4369.000000	63.035559 
4368.000000	63.083839 
4367.000000	63.118267 
4366.000000	63.134121 
4365.000000	63.129210 
4364.000000	63.104462 
4363.000000	63.063812 
4362.000000	63.013124 
4361.000000	62.959671 
4360.000000	62.910461 
4359.000000	62.871384 
4358.000000	62.846016 
4357.000000	62.835264 
4356.000000	62.837195 
4355.000000	62.847304 
4354.000000	62.859940 
4353.000000	62.869048 
4352.000000	62.870311 
4351.000000	62.861943 
4350.000000	62.845706 
4349.000000	62.826013 
4348.000000	62.808895 
4347.000000	62.800097 
4346.000000	62.803602 
4345.000000	62.820267 
4344.000000	62.847709 
4343.000000	62.881159 
4342.000000	62.914419 
4341.000000	62.941598 
4340.000000	62.957739 
4339.000000	62.959861 
4338.000000	62.947082 
4337.000000	62.920641 
4336.000000	62.884116 
4335.000000	62.842607 
4334.000000	62.802433 
4333.000000	62.769794 
4332.000000	62.749791 
4331.000000	62.745308 
4330.000000	62.756443 
4329.000000	62.780404 
4328.000000	62.811470 
4327.000000	62.842726 
4326.000000	62.867164 
4325.000000	62.879896 
4324.000000	62.879133 
4323.000000	62.866830 
4322.000000	62.847971 
4321.000000	62.829327 
4320.000000	62.817716 
4319.000000	62.818193 
4318.000000	62.832593 
4317.000000	62.859487 
4316.000000	62.895083 
4315.000000	62.934207 
4314.000000	62.972116 
4313.000000	63.005042 
4312.000000	63.031268 
4311.000000	63.050675 
4310.000000	63.064289 
4309.000000	63.073682 
4308.000000	63.080382 
4307.000000	63.085699 
4306.000000	63.090443 
4305.000000	63.095331 
4304.000000	63.100552 
4303.000000	63.106703 
4302.000000	63.114190 
4301.000000	63.122868 
4300.000000	63.131713 
4299.000000	63.138985 
4298.000000	63.142371 
4297.000000	63.139677 
4296.000000	63.129186 
4295.000000	63.110303 
4294.000000	63.083791 
4293.000000	63.051939 
4292.000000	63.018083 
4291.000000	62.985444 
4290.000000	62.956857 
4289.000000	62.934207 
4288.000000	62.918233 
4287.000000	62.908649 
4286.000000	62.904787 
4285.000000	62.905883 
4284.000000	62.911581 
4283.000000	62.921881 
4282.000000	62.937116 
4281.000000	62.957811 
4280.000000	62.984085 
4279.000000	63.015556 
4278.000000	63.051319 
4277.000000	63.090181 
4276.000000	63.130974 
4275.000000	63.172316 
4274.000000	63.212656 
4273.000000	63.249802 
4272.000000	63.281512 
4271.000000	63.304948 
4270.000000	63.317108 
4269.000000	63.315057 
4268.000000	63.297247 
4267.000000	63.263249 
4266.000000	63.214612 
4265.000000	63.154268 
4264.000000	63.086891 
4263.000000	63.017559 
4262.000000	62.951397 
4261.000000	62.892723 
4260.000000	62.844753 
4259.000000	62.809586 
4258.000000	62.788081 
4257.000000	62.780570 
4256.000000	62.786793 
4255.000000	62.805819 
4254.000000	62.836265 
4253.000000	62.875819 
4252.000000	62.921476 
4251.000000	62.969970 
4250.000000	63.018417 
4249.000000	63.064575 
4248.000000	63.107275 
4247.000000	63.146853 
4246.000000	63.184809 
4245.000000	63.223075 
4244.000000	63.263154 
4243.000000	63.305783 
4242.000000	63.349866 
4241.000000	63.393044 
4240.000000	63.431596 
4239.000000	63.461399 
4238.000000	63.478851 
4237.000000	63.482117 
4236.000000	63.471460 
4235.000000	63.449430 
4234.000000	63.420462 
4233.000000	63.390254 
4232.000000	63.364338 
4231.000000	63.347172 
4230.000000	63.341212 
4229.000000	63.346791 
4228.000000	63.362097 
4227.000000	63.383793 
4226.000000	63.407540 
4225.000000	63.428807 
4224.000000	63.443922 
4223.000000	63.450455 
4222.000000	63.447284 
4221.000000	63.434910 
4220.000000	63.415265 
4219.000000	63.391733 
4218.000000	63.368129 
4217.000000	63.348531 
4216.000000	63.336968 
4215.000000	63.336610 
4214.000000	63.348984 
4213.000000	63.373756 
4212.000000	63.408684 
4211.000000	63.449954 
4210.000000	63.492608 
4209.000000	63.531565 
4208.000000	63.562488 
4207.000000	63.582348 
4206.000000	63.590145 
4205.000000	63.585805 
4204.000000	63.569998 
4203.000000	63.543629 
4202.000000	63.507795 
4201.000000	63.463592 
4200.000000	63.412618 
4199.000000	63.357400 
4198.000000	63.301682 
4197.000000	63.250660 
4196.000000	63.210201 
4195.000000	63.185453 
4194.000000	63.179707 
4193.000000	63.193202 
4192.000000	63.222789 
4191.000000	63.261961 
4190.000000	63.302683 
4189.000000	63.336634 
4188.000000	63.357734 
4187.000000	63.363027 
4186.000000	63.353753 
4185.000000	63.333868 
4184.000000	63.310217 
4183.000000	63.289809 
4182.000000	63.279628 
4181.000000	63.285183 
4180.000000	63.309669 
4179.000000	63.354039 
4178.000000	63.416099 
4177.000000	63.491392 
4176.000000	63.572430 
4175.000000	63.650155 
4174.000000	63.714075 
4173.000000	63.754057 
4172.000000	63.761949 
4171.000000	63.733696 
4170.000000	63.670492 
4169.000000	63.579130 
4168.000000	63.471722 
4167.000000	63.363337 
4166.000000	63.269400 
4165.000000	63.202548 
4164.000000	63.170337 
4163.000000	63.174009 
4162.000000	63.208842 
4161.000000	63.265562 
4160.000000	63.332748 
4159.000000	63.399481 
