PE IR       SPECTRUM    SPECTRUM    ASCII       PEDS        1.60        
  -1
BZ6DA0~1.ASC
17/04/07
16:05:54.00
17/04/07
16:05:54.00
tln
$BZ1503107-1_t0035$<tbV0>[10.4,-5.2,8.0,0.0,27,1,0]
370.000000
64









2002,4.07    
MIRTGS : RIGHTBACK : INTERNAL 2
MIR : ON : INTERNAL 2
OPTKBR

0.200000
8
8.000000
FILLER
RATIO
SPECTRUM
UNLOCKED 256

DOUBLE
64
COMBINED
1
0
0


1.000000
RATIO


1
0
TRUE
51149
0
LEFT NOT FITTED RIGHT NOT FITTED 0
NONE
NONE
15600
12.000000
4.427000
51148
TRUE
1 0 8 72 0 0 0 0 

15798.010000






#HDR
-1
-1
#GR
CM-1
%T
0.00002384185791015625
0.0
5000.000000
-1.000000
4631
8
86.330652
53.544378
#DATA
5000.000000	65.274691 
4999.000000	65.159964 
4998.000000	65.021896 
4997.000000	64.871048 
4996.000000	64.719939 
4995.000000	64.581966 
4994.000000	64.469933 
4993.000000	64.394116 
4992.000000	64.361691 
4991.000000	64.375758 
4990.000000	64.434289 
4989.000000	64.529538 
4988.000000	64.649558 
4987.000000	64.779210 
4986.000000	64.902734 
4985.000000	65.005421 
4984.000000	65.076899 
4983.000000	65.112209 
4982.000000	65.111947 
4981.000000	65.080881 
4980.000000	65.026760 
4979.000000	64.957451 
4978.000000	64.880371 
4977.000000	64.799952 
4976.000000	64.717745 
4975.000000	64.632248 
4974.000000	64.542007 
4973.000000	64.445400 
4972.000000	64.341998 
4971.000000	64.233469 
4970.000000	64.123201 
4969.000000	64.017009 
4968.000000	63.921332 
4967.000000	63.843297 
4966.000000	63.788390 
4965.000000	63.760280 
4964.000000	63.759112 
4963.000000	63.782382 
4962.000000	63.824582 
4961.000000	63.878703 
4960.000000	63.936614 
4959.000000	63.991165 
4958.000000	64.037013 
4957.000000	64.071798 
4956.000000	64.096212 
4955.000000	64.113259 
4954.000000	64.127707 
4953.000000	64.144897 
4952.000000	64.170122 
4951.000000	64.207482 
4950.000000	64.259910 
4949.000000	64.329767 
4948.000000	64.417648 
4947.000000	64.523506 
4946.000000	64.644074 
4945.000000	64.772987 
4944.000000	64.899706 
4943.000000	65.011572 
4942.000000	65.095043 
4941.000000	65.137696 
4940.000000	65.132141 
4939.000000	65.078997 
4938.000000	64.986824 
4937.000000	64.871191 
4936.000000	64.751815 
4935.000000	64.649248 
4934.000000	64.579987 
4933.000000	64.553236 
4932.000000	64.569377 
4931.000000	64.620637 
4930.000000	64.693951 
4929.000000	64.774775 
4928.000000	64.849829 
4927.000000	64.909672 
4926.000000	64.949274 
4925.000000	64.967656 
4924.000000	64.965391 
4923.000000	64.943981 
4922.000000	64.904284 
4921.000000	64.847612 
4920.000000	64.776086 
4919.000000	64.694094 
4918.000000	64.609384 
4917.000000	64.532589 
4916.000000	64.475870 
4915.000000	64.450597 
4914.000000	64.464688 
4913.000000	64.520359 
4912.000000	64.612579 
4911.000000	64.729881 
4910.000000	64.856529 
4909.000000	64.975047 
4908.000000	65.069413 
4907.000000	65.127778 
4906.000000	65.144157 
4905.000000	65.118908 
4904.000000	65.057873 
4903.000000	64.971160 
4902.000000	64.870977 
4901.000000	64.770269 
4900.000000	64.680743 
4899.000000	64.612126 
4898.000000	64.570879 
4897.000000	64.559888 
4896.000000	64.578270 
4895.000000	64.621210 
4894.000000	64.681816 
4893.000000	64.751195 
4892.000000	64.821553 
4891.000000	64.886689 
4890.000000	64.943718 
4889.000000	64.993214 
4888.000000	65.037822 
4887.000000	65.080738 
4886.000000	65.123653 
4885.000000	65.166091 
4884.000000	65.204215 
4883.000000	65.232276 
4882.000000	65.243411 
4881.000000	65.232753 
4880.000000	65.198063 
4879.000000	65.141677 
4878.000000	65.068840 
4877.000000	64.986991 
4876.000000	64.903688 
4875.000000	64.825391 
4874.000000	64.755749 
4873.000000	64.696192 
4872.000000	64.647102 
4871.000000	64.609169 
4870.000000	64.584517 
4869.000000	64.577078 
4868.000000	64.590835 
4867.000000	64.629101 
4866.000000	64.691472 
4865.000000	64.774298 
4864.000000	64.869737 
4863.000000	64.968085 
4862.000000	65.058827 
4861.000000	65.133333 
4860.000000	65.186667 
4859.000000	65.217900 
4858.000000	65.230178 
4857.000000	65.228652 
4856.000000	65.219044 
4855.000000	65.205383 
4854.000000	65.189599 
4853.000000	65.170907 
4852.000000	65.147256 
4851.000000	65.116405 
4850.000000	65.077853 
4849.000000	65.033197 
4848.000000	64.986324 
4847.000000	64.942622 
4846.000000	64.907479 
4845.000000	64.884686 
4844.000000	64.875507 
4843.000000	64.878296 
4842.000000	64.888763 
4841.000000	64.900302 
4840.000000	64.905977 
4839.000000	64.899778 
4838.000000	64.879131 
4837.000000	64.845037 
4836.000000	64.803147 
4835.000000	64.762043 
4834.000000	64.731884 
4833.000000	64.721608 
4832.000000	64.737105 
4831.000000	64.779543 
4830.000000	64.844894 
4829.000000	64.925050 
4828.000000	65.009069 
4827.000000	65.085554 
4826.000000	65.144681 
4825.000000	65.180110 
4824.000000	65.189743 
4823.000000	65.175580 
4822.000000	65.143179 
4821.000000	65.100073 
4820.000000	65.054368 
4819.000000	65.013003 
4818.000000	64.981269 
4817.000000	64.961767 
4816.000000	64.954948 
4815.000000	64.959311 
4814.000000	64.971923 
4813.000000	64.989781 
4812.000000	65.010023 
4811.000000	65.031599 
4810.000000	65.054583 
4809.000000	65.081238 
4808.000000	65.114617 
4807.000000	65.157914 
4806.000000	65.213274 
4805.000000	65.280270 
4804.000000	65.356230 
4803.000000	65.435123 
4802.000000	65.508937 
4801.000000	65.568614 
4800.000000	65.606260 
4799.000000	65.616583 
4798.000000	65.598416 
4797.000000	65.554594 
4796.000000	65.491509 
4795.000000	65.417432 
4794.000000	65.340995 
4793.000000	65.269374 
4792.000000	65.207099 
4791.000000	65.155696 
4790.000000	65.114140 
4789.000000	65.080189 
4788.000000	65.051960 
4787.000000	65.028309 
4786.000000	65.010118 
4785.000000	64.999079 
4784.000000	64.998531 
4783.000000	65.010905 
4782.000000	65.038180 
4781.000000	65.080142 
4780.000000	65.134572 
4779.000000	65.197873 
4778.000000	65.265011 
4777.000000	65.330386 
4776.000000	65.387845 
4775.000000	65.431833 
4774.000000	65.457439 
4773.000000	65.460991 
4772.000000	65.441346 
4771.000000	65.400481 
4770.000000	65.343761 
4769.000000	65.279293 
4768.000000	65.217232 
4767.000000	65.168094 
4766.000000	65.140795 
4765.000000	65.140748 
4764.000000	65.168714 
4763.000000	65.220451 
4762.000000	65.288138 
4761.000000	65.361928 
4760.000000	65.431690 
4759.000000	65.489077 
4758.000000	65.529036 
4757.000000	65.550231 
4756.000000	65.554523 
4755.000000	65.545892 
4754.000000	65.528988 
4753.000000	65.507936 
4752.000000	65.486025 
4751.000000	65.465068 
4750.000000	65.446186 
4749.000000	65.429544 
4748.000000	65.415549 
4747.000000	65.404129 
4746.000000	65.395331 
4745.000000	65.388560 
4744.000000	65.382695 
4743.000000	65.376234 
4742.000000	65.367650 
4741.000000	65.356111 
4740.000000	65.342020 
4739.000000	65.327453 
4738.000000	65.315890 
4737.000000	65.311431 
4736.000000	65.317606 
4735.000000	65.336322 
4734.000000	65.366744 
4733.000000	65.405011 
4732.000000	65.444731 
4731.000000	65.478301 
4730.000000	65.498471 
4729.000000	65.500569 
4728.000000	65.483474 
4727.000000	65.449476 
4726.000000	65.403890 
4725.000000	65.353441 
4724.000000	65.305376 
4723.000000	65.265250 
4722.000000	65.237283 
4721.000000	65.223908 
4720.000000	65.226411 
4719.000000	65.245580 
4718.000000	65.281224 
4717.000000	65.332078 
4716.000000	65.395450 
4715.000000	65.466904 
4714.000000	65.540671 
4713.000000	65.610170 
4712.000000	65.668940 
4711.000000	65.711498 
4710.000000	65.734577 
4709.000000	65.737462 
4708.000000	65.721988 
4707.000000	65.691876 
4706.000000	65.652203 
4705.000000	65.608072 
4704.000000	65.564155 
4703.000000	65.523767 
4702.000000	65.489530 
4701.000000	65.462517 
4700.000000	65.443277 
4699.000000	65.431356 
4698.000000	65.425515 
4697.000000	65.424323 
4696.000000	65.425705 
4695.000000	65.428519 
4694.000000	65.432214 
4693.000000	65.437507 
4692.000000	65.445971 
4691.000000	65.459036 
4690.000000	65.477013 
4689.000000	65.498399 
4688.000000	65.519571 
4687.000000	65.535354 
4686.000000	65.539884 
4685.000000	65.528225 
4684.000000	65.497589 
4683.000000	65.448331 
4682.000000	65.383934 
4681.000000	65.309810 
4680.000000	65.232086 
4679.000000	65.156292 
4678.000000	65.086269 
4677.000000	65.023541 
4676.000000	64.968180 
4675.000000	64.919662 
4674.000000	64.878177 
4673.000000	64.845299 
4672.000000	64.823961 
4671.000000	64.817309 
4670.000000	64.827895 
4669.000000	64.855527 
4668.000000	64.897370 
4667.000000	64.947199 
4666.000000	64.997529 
4665.000000	65.040707 
4664.000000	65.071630 
4663.000000	65.088462 
4662.000000	65.093326 
4661.000000	65.091204 
4660.000000	65.087604 
4659.000000	65.086531 
4658.000000	65.089011 
4657.000000	65.092492 
4656.000000	65.091800 
4655.000000	65.080904 
4654.000000	65.055823 
4653.000000	65.015935 
4652.000000	64.964914 
4651.000000	64.909672 
4650.000000	64.858722 
4649.000000	64.819598 
4648.000000	64.795947 
4647.000000	64.787149 
4646.000000	64.788126 
4645.000000	64.791893 
4644.000000	64.791631 
4643.000000	64.783191 
4642.000000	64.766740 
4641.000000	64.746427 
4640.000000	64.728522 
4639.000000	64.719581 
4638.000000	64.723420 
4637.000000	64.740633 
4636.000000	64.768004 
4635.000000	64.799880 
4634.000000	64.829850 
4633.000000	64.852976 
4632.000000	64.867043 
4631.000000	64.872574 
4630.000000	64.872360 
4629.000000	64.870095 
4628.000000	64.869117 
4627.000000	64.871001 
4626.000000	64.875292 
4625.000000	64.879631 
4624.000000	64.880657 
4623.000000	64.875841 
4622.000000	64.863753 
4621.000000	64.844775 
4620.000000	64.821052 
4619.000000	64.795279 
4618.000000	64.770650 
4617.000000	64.749526 
4616.000000	64.733672 
4615.000000	64.724040 
4614.000000	64.720916 
4613.000000	64.724373 
4612.000000	64.734053 
4611.000000	64.749717 
4610.000000	64.770102 
4609.000000	64.792776 
4608.000000	64.813971 
4607.000000	64.829206 
4606.000000	64.833402 
4605.000000	64.822387 
4604.000000	64.793992 
4603.000000	64.749169 
4602.000000	64.692568 
4601.000000	64.631962 
4600.000000	64.576888 
4599.000000	64.536046 
4598.000000	64.515686 
4597.000000	64.517331 
4596.000000	64.537692 
4595.000000	64.569115 
4594.000000	64.601349 
4593.000000	64.624214 
4592.000000	64.629769 
4591.000000	64.614772 
4590.000000	64.580821 
4589.000000	64.534878 
4588.000000	64.486122 
4587.000000	64.445471 
4586.000000	64.422440 
4585.000000	64.423704 
4584.000000	64.451575 
4583.000000	64.503812 
4582.000000	64.574217 
4581.000000	64.653658 
4580.000000	64.732193 
4579.000000	64.799976 
4578.000000	64.849066 
4577.000000	64.874577 
4576.000000	64.875483 
4575.000000	64.854168 
4574.000000	64.815902 
4573.000000	64.768266 
4572.000000	64.719414 
4571.000000	64.677333 
4570.000000	64.647531 
4569.000000	64.633059 
4568.000000	64.633297 
4567.000000	64.644742 
4566.000000	64.661264 
4565.000000	64.675927 
4564.000000	64.682006 
4563.000000	64.674592 
4562.000000	64.651322 
4561.000000	64.612388 
4560.000000	64.560604 
4559.000000	64.500427 
4558.000000	64.437603 
4557.000000	64.377403 
4556.000000	64.325475 
4555.000000	64.286565 
4554.000000	64.265203 
4553.000000	64.264726 
4552.000000	64.287996 
4551.000000	64.336514 
4550.000000	64.409351 
4549.000000	64.502334 
4548.000000	64.607882 
4547.000000	64.715409 
4546.000000	64.812374 
4545.000000	64.886403 
4544.000000	64.927911 
4543.000000	64.931774 
4542.000000	64.899301 
4541.000000	64.837336 
4540.000000	64.756441 
4539.000000	64.668869 
4538.000000	64.586377 
4537.000000	64.518094 
4536.000000	64.469456 
4535.000000	64.441800 
4534.000000	64.433908 
4533.000000	64.441657 
4532.000000	64.460086 
4531.000000	64.483189 
4530.000000	64.505076 
4529.000000	64.519858 
4528.000000	64.522075 
4527.000000	64.507555 
4526.000000	64.473628 
4525.000000	64.420175 
4524.000000	64.349865 
4523.000000	64.268374 
4522.000000	64.183712 
4521.000000	64.104962 
4520.000000	64.040803 
4519.000000	63.997817 
4518.000000	63.979578 
4517.000000	63.986492 
4516.000000	64.016413 
4515.000000	64.064717 
4514.000000	64.126062 
4513.000000	64.195537 
4512.000000	64.269089 
4511.000000	64.342951 
4510.000000	64.413762 
4509.000000	64.478039 
4508.000000	64.532041 
4507.000000	64.571595 
4506.000000	64.592981 
4505.000000	64.594006 
4504.000000	64.574456 
4503.000000	64.537525 
4502.000000	64.488053 
4501.000000	64.432144 
4500.000000	64.375662 
4499.000000	64.323472 
4498.000000	64.278817 
4497.000000	64.243221 
4496.000000	64.216852 
4495.000000	64.199256 
4494.000000	64.189028 
4493.000000	64.184737 
4492.000000	64.184904 
4491.000000	64.188504 
4490.000000	64.194798 
4489.000000	64.202976 
4488.000000	64.213013 
4487.000000	64.223504 
4486.000000	64.231204 
4485.000000	64.230608 
4484.000000	64.215111 
4483.000000	64.178395 
4482.000000	64.116430 
4481.000000	64.029383 
4480.000000	63.922595 
4479.000000	63.806319 
4478.000000	63.693547 
4477.000000	63.598299 
4476.000000	63.532519 
4475.000000	63.504099 
4474.000000	63.514971 
4473.000000	63.561129 
4472.000000	63.633537 
4471.000000	63.719725 
4470.000000	63.806128 
4469.000000	63.881826 
4468.000000	63.940525 
4467.000000	63.979291 
4466.000000	63.999176 
4465.000000	64.004540 
4464.000000	64.002871 
4463.000000	64.001655 
4462.000000	64.007115 
4461.000000	64.031577 
4460.000000	64.084196 
4459.000000	64.157128 
4458.000000	64.235973 
4457.000000	64.309668 
4456.000000	64.370298 
4455.000000	64.413070 
4454.000000	64.440655 
4453.000000	64.463782 
4452.000000	64.495587 
4451.000000	64.547491 
4450.000000	64.623928 
4449.000000	64.719128 
4448.000000	64.820122 
4447.000000	64.908552 
4446.000000	64.974164 
4445.000000	65.018224 
4444.000000	65.060162 
4443.000000	65.133595 
4442.000000	65.263223 
4441.000000	65.458440 
4440.000000	65.701055 
4439.000000	65.963244 
4438.000000	66.198301 
4437.000000	66.389226 
4436.000000	66.570973 
4435.000000	66.850543 
4434.000000	67.389655 
4433.000000	68.365740 
4432.000000	69.934725 
4431.000000	72.149157 
4430.000000	74.932098 
4429.000000	78.047943 
4428.000000	81.132435 
4427.000000	83.771038 
4426.000000	85.580897 
4425.000000	86.330652 
4424.000000	86.013817 
4423.000000	84.843802 
4422.000000	83.226895 
4421.000000	81.606888 
4420.000000	80.358910 
4419.000000	79.667210 
4418.000000	79.490041 
4417.000000	79.596495 
4416.000000	79.655885 
4415.000000	79.356789 
4414.000000	78.507709 
4413.000000	77.066969 
4412.000000	75.157523 
4411.000000	72.988390 
4410.000000	70.814681 
4409.000000	68.866133 
4408.000000	67.307662 
4407.000000	66.220116 
4406.000000	65.592479 
4405.000000	65.352582 
4404.000000	65.385031 
4403.000000	65.556859 
4402.000000	65.754818 
4401.000000	65.896415 
4400.000000	65.947341 
4399.000000	65.890669 
4398.000000	65.745949 
4397.000000	65.541481 
4396.000000	65.313839 
4395.000000	65.085458 
4394.000000	64.876461 
4393.000000	64.705157 
4392.000000	64.581537 
4391.000000	64.510154 
4390.000000	64.483642 
4389.000000	64.484667 
4388.000000	64.495849 
4387.000000	64.504313 
4386.000000	64.498710 
4385.000000	64.472675 
4384.000000	64.428758 
4383.000000	64.376115 
4382.000000	64.323759 
4381.000000	64.278745 
4380.000000	64.246344 
4379.000000	64.227962 
4378.000000	64.215612 
4377.000000	64.199805 
4376.000000	64.180684 
4375.000000	64.161729 
4374.000000	64.146208 
4373.000000	64.137625 
4372.000000	64.137077 
4371.000000	64.142799 
4370.000000	64.149665 
4369.000000	64.151215 
4368.000000	64.141607 
4367.000000	64.117002 
4366.000000	64.076852 
4365.000000	64.024782 
4364.000000	63.967943 
4363.000000	63.915276 
4362.000000	63.874959 
4361.000000	63.853716 
4360.000000	63.854622 
4359.000000	63.876152 
4358.000000	63.912248 
4357.000000	63.953828 
4356.000000	63.990736 
4355.000000	64.013957 
4354.000000	64.017701 
4353.000000	64.000129 
4352.000000	63.964080 
4351.000000	63.915371 
4350.000000	63.862371 
4349.000000	63.813447 
4348.000000	63.776540 
4347.000000	63.757109 
4346.000000	63.758516 
4345.000000	63.781690 
4344.000000	63.825869 
4343.000000	63.888740 
4342.000000	63.967227 
4341.000000	64.057493 
4340.000000	64.154529 
4339.000000	64.252281 
4338.000000	64.343428 
4337.000000	64.420127 
4336.000000	64.474558 
4335.000000	64.500164 
4334.000000	64.493560 
4333.000000	64.455533 
4332.000000	64.391469 
4331.000000	64.310789 
4330.000000	64.226031 
4329.000000	64.150094 
4328.000000	64.094233 
4327.000000	64.065241 
4326.000000	64.064884 
4325.000000	64.089179 
4324.000000	64.129924 
4323.000000	64.176630 
4322.000000	64.218807 
4321.000000	64.248728 
4320.000000	64.262485 
4319.000000	64.260888 
4318.000000	64.248204 
4317.000000	64.230799 
4316.000000	64.214324 
4315.000000	64.203166 
4314.000000	64.198970 
4313.000000	64.201831 
4312.000000	64.211153 
4311.000000	64.226365 
4310.000000	64.247608 
4309.000000	64.275431 
4308.000000	64.310455 
4307.000000	64.351725 
4306.000000	64.396405 
4305.000000	64.439797 
4304.000000	64.476227 
4303.000000	64.500546 
4302.000000	64.509439 
4301.000000	64.502429 
4300.000000	64.481997 
4299.000000	64.453411 
4298.000000	64.423441 
4297.000000	64.398050 
4296.000000	64.381814 
4295.000000	64.377117 
4294.000000	64.384293 
4293.000000	64.402365 
4292.000000	64.429426 
4291.000000	64.463973 
4290.000000	64.503979 
4289.000000	64.547276 
4288.000000	64.590573 
4287.000000	64.629006 
4286.000000	64.657115 
4285.000000	64.669799 
4284.000000	64.663910 
4283.000000	64.639353 
4282.000000	64.599967 
4281.000000	64.553189 
4280.000000	64.508652 
4279.000000	64.476060 
4278.000000	64.463186 
4277.000000	64.474081 
4276.000000	64.507937 
4275.000000	64.559793 
4274.000000	64.621829 
4273.000000	64.685630 
4272.000000	64.744210 
4271.000000	64.793658 
4270.000000	64.833569 
4269.000000	64.866638 
4268.000000	64.896774 
4267.000000	64.927768 
4266.000000	64.961528 
4265.000000	64.997124 
4264.000000	65.031552 
4263.000000	65.059566 
4262.000000	65.075874 
4261.000000	65.075898 
4260.000000	65.057802 
4259.000000	65.022706 
4258.000000	64.975023 
4257.000000	64.921092 
4256.000000	64.868140 
4255.000000	64.822769 
4254.000000	64.789772 
4253.000000	64.771485 
4252.000000	64.767885 
4251.000000	64.777278 
4250.000000	64.796805 
4249.000000	64.823317 
4248.000000	64.853906 
4247.000000	64.885520 
4246.000000	64.915513 
4245.000000	64.940690 
4244.000000	64.958405 
4243.000000	64.966487 
4242.000000	64.964151 
4241.000000	64.952063 
4240.000000	64.932584 
4239.000000	64.910006 
4238.000000	64.889216 
4237.000000	64.874958 
4236.000000	64.870357 
4235.000000	64.876532 
4234.000000	64.892053 
4233.000000	64.913320 
4232.000000	64.935851 
4231.000000	64.955496 
4230.000000	64.969658 
4229.000000	64.977836 
4228.000000	64.981603 
4227.000000	64.983963 
4226.000000	64.988350 
4225.000000	64.997386 
4224.000000	65.012049 
4223.000000	65.031313 
4222.000000	65.052747 
4221.000000	65.073156 
4220.000000	65.089249 
4219.000000	65.098643 
4218.000000	65.100717 
4217.000000	65.096497 
4216.000000	65.088081 
4215.000000	65.078115 
4214.000000	65.069222 
4213.000000	65.062904 
4212.000000	65.059757 
4211.000000	65.058469 
4210.000000	65.057229 
4209.000000	65.053343 
4208.000000	65.044498 
4207.000000	65.029120 
4206.000000	65.007090 
4205.000000	64.979720 
4204.000000	64.949369 
4203.000000	64.919090 
4202.000000	64.892125 
4201.000000	64.871096 
4200.000000	64.857554 
4199.000000	64.851689 
4198.000000	64.852809 
4197.000000	64.859485 
4196.000000	64.870667 
4195.000000	64.885878 
4194.000000	64.905929 
4193.000000	64.933180 
4192.000000	64.971137 
4191.000000	65.022659 
4190.000000	65.088987 
4189.000000	65.168809 
4188.000000	65.257382 
4187.000000	65.346980 
4186.000000	65.428233 
4185.000000	65.492343 
4184.000000	65.533137 
4183.000000	65.548586 
4182.000000	65.541362 
4181.000000	65.517997 
4180.000000	65.487504 
4179.000000	65.459513 
4178.000000	65.441751 
4177.000000	65.438675 
4176.000000	65.451264 
4175.000000	65.477585 
4174.000000	65.513658 
4173.000000	65.554928 
4172.000000	65.597176 
4171.000000	65.637087 
4170.000000	65.671563 
4169.000000	65.697312 
4168.000000	65.710496 
4167.000000	65.706801 
4166.000000	65.682601 
4165.000000	65.635800 
4164.000000	65.567278 
4163.000000	65.480923 
4162.000000	65.383911 
4161.000000	65.285301 
4160.000000	65.194177 
4159.000000	65.118455 
