PE IR       SPECTRUM    SPECTRUM    ASCII       PEDS        1.60        
  -1
BZ6E26~1.ASC
17/04/07
20:16:25.00
17/04/07
20:16:25.00
tln
$BZ1503107-1_t0086$<tbV0>[-7.8,5.2,8.0,0.0,27,1,0]
370.000000
64









2002,4.07    
MIRTGS : RIGHTBACK : INTERNAL 2
MIR : ON : INTERNAL 2
OPTKBR

0.200000
8
8.000000
FILLER
RATIO
SPECTRUM
UNLOCKED 256

DOUBLE
64
COMBINED
1
0
0


1.000000
RATIO


1
0
TRUE
51149
0
LEFT NOT FITTED RIGHT NOT FITTED 0
NONE
NONE
15600
12.000000
4.427000
51148
TRUE
1 0 8 72 0 0 0 0 

15798.010000






#HDR
-1
-1
#GR
CM-1
%T
0.00002384185791015625
0.0
5000.000000
-1.000000
4631
8
89.982700
56.176185
#DATA
5000.000000	65.019655 
4999.000000	65.064501 
4998.000000	65.084886 
4997.000000	65.073752 
4996.000000	65.025949 
4995.000000	64.941716 
4994.000000	64.824318 
4993.000000	64.680814 
4992.000000	64.519762 
4991.000000	64.351034 
4990.000000	64.183616 
4989.000000	64.024949 
4988.000000	63.881182 
4987.000000	63.756752 
4986.000000	63.657712 
4985.000000	63.591694 
4984.000000	63.567233 
4983.000000	63.592004 
4982.000000	63.671660 
4981.000000	63.807153 
4980.000000	63.993072 
4979.000000	64.216399 
4978.000000	64.457440 
4977.000000	64.691019 
4976.000000	64.890646 
4975.000000	65.030789 
4974.000000	65.092730 
4973.000000	65.065193 
4972.000000	64.947676 
4971.000000	64.747953 
4970.000000	64.482927 
4969.000000	64.173221 
4968.000000	63.840770 
4967.000000	63.506841 
4966.000000	63.189983 
4965.000000	62.908267 
4964.000000	62.678551 
4963.000000	62.518405 
4962.000000	62.443614 
4961.000000	62.467265 
4960.000000	62.595415 
4959.000000	62.824773 
4958.000000	63.139700 
4957.000000	63.512516 
4956.000000	63.905405 
4955.000000	64.276790 
4954.000000	64.587569 
4953.000000	64.807438 
4952.000000	64.919900 
4951.000000	64.925360 
4950.000000	64.839768 
4949.000000	64.690470 
4948.000000	64.510130 
4947.000000	64.331722 
4946.000000	64.181423 
4945.000000	64.078903 
4944.000000	64.031386 
4943.000000	64.039134 
4942.000000	64.091634 
4941.000000	64.172506 
4940.000000	64.261102 
4939.000000	64.335918 
4938.000000	64.379882 
4937.000000	64.381217 
4936.000000	64.338517 
4935.000000	64.259481 
4934.000000	64.160346 
4933.000000	64.060711 
4932.000000	63.981008 
4931.000000	63.937854 
4930.000000	63.941431 
4929.000000	63.993906 
4928.000000	64.089846 
4927.000000	64.218187 
4926.000000	64.365100 
4925.000000	64.517092 
4924.000000	64.661741 
4923.000000	64.790129 
4922.000000	64.897561 
4921.000000	64.983582 
4920.000000	65.049648 
4919.000000	65.099120 
4918.000000	65.137410 
4917.000000	65.169286 
4916.000000	65.200710 
4915.000000	65.234208 
4914.000000	65.269589 
4913.000000	65.302014 
4912.000000	65.324521 
4911.000000	65.328812 
4910.000000	65.308356 
4909.000000	65.260553 
4908.000000	65.188312 
4907.000000	65.100383 
4906.000000	65.009665 
4905.000000	64.931154 
4904.000000	64.878225 
4903.000000	64.861083 
4902.000000	64.884614 
4901.000000	64.948129 
4900.000000	65.045428 
4899.000000	65.166473 
4898.000000	65.298748 
4897.000000	65.428709 
4896.000000	65.543317 
4895.000000	65.631747 
4894.000000	65.686202 
4893.000000	65.701770 
4892.000000	65.677523 
4891.000000	65.617346 
4890.000000	65.528917 
4889.000000	65.423655 
4888.000000	65.313482 
4887.000000	65.210676 
4886.000000	65.124487 
4885.000000	65.060591 
4884.000000	65.020537 
4883.000000	65.002560 
4882.000000	65.002655 
4881.000000	65.015840 
4880.000000	65.037536 
4879.000000	65.063810 
4878.000000	65.091586 
4877.000000	65.118217 
4876.000000	65.140390 
4875.000000	65.153646 
4874.000000	65.153217 
4873.000000	65.134763 
4872.000000	65.095210 
4871.000000	65.033888 
4870.000000	64.953780 
4869.000000	64.861488 
4868.000000	64.766025 
4867.000000	64.677500 
4866.000000	64.604830 
4865.000000	64.554381 
4864.000000	64.529371 
4863.000000	64.528846 
4862.000000	64.548563 
4861.000000	64.581513 
4860.000000	64.619135 
4859.000000	64.653110 
4858.000000	64.675879 
4857.000000	64.683222 
4856.000000	64.673709 
4855.000000	64.650583 
4854.000000	64.620137 
4853.000000	64.591670 
4852.000000	64.575099 
4851.000000	64.579701 
4850.000000	64.611864 
4849.000000	64.673519 
4848.000000	64.761376 
4847.000000	64.867353 
4846.000000	64.980173 
4845.000000	65.087342 
4844.000000	65.177774 
4843.000000	65.243887 
4842.000000	65.283012 
4841.000000	65.297317 
4840.000000	65.292882 
4839.000000	65.278172 
4838.000000	65.261244 
4837.000000	65.248608 
4836.000000	65.242886 
4835.000000	65.244269 
4834.000000	65.248847 
4833.000000	65.251135 
4832.000000	65.244483 
4831.000000	65.223908 
4830.000000	65.186834 
4829.000000	65.133905 
4828.000000	65.069532 
4827.000000	65.000319 
4826.000000	64.935016 
4825.000000	64.882230 
4824.000000	64.849591 
4823.000000	64.842057 
4822.000000	64.861440 
4821.000000	64.906001 
4820.000000	64.970898 
4819.000000	65.048623 
4818.000000	65.130066 
4817.000000	65.205621 
4816.000000	65.266227 
4815.000000	65.304589 
4814.000000	65.316224 
4813.000000	65.300345 
4812.000000	65.259242 
4811.000000	65.198349 
4810.000000	65.125989 
4809.000000	65.051341 
4808.000000	64.983820 
4807.000000	64.930534 
4806.000000	64.896059 
4805.000000	64.881038 
4804.000000	64.882850 
4803.000000	64.896368 
4802.000000	64.915561 
4801.000000	64.934945 
4800.000000	64.950346 
4799.000000	64.960050 
4798.000000	64.964056 
4797.000000	64.964365 
4796.000000	64.963364 
4795.000000	64.963531 
4794.000000	64.966201 
4793.000000	64.971828 
4792.000000	64.979791 
4791.000000	64.988493 
4790.000000	64.995694 
4789.000000	64.999103 
4788.000000	64.996743 
4787.000000	64.987301 
4786.000000	64.970660 
4785.000000	64.947581 
4784.000000	64.919614 
4783.000000	64.889216 
4782.000000	64.858746 
4781.000000	64.830613 
4780.000000	64.805746 
4779.000000	64.783501 
4778.000000	64.761710 
4777.000000	64.737462 
4776.000000	64.708042 
4775.000000	64.671683 
4774.000000	64.629292 
4773.000000	64.584374 
4772.000000	64.542913 
4771.000000	64.512133 
4770.000000	64.498543 
4769.000000	64.506244 
4768.000000	64.535713 
4767.000000	64.583325 
4766.000000	64.641666 
4765.000000	64.701008 
4764.000000	64.751648 
4763.000000	64.785838 
4762.000000	64.799475 
4761.000000	64.792728 
4760.000000	64.769768 
4759.000000	64.737653 
4758.000000	64.704465 
4757.000000	64.677500 
4756.000000	64.661598 
4755.000000	64.658546 
4754.000000	64.667820 
4753.000000	64.686536 
4752.000000	64.710974 
4751.000000	64.737391 
4750.000000	64.763450 
4749.000000	64.787912 
4748.000000	64.810323 
4747.000000	64.830732 
4746.000000	64.849042 
4745.000000	64.864683 
4744.000000	64.876341 
4743.000000	64.882206 
4742.000000	64.880466 
4741.000000	64.869332 
4740.000000	64.847469 
4739.000000	64.814424 
4738.000000	64.770913 
4737.000000	64.718842 
4736.000000	64.661478 
4735.000000	64.602732 
4734.000000	64.547252 
4733.000000	64.500498 
4732.000000	64.467978 
4731.000000	64.453768 
4730.000000	64.460420 
4729.000000	64.488077 
4728.000000	64.535188 
4727.000000	64.597606 
4726.000000	64.670491 
4725.000000	64.748811 
4724.000000	64.828181 
4723.000000	64.905428 
4722.000000	64.977908 
4721.000000	65.042877 
4720.000000	65.097546 
4719.000000	65.138626 
4718.000000	65.163636 
4717.000000	65.171790 
4716.000000	65.164637 
4715.000000	65.146160 
4714.000000	65.121865 
4713.000000	65.097427 
4712.000000	65.076875 
4711.000000	65.061378 
4710.000000	65.048384 
4709.000000	65.032243 
4708.000000	65.005993 
4707.000000	64.963579 
4706.000000	64.901757 
4705.000000	64.821982 
4704.000000	64.730238 
4703.000000	64.636349 
4702.000000	64.551067 
4701.000000	64.484620 
4700.000000	64.443540 
4699.000000	64.430952 
4698.000000	64.445900 
4697.000000	64.484190 
4696.000000	64.539957 
4695.000000	64.606022 
4694.000000	64.675140 
4693.000000	64.739847 
4692.000000	64.792871 
4691.000000	64.828062 
4690.000000	64.840769 
4689.000000	64.829111 
4688.000000	64.794111 
4687.000000	64.740371 
4686.000000	64.675450 
4685.000000	64.608407 
4684.000000	64.548134 
4683.000000	64.501523 
4682.000000	64.471936 
4681.000000	64.458918 
4680.000000	64.458799 
4679.000000	64.465546 
4678.000000	64.473199 
4677.000000	64.477467 
4676.000000	64.477372 
4675.000000	64.474344 
4674.000000	64.472508 
4673.000000	64.476299 
4672.000000	64.489984 
4671.000000	64.515256 
4670.000000	64.551997 
4669.000000	64.597821 
4668.000000	64.649271 
4667.000000	64.702939 
4666.000000	64.755845 
4665.000000	64.806342 
4664.000000	64.853072 
4663.000000	64.894795 
4662.000000	64.929151 
4661.000000	64.952731 
4660.000000	64.961409 
4659.000000	64.951300 
4658.000000	64.920401 
4657.000000	64.869785 
4656.000000	64.804697 
4655.000000	64.734029 
4654.000000	64.669275 
4653.000000	64.622044 
4652.000000	64.601778 
4651.000000	64.613485 
4650.000000	64.656519 
4649.000000	64.724540 
4648.000000	64.807415 
4647.000000	64.892792 
4646.000000	64.968991 
4645.000000	65.026760 
4644.000000	65.060448 
4643.000000	65.068912 
4642.000000	65.054607 
4641.000000	65.023279 
4640.000000	64.982223 
4639.000000	64.939379 
4638.000000	64.901924 
4637.000000	64.875316 
4636.000000	64.863467 
4635.000000	64.867281 
4634.000000	64.885020 
4633.000000	64.912676 
4632.000000	64.945030 
4631.000000	64.975905 
4630.000000	64.999246 
4629.000000	65.010261 
4628.000000	65.006351 
4627.000000	64.987206 
4626.000000	64.954781 
4625.000000	64.912295 
4624.000000	64.864039 
4623.000000	64.814329 
4622.000000	64.767622 
4621.000000	64.727997 
4620.000000	64.699268 
4619.000000	64.684987 
4618.000000	64.687871 
4617.000000	64.709973 
4616.000000	64.751005 
4615.000000	64.808082 
4614.000000	64.875268 
4613.000000	64.944219 
4612.000000	65.004801 
4611.000000	65.047144 
4610.000000	65.062689 
4609.000000	65.045833 
4608.000000	64.995527 
4607.000000	64.915680 
4606.000000	64.814043 
4605.000000	64.700913 
4604.000000	64.587783 
4603.000000	64.485740 
4602.000000	64.404177 
4601.000000	64.349603 
4600.000000	64.325380 
4599.000000	64.331221 
4598.000000	64.363694 
4597.000000	64.416551 
4596.000000	64.480853 
4595.000000	64.546656 
4594.000000	64.603376 
4593.000000	64.642453 
4592.000000	64.657402 
4591.000000	64.646458 
4590.000000	64.611577 
4589.000000	64.559841 
4588.000000	64.501261 
4587.000000	64.448428 
4586.000000	64.413809 
4585.000000	64.407825 
4584.000000	64.436578 
4583.000000	64.501190 
4582.000000	64.597892 
4581.000000	64.718222 
4580.000000	64.850687 
4579.000000	64.982604 
4578.000000	65.102267 
4577.000000	65.200376 
4576.000000	65.271258 
4575.000000	65.312576 
4574.000000	65.324997 
4573.000000	65.312123 
4572.000000	65.279197 
4571.000000	65.232229 
4570.000000	65.176963 
4569.000000	65.119814 
4568.000000	65.066409 
4567.000000	65.022277 
4566.000000	64.991497 
4565.000000	64.977240 
4564.000000	64.979839 
4563.000000	64.997768 
4562.000000	65.026187 
4561.000000	65.057682 
4560.000000	65.083193 
4559.000000	65.093469 
4558.000000	65.081238 
4557.000000	65.042352 
4556.000000	64.977645 
4555.000000	64.892935 
4554.000000	64.798712 
4553.000000	64.707994 
4552.000000	64.634346 
4551.000000	64.589071 
4550.000000	64.578819 
4549.000000	64.604163 
4548.000000	64.660263 
4547.000000	64.737939 
4546.000000	64.824938 
4545.000000	64.908909 
4544.000000	64.979743 
4543.000000	65.031480 
4542.000000	65.062022 
4541.000000	65.073251 
4540.000000	65.069341 
4539.000000	65.055394 
4538.000000	65.035891 
4537.000000	65.013575 
4536.000000	64.989519 
4535.000000	64.963197 
4534.000000	64.933991 
4533.000000	64.901614 
4532.000000	64.867258 
4531.000000	64.833641 
4530.000000	64.804768 
4529.000000	64.784932 
4528.000000	64.777278 
4527.000000	64.783358 
4526.000000	64.802336 
4525.000000	64.830374 
4524.000000	64.861178 
4523.000000	64.887857 
4522.000000	64.904236 
4521.000000	64.905738 
4520.000000	64.890575 
4519.000000	64.860558 
4518.000000	64.820528 
4517.000000	64.777016 
4516.000000	64.736413 
4515.000000	64.703536 
4514.000000	64.680099 
4513.000000	64.665412 
4512.000000	64.655804 
4511.000000	64.645409 
4510.000000	64.628291 
4509.000000	64.599990 
4508.000000	64.559412 
4507.000000	64.508199 
4506.000000	64.452648 
4505.000000	64.401602 
4504.000000	64.365744 
4503.000000	64.353966 
4502.000000	64.373135 
4501.000000	64.426350 
4500.000000	64.512562 
4499.000000	64.626622 
4498.000000	64.760422 
4497.000000	64.903974 
4496.000000	65.047621 
4495.000000	65.183329 
4494.000000	65.306377 
4493.000000	65.414500 
4492.000000	65.508079 
4491.000000	65.587139 
4490.000000	65.649342 
4489.000000	65.689206 
4488.000000	65.699911 
4487.000000	65.674495 
4486.000000	65.611076 
4485.000000	65.512037 
4484.000000	65.387916 
4483.000000	65.251469 
4482.000000	65.118169 
4481.000000	64.998650 
4480.000000	64.894676 
4479.000000	64.801645 
4478.000000	64.711403 
4477.000000	64.616131 
4476.000000	64.512491 
4475.000000	64.402961 
4474.000000	64.294242 
4473.000000	64.199876 
4472.000000	64.137291 
4471.000000	64.117455 
4470.000000	64.140605 
4469.000000	64.198732 
4468.000000	64.277529 
4467.000000	64.359807 
4466.000000	64.430713 
4465.000000	64.484906 
4464.000000	64.526224 
4463.000000	64.563107 
4462.000000	64.604473 
4461.000000	64.660048 
4460.000000	64.729189 
4459.000000	64.805269 
4458.000000	64.865064 
4457.000000	64.874839 
4456.000000	64.792537 
4455.000000	64.582705 
4454.000000	64.223742 
4453.000000	63.706064 
4452.000000	63.058543 
4451.000000	62.339353 
4450.000000	61.649560 
4449.000000	61.109018 
4448.000000	60.850048 
4447.000000	60.986018 
4446.000000	61.586952 
4445.000000	62.658286 
4444.000000	64.122796 
4443.000000	65.830731 
4442.000000	67.582607 
4441.000000	69.173097 
4440.000000	70.442938 
4439.000000	71.313834 
4438.000000	71.810936 
4437.000000	72.040176 
4436.000000	72.164487 
4435.000000	72.329258 
4434.000000	72.632622 
4433.000000	73.062586 
4432.000000	73.510837 
4431.000000	73.780965 
4430.000000	73.661828 
4429.000000	72.981524 
4428.000000	71.676254 
4427.000000	69.817328 
4426.000000	67.610812 
4425.000000	65.355610 
4424.000000	63.368511 
4423.000000	61.922717 
4422.000000	61.175131 
4421.000000	61.158204 
4420.000000	61.781382 
4419.000000	62.866926 
4418.000000	64.201045 
4417.000000	65.567660 
4416.000000	66.789913 
4415.000000	67.738008 
4414.000000	68.339920 
4413.000000	68.583011 
4412.000000	68.501901 
4411.000000	68.163728 
4410.000000	67.646574 
4409.000000	67.033672 
4408.000000	66.392827 
4407.000000	65.775370 
4406.000000	65.209913 
4405.000000	64.720129 
4404.000000	64.318156 
4403.000000	64.019298 
4402.000000	63.831591 
4401.000000	63.750362 
4400.000000	63.761925 
4399.000000	63.835430 
4398.000000	63.938808 
4397.000000	64.038133 
4396.000000	64.112520 
4395.000000	64.156961 
4394.000000	64.178752 
4393.000000	64.188551 
4392.000000	64.201116 
4391.000000	64.228963 
4390.000000	64.276075 
4389.000000	64.335775 
4388.000000	64.396595 
4387.000000	64.444994 
4386.000000	64.472341 
4385.000000	64.476752 
4384.000000	64.458703 
4383.000000	64.422154 
4382.000000	64.374351 
4381.000000	64.324259 
4380.000000	64.279174 
4379.000000	64.245557 
4378.000000	64.226484 
4377.000000	64.224529 
4376.000000	64.244079 
4375.000000	64.289283 
4374.000000	64.361691 
4373.000000	64.460039 
4372.000000	64.579844 
4371.000000	64.712691 
4370.000000	64.845752 
4369.000000	64.965605 
4368.000000	65.060377 
4367.000000	65.122652 
4366.000000	65.151190 
4365.000000	65.150666 
4364.000000	65.130281 
4363.000000	65.101695 
4362.000000	65.076375 
4361.000000	65.062737 
4360.000000	65.064668 
4359.000000	65.081810 
4358.000000	65.110397 
4357.000000	65.145254 
4356.000000	65.181350 
4355.000000	65.215134 
4354.000000	65.244913 
4353.000000	65.270400 
4352.000000	65.292310 
4351.000000	65.311121 
4350.000000	65.326714 
4349.000000	65.338444 
4348.000000	65.344643 
4347.000000	65.343451 
4346.000000	65.333008 
4345.000000	65.312623 
4344.000000	65.282964 
4343.000000	65.246844 
4342.000000	65.208053 
4341.000000	65.170931 
4340.000000	65.138983 
4339.000000	65.114402 
4338.000000	65.096688 
4337.000000	65.082573 
4336.000000	65.067195 
4335.000000	65.045475 
4334.000000	65.013122 
4333.000000	64.968228 
4332.000000	64.912056 
4331.000000	64.849376 
4330.000000	64.787578 
4329.000000	64.735507 
4328.000000	64.701151 
4327.000000	64.690351 
4326.000000	64.704966 
4325.000000	64.742922 
4324.000000	64.798426 
4323.000000	64.863324 
4322.000000	64.928293 
4321.000000	64.985036 
4320.000000	65.027332 
4319.000000	65.052223 
4318.000000	65.059661 
4317.000000	65.052390 
4316.000000	65.034985 
4315.000000	65.012407 
4314.000000	64.989376 
4313.000000	64.968609 
4312.000000	64.950823 
4311.000000	64.934921 
4310.000000	64.919042 
4309.000000	64.901018 
4308.000000	64.879441 
4307.000000	64.854526 
4306.000000	64.828443 
4305.000000	64.804363 
4304.000000	64.785885 
4303.000000	64.776134 
4302.000000	64.776945 
4301.000000	64.788484 
4300.000000	64.809155 
4299.000000	64.836215 
4298.000000	64.866352 
4297.000000	64.896130 
4296.000000	64.922881 
4295.000000	64.944553 
4294.000000	64.960098 
4293.000000	64.968967 
4292.000000	64.971137 
4291.000000	64.966559 
4290.000000	64.955854 
4289.000000	64.940619 
4288.000000	64.923238 
4287.000000	64.906978 
4286.000000	64.895248 
4285.000000	64.891219 
4284.000000	64.897084 
4283.000000	64.913463 
4282.000000	64.939451 
4281.000000	64.972639 
4280.000000	65.009808 
4279.000000	65.047430 
4278.000000	65.082001 
4277.000000	65.110301 
4276.000000	65.129995 
4275.000000	65.139555 
4274.000000	65.138173 
4273.000000	65.125608 
4272.000000	65.102767 
4271.000000	65.071058 
4270.000000	65.032911 
4269.000000	64.990878 
4268.000000	64.947843 
4267.000000	64.906573 
4266.000000	64.869523 
4265.000000	64.838719 
4264.000000	64.815139 
4263.000000	64.799165 
4262.000000	64.790749 
4261.000000	64.789342 
4260.000000	64.793872 
4259.000000	64.802694 
4258.000000	64.813756 
4257.000000	64.824533 
4256.000000	64.832353 
4255.000000	64.835023 
4254.000000	64.831471 
4253.000000	64.822173 
4252.000000	64.809560 
4251.000000	64.797759 
4250.000000	64.791607 
4249.000000	64.795970 
4248.000000	64.813995 
4247.000000	64.846587 
4246.000000	64.891433 
4245.000000	64.943337 
4244.000000	64.994978 
4243.000000	65.038418 
4242.000000	65.066742 
4241.000000	65.075445 
4240.000000	65.063571 
4239.000000	65.033674 
4238.000000	64.991378 
4237.000000	64.944338 
4236.000000	64.900159 
4235.000000	64.864754 
4234.000000	64.841508 
4233.000000	64.831304 
4232.000000	64.832329 
4231.000000	64.841365 
4230.000000	64.854741 
4229.000000	64.869451 
4228.000000	64.883780 
4227.000000	64.897227 
4226.000000	64.910078 
4225.000000	64.922785 
4224.000000	64.935803 
4223.000000	64.949011 
4222.000000	64.961814 
4221.000000	64.972710 
4220.000000	64.980077 
4219.000000	64.982318 
4218.000000	64.977908 
4217.000000	64.966154 
4216.000000	64.947128 
4215.000000	64.922332 
4214.000000	64.893960 
4213.000000	64.865612 
4212.000000	64.841890 
4211.000000	64.827871 
4210.000000	64.828109 
4209.000000	64.845705 
4208.000000	64.881491 
4207.000000	64.933252 
4206.000000	64.995932 
4205.000000	65.062141 
4204.000000	65.123367 
4203.000000	65.171718 
4202.000000	65.201115 
4201.000000	65.208482 
4200.000000	65.193915 
4199.000000	65.160822 
4198.000000	65.114784 
4197.000000	65.062713 
4196.000000	65.011191 
4195.000000	64.965796 
4194.000000	64.929819 
4193.000000	64.904046 
4192.000000	64.886808 
4191.000000	64.874887 
4190.000000	64.864420 
4189.000000	64.852046 
4188.000000	64.836025 
4187.000000	64.816379 
4186.000000	64.795327 
4185.000000	64.776206 
4184.000000	64.762878 
4183.000000	64.758300 
4182.000000	64.763808 
4181.000000	64.778494 
4180.000000	64.799284 
4179.000000	64.821481 
4178.000000	64.840030 
4177.000000	64.850878 
4176.000000	64.851880 
4175.000000	64.843034 
4174.000000	64.827084 
4173.000000	64.808750 
4172.000000	64.793300 
4171.000000	64.785122 
4170.000000	64.786839 
4169.000000	64.798736 
4168.000000	64.818620 
4167.000000	64.842844 
4166.000000	64.867138 
4165.000000	64.887905 
4164.000000	64.903664 
4163.000000	64.914822 
4162.000000	64.923024 
4161.000000	64.930677 
4160.000000	64.940261 
4159.000000	64.952969 
