PE IR       SPECTRUM    SPECTRUM    ASCII       PEDS        1.60        
  -1
BZ6826~1.ASC
17/04/07
19:48:42.00
17/04/07
19:48:42.00
tln
$BZ1503107-1_t0080$<tbV0>[7.8,5.2,8.0,0.0,27,1,0]
370.000000
64









2002,4.07    
MIRTGS : RIGHTBACK : INTERNAL 2
MIR : ON : INTERNAL 2
OPTKBR

0.200000
8
8.000000
FILLER
RATIO
SPECTRUM
UNLOCKED 256

DOUBLE
64
COMBINED
1
0
0


1.000000
RATIO


1
0
TRUE
51149
0
LEFT NOT FITTED RIGHT NOT FITTED 0
NONE
NONE
15600
12.000000
4.427000
51148
TRUE
1 0 8 72 0 0 0 0 

15798.010000






#HDR
-1
-1
#GR
CM-1
%T
0.00002384185791015625
0.0
5000.000000
-1.000000
4631
8
78.327608
48.521637
#DATA
5000.000000	64.699840 
4999.000000	64.769792 
4998.000000	64.820051 
4997.000000	64.836215 
4996.000000	64.817643 
4995.000000	64.775156 
4994.000000	64.729094 
4993.000000	64.701628 
4992.000000	64.710450 
4991.000000	64.763164 
4990.000000	64.853954 
4989.000000	64.965534 
4988.000000	65.071821 
4987.000000	65.145421 
4986.000000	65.164923 
4985.000000	65.121316 
4984.000000	65.022253 
4983.000000	64.890980 
4982.000000	64.762115 
4981.000000	64.673233 
4980.000000	64.657139 
4979.000000	64.732527 
4978.000000	64.900255 
4977.000000	65.140557 
4976.000000	65.418434 
4975.000000	65.689206 
4974.000000	65.908122 
4973.000000	66.039466 
4972.000000	66.062808 
4971.000000	65.977740 
4970.000000	65.801978 
4969.000000	65.568041 
4968.000000	65.314865 
4967.000000	65.080642 
4966.000000	64.896917 
4965.000000	64.781785 
4964.000000	64.740228 
4963.000000	64.763140 
4962.000000	64.832782 
4961.000000	64.926862 
4960.000000	65.024304 
4959.000000	65.109539 
4958.000000	65.174126 
4957.000000	65.218997 
4956.000000	65.251612 
4955.000000	65.282630 
4954.000000	65.320134 
4953.000000	65.366768 
4952.000000	65.415835 
4951.000000	65.452671 
4950.000000	65.456533 
4949.000000	65.404653 
4948.000000	65.280318 
4947.000000	65.078282 
4946.000000	64.810729 
4945.000000	64.506149 
4944.000000	64.206552 
4943.000000	63.958883 
4942.000000	63.804793 
4941.000000	63.772225 
4940.000000	63.866853 
4939.000000	64.070415 
4938.000000	64.343833 
4937.000000	64.635968 
4936.000000	64.894819 
4935.000000	65.078711 
4934.000000	65.164351 
4933.000000	65.149569 
4932.000000	65.051460 
4931.000000	64.899325 
4930.000000	64.726352 
4929.000000	64.560937 
4928.000000	64.421844 
4927.000000	64.316320 
4926.000000	64.244008 
4925.000000	64.200878 
4924.000000	64.184856 
4923.000000	64.198207 
4922.000000	64.246511 
4921.000000	64.336872 
4920.000000	64.471960 
4919.000000	64.648437 
4918.000000	64.853906 
4917.000000	65.068793 
4916.000000	65.270113 
4915.000000	65.434837 
4914.000000	65.545344 
4913.000000	65.591192 
4912.000000	65.573215 
4911.000000	65.499615 
4910.000000	65.383768 
4909.000000	65.241050 
4908.000000	65.086603 
4907.000000	64.932584 
4906.000000	64.788341 
4905.000000	64.659976 
4904.000000	64.552164 
4903.000000	64.468741 
4902.000000	64.413905 
4901.000000	64.390325 
4900.000000	64.398980 
4899.000000	64.437937 
4898.000000	64.502477 
4897.000000	64.585208 
4896.000000	64.677286 
4895.000000	64.768886 
4894.000000	64.851093 
4893.000000	64.916682 
4892.000000	64.961361 
4891.000000	64.984393 
4890.000000	64.987969 
4889.000000	64.976072 
4888.000000	64.953947 
4887.000000	64.927220 
4886.000000	64.901423 
4885.000000	64.881014 
4884.000000	64.870238 
4883.000000	64.874100 
4882.000000	64.896440 
4881.000000	64.939808 
4880.000000	65.003705 
4879.000000	65.084576 
4878.000000	65.175127 
4877.000000	65.265488 
4876.000000	65.344715 
4875.000000	65.402722 
4874.000000	65.433430 
4873.000000	65.436053 
4872.000000	65.414762 
4871.000000	65.377330 
4870.000000	65.333390 
4869.000000	65.291619 
4868.000000	65.257477 
4867.000000	65.232038 
4866.000000	65.212774 
4865.000000	65.194702 
4864.000000	65.173912 
4863.000000	65.147805 
4862.000000	65.117406 
4861.000000	65.085601 
4860.000000	65.056610 
4859.000000	65.033340 
4858.000000	65.015196 
4857.000000	64.998745 
4856.000000	64.977979 
4855.000000	64.946866 
4854.000000	64.901447 
4853.000000	64.841914 
4852.000000	64.772963 
4851.000000	64.703464 
4850.000000	64.644217 
4849.000000	64.605545 
4848.000000	64.594578 
4847.000000	64.613342 
4846.000000	64.658308 
4845.000000	64.721488 
4844.000000	64.792442 
4843.000000	64.860463 
4842.000000	64.916944 
4841.000000	64.957165 
4840.000000	64.980411 
4839.000000	64.989089 
4838.000000	64.987182 
4837.000000	64.978480 
4836.000000	64.965128 
4835.000000	64.947724 
4834.000000	64.924836 
4833.000000	64.894413 
4832.000000	64.854645 
4831.000000	64.805746 
4830.000000	64.750409 
4829.000000	64.694046 
4828.000000	64.644098 
4827.000000	64.608192 
4826.000000	64.592957 
4825.000000	64.602065 
4824.000000	64.635753 
4823.000000	64.690423 
4822.000000	64.759325 
4821.000000	64.833617 
4820.000000	64.903974 
4819.000000	64.962291 
4818.000000	65.002179 
4817.000000	65.019917 
4816.000000	65.014743 
4815.000000	64.988803 
4814.000000	64.946579 
4813.000000	64.894270 
4812.000000	64.839100 
4811.000000	64.788007 
4810.000000	64.747405 
4809.000000	64.721202 
4808.000000	64.710974 
4807.000000	64.714670 
4806.000000	64.727425 
4805.000000	64.741802 
4804.000000	64.749622 
4803.000000	64.743709 
4802.000000	64.719128 
4801.000000	64.675188 
4800.000000	64.615488 
4799.000000	64.547777 
4798.000000	64.481806 
4797.000000	64.428138 
4796.000000	64.395427 
4795.000000	64.388918 
4794.000000	64.409160 
4793.000000	64.452219 
4792.000000	64.510631 
4791.000000	64.575386 
4790.000000	64.637899 
4789.000000	64.690995 
4788.000000	64.730477 
4787.000000	64.755392 
4786.000000	64.767646 
4785.000000	64.770412 
4784.000000	64.767479 
4783.000000	64.761996 
4782.000000	64.755821 
4781.000000	64.749956 
4780.000000	64.744424 
4779.000000	64.738821 
4778.000000	64.733052 
4777.000000	64.727735 
4776.000000	64.724564 
4775.000000	64.725828 
4774.000000	64.734315 
4773.000000	64.752149 
4772.000000	64.780712 
4771.000000	64.819908 
4770.000000	64.867758 
4769.000000	64.920735 
4768.000000	64.973711 
4767.000000	65.020704 
4766.000000	65.055847 
4765.000000	65.074372 
4764.000000	65.072941 
4763.000000	65.050506 
4762.000000	65.008687 
4761.000000	64.951634 
4760.000000	64.885354 
4759.000000	64.816689 
4758.000000	64.752650 
4757.000000	64.698672 
4756.000000	64.658379 
4755.000000	64.632749 
4754.000000	64.620447 
4753.000000	64.618229 
4752.000000	64.621806 
4751.000000	64.626932 
4750.000000	64.630174 
4749.000000	64.629626 
4748.000000	64.624786 
4747.000000	64.616394 
4746.000000	64.605712 
4745.000000	64.593958 
4744.000000	64.581871 
4743.000000	64.569354 
4742.000000	64.555668 
4741.000000	64.540457 
4740.000000	64.524412 
4739.000000	64.509344 
4738.000000	64.498353 
4737.000000	64.495444 
4736.000000	64.504766 
4735.000000	64.529180 
4734.000000	64.569568 
4733.000000	64.624691 
4732.000000	64.690947 
4731.000000	64.763069 
4730.000000	64.834761 
4729.000000	64.899849 
4728.000000	64.953303 
4727.000000	64.992141 
4726.000000	65.015816 
4725.000000	65.025806 
4724.000000	65.025353 
4723.000000	65.019059 
4722.000000	65.010929 
4721.000000	65.004372 
4720.000000	65.000319 
4719.000000	64.998149 
4718.000000	64.994907 
4717.000000	64.986777 
4716.000000	64.969754 
4715.000000	64.941120 
4714.000000	64.900374 
4713.000000	64.849638 
4712.000000	64.793539 
4711.000000	64.738249 
4710.000000	64.690017 
4709.000000	64.653611 
4708.000000	64.631199 
4707.000000	64.621782 
4706.000000	64.621806 
4705.000000	64.626193 
4704.000000	64.629459 
4703.000000	64.627718 
4702.000000	64.619565 
4701.000000	64.606308 
4700.000000	64.591264 
4699.000000	64.578819 
4698.000000	64.572978 
4697.000000	64.576101 
4696.000000	64.587998 
4695.000000	64.605784 
4694.000000	64.624762 
4693.000000	64.639639 
4692.000000	64.645838 
4691.000000	64.640665 
4690.000000	64.623618 
4689.000000	64.596796 
4688.000000	64.564180 
4687.000000	64.530849 
4686.000000	64.501690 
4685.000000	64.480614 
4684.000000	64.469695 
4683.000000	64.468741 
4682.000000	64.475512 
4681.000000	64.486503 
4680.000000	64.497852 
4679.000000	64.505887 
4678.000000	64.508152 
4677.000000	64.504194 
4676.000000	64.495515 
4675.000000	64.484834 
4674.000000	64.475679 
4673.000000	64.471435 
4672.000000	64.474773 
4671.000000	64.486742 
4670.000000	64.507102 
4669.000000	64.533996 
4668.000000	64.565014 
4667.000000	64.597702 
4666.000000	64.629888 
4665.000000	64.660215 
4664.000000	64.687967 
4663.000000	64.712762 
4662.000000	64.734196 
4661.000000	64.751577 
4660.000000	64.763808 
4659.000000	64.769887 
4658.000000	64.769482 
4657.000000	64.763593 
4656.000000	64.754414 
4655.000000	64.745497 
4654.000000	64.741396 
4653.000000	64.746761 
4652.000000	64.765381 
4651.000000	64.798855 
4650.000000	64.846396 
4649.000000	64.904332 
4648.000000	64.966988 
4647.000000	65.027403 
4646.000000	65.078639 
4645.000000	65.114808 
4644.000000	65.132403 
4643.000000	65.130209 
4642.000000	65.109968 
4641.000000	65.074992 
4640.000000	65.029716 
4639.000000	64.978766 
4638.000000	64.926648 
4637.000000	64.877176 
4636.000000	64.833688 
4635.000000	64.799165 
4634.000000	64.776468 
4633.000000	64.768600 
4632.000000	64.778399 
4631.000000	64.807558 
4630.000000	64.856028 
4629.000000	64.921474 
4628.000000	64.998745 
4627.000000	65.080380 
4626.000000	65.157341 
4625.000000	65.220689 
4624.000000	65.263152 
4623.000000	65.280389 
4622.000000	65.271735 
4621.000000	65.240454 
4620.000000	65.192961 
4619.000000	65.137290 
4618.000000	65.082097 
4617.000000	65.035676 
4616.000000	65.004658 
4615.000000	64.993405 
4614.000000	65.003752 
4613.000000	65.035343 
4612.000000	65.085649 
4611.000000	65.150475 
4610.000000	65.224218 
4609.000000	65.300321 
4608.000000	65.372037 
4607.000000	65.433073 
4606.000000	65.478301 
4605.000000	65.504193 
4604.000000	65.509939 
4603.000000	65.497207 
4602.000000	65.470337 
4601.000000	65.434908 
4600.000000	65.397500 
4599.000000	65.363550 
4598.000000	65.336775 
4597.000000	65.317726 
4596.000000	65.304350 
4595.000000	65.292310 
4594.000000	65.276074 
4593.000000	65.250897 
4592.000000	65.213561 
4591.000000	65.164470 
4590.000000	65.107131 
4589.000000	65.048599 
4588.000000	64.996981 
4587.000000	64.960741 
4586.000000	64.945983 
4585.000000	64.955615 
4584.000000	64.988255 
4583.000000	65.038895 
4582.000000	65.100193 
4581.000000	65.163636 
4580.000000	65.221214 
4579.000000	65.267014 
4578.000000	65.298318 
4577.000000	65.315055 
4576.000000	65.319538 
4575.000000	65.316128 
4574.000000	65.310096 
4573.000000	65.306806 
4572.000000	65.310621 
4571.000000	65.324401 
4570.000000	65.348911 
4569.000000	65.383625 
4568.000000	65.426015 
4567.000000	65.472531 
4566.000000	65.518474 
4565.000000	65.559554 
4564.000000	65.591669 
4563.000000	65.611600 
4562.000000	65.617084 
4561.000000	65.607404 
4560.000000	65.582823 
4559.000000	65.544843 
4558.000000	65.495634 
4557.000000	65.438318 
4556.000000	65.375661 
4555.000000	65.310072 
4554.000000	65.243649 
4553.000000	65.178418 
4552.000000	65.116190 
4551.000000	65.058779 
4550.000000	65.008139 
4549.000000	64.966511 
4548.000000	64.935874 
4547.000000	64.918065 
4546.000000	64.913797 
4545.000000	64.923048 
4544.000000	64.944672 
4543.000000	64.976692 
4542.000000	65.016174 
4541.000000	65.059518 
4540.000000	65.102648 
4539.000000	65.141296 
4538.000000	65.171337 
4537.000000	65.189385 
4536.000000	65.192985 
4535.000000	65.181565 
4534.000000	65.155911 
4533.000000	65.119671 
4532.000000	65.078663 
4531.000000	65.040493 
4530.000000	65.013217 
4529.000000	65.004181 
4528.000000	65.018486 
4527.000000	65.058374 
4526.000000	65.122652 
4525.000000	65.207481 
4524.000000	65.306854 
4523.000000	65.414166 
4522.000000	65.522933 
4521.000000	65.626430 
4520.000000	65.718245 
4519.000000	65.792679 
4518.000000	65.845561 
4517.000000	65.874910 
4516.000000	65.881323 
4515.000000	65.869331 
4514.000000	65.845513 
4513.000000	65.817618 
4512.000000	65.792083 
4511.000000	65.773463 
4510.000000	65.762495 
4509.000000	65.757441 
4508.000000	65.753507 
4507.000000	65.745711 
4506.000000	65.729284 
4505.000000	65.701389 
4504.000000	65.662026 
4503.000000	65.613651 
4502.000000	65.562295 
4501.000000	65.516161 
4500.000000	65.484309 
4499.000000	65.474224 
4498.000000	65.490388 
4497.000000	65.532875 
4496.000000	65.596961 
4495.000000	65.674209 
4494.000000	65.755367 
4493.000000	65.832448 
4492.000000	65.899181 
4491.000000	65.952181 
4490.000000	65.991783 
4489.000000	66.020655 
4488.000000	66.040992 
4487.000000	66.054272 
4486.000000	66.061902 
4485.000000	66.064429 
4484.000000	66.061329 
4483.000000	66.052246 
4482.000000	66.041254 
4481.000000	66.031980 
4480.000000	66.024994 
4479.000000	66.018724 
4478.000000	66.013145 
4477.000000	66.003942 
4476.000000	65.980410 
4475.000000	65.934562 
4474.000000	65.864610 
4473.000000	65.775823 
4472.000000	65.680861 
4471.000000	65.592598 
4470.000000	65.520143 
4469.000000	65.464735 
4468.000000	65.418863 
4467.000000	65.369987 
4466.000000	65.302634 
4465.000000	65.208625 
4464.000000	65.086555 
4463.000000	64.931464 
4462.000000	64.739608 
4461.000000	64.522147 
4460.000000	64.292407 
4459.000000	64.063000 
4458.000000	63.833427 
4457.000000	63.606071 
4456.000000	63.357424 
4455.000000	63.052439 
4454.000000	62.631964 
4453.000000	62.025237 
4452.000000	61.172556 
4451.000000	60.040307 
4450.000000	58.653402 
4449.000000	57.095789 
4448.000000	55.516624 
4447.000000	54.103851 
4446.000000	53.043007 
4445.000000	52.474951 
4444.000000	52.448630 
4443.000000	52.910637 
4442.000000	53.708219 
4441.000000	54.642081 
4440.000000	55.524516 
4439.000000	56.254506 
4438.000000	56.844925 
4437.000000	57.438898 
4436.000000	58.283305 
4435.000000	59.640717 
4434.000000	61.713933 
4433.000000	64.535284 
4432.000000	67.925906 
4431.000000	71.500873 
4430.000000	74.746894 
4429.000000	77.146458 
4428.000000	78.327608 
4427.000000	78.142714 
4426.000000	76.747798 
4425.000000	74.514365 
4424.000000	71.934509 
4423.000000	69.493365 
4422.000000	67.545866 
4421.000000	66.279172 
4420.000000	65.707802 
4419.000000	65.718436 
4418.000000	66.154146 
4417.000000	66.826820 
4416.000000	67.576956 
4415.000000	68.265819 
4414.000000	68.794083 
4413.000000	69.101166 
4412.000000	69.165158 
4411.000000	69.000220 
4410.000000	68.645000 
4409.000000	68.153905 
4408.000000	67.583298 
4407.000000	66.977095 
4406.000000	66.367650 
4405.000000	65.792870 
4404.000000	65.284967 
4403.000000	64.877033 
4402.000000	64.592099 
4401.000000	64.442062 
4400.000000	64.421820 
4399.000000	64.495921 
4398.000000	64.622497 
4397.000000	64.763522 
4396.000000	64.889883 
4395.000000	64.982724 
4394.000000	65.037274 
4393.000000	65.055465 
4392.000000	65.048241 
4391.000000	65.030360 
4390.000000	65.010809 
4389.000000	64.989042 
4388.000000	64.964556 
4387.000000	64.938068 
4386.000000	64.912104 
4385.000000	64.891123 
4384.000000	64.878916 
4383.000000	64.877700 
4382.000000	64.887475 
4381.000000	64.905619 
4380.000000	64.925742 
4379.000000	64.941024 
4378.000000	64.944767 
4377.000000	64.934539 
4376.000000	64.914941 
4375.000000	64.895772 
4374.000000	64.887499 
4373.000000	64.900493 
4372.000000	64.941596 
4371.000000	65.012383 
4370.000000	65.107345 
4369.000000	65.216898 
4368.000000	65.330290 
4367.000000	65.437865 
4366.000000	65.533590 
4365.000000	65.614891 
4364.000000	65.682268 
4363.000000	65.738844 
4362.000000	65.788650 
4361.000000	65.834641 
4360.000000	65.877604 
4359.000000	65.916538 
4358.000000	65.948724 
4357.000000	65.971755 
4356.000000	65.984058 
4355.000000	65.986132 
4354.000000	65.980100 
4353.000000	65.969586 
4352.000000	65.958333 
4351.000000	65.948939 
4350.000000	65.942120 
4349.000000	65.936923 
4348.000000	65.930604 
4347.000000	65.920162 
4346.000000	65.902543 
4345.000000	65.876317 
4344.000000	65.841388 
4343.000000	65.799593 
4342.000000	65.753459 
4341.000000	65.705633 
4340.000000	65.658044 
4339.000000	65.611648 
4338.000000	65.565896 
4337.000000	65.519261 
4336.000000	65.470218 
4335.000000	65.418243 
4334.000000	65.363550 
4333.000000	65.307688 
4332.000000	65.253496 
4331.000000	65.204834 
4330.000000	65.165066 
4329.000000	65.137171 
4328.000000	65.123128 
4327.000000	65.123939 
4326.000000	65.139055 
4325.000000	65.167188 
4324.000000	65.206146 
4323.000000	65.253281 
4322.000000	65.305519 
4321.000000	65.359139 
4320.000000	65.410256 
4319.000000	65.454697 
4318.000000	65.488672 
4317.000000	65.509152 
4316.000000	65.514588 
4315.000000	65.505194 
4314.000000	65.483117 
4313.000000	65.451979 
4312.000000	65.416574 
4311.000000	65.381932 
4310.000000	65.352582 
4309.000000	65.331792 
4308.000000	65.320920 
4307.000000	65.319705 
4306.000000	65.326523 
4305.000000	65.338230 
4304.000000	65.350985 
4303.000000	65.361189 
4302.000000	65.366220 
4301.000000	65.364551 
4300.000000	65.356183 
4299.000000	65.342855 
4298.000000	65.327286 
4297.000000	65.312838 
4296.000000	65.302205 
4295.000000	65.297031 
4294.000000	65.296745 
4293.000000	65.299081 
4292.000000	65.299892 
4291.000000	65.294122 
4290.000000	65.277218 
4289.000000	65.246605 
4288.000000	65.202522 
4287.000000	65.148115 
4286.000000	65.089130 
4285.000000	65.032577 
4284.000000	64.985680 
4283.000000	64.954137 
4282.000000	64.941501 
4281.000000	64.948630 
4280.000000	64.974141 
4279.000000	65.014910 
4278.000000	65.066790 
4277.000000	65.125274 
4276.000000	65.185904 
4275.000000	65.244555 
4274.000000	65.297293 
4273.000000	65.340328 
4272.000000	65.370368 
4271.000000	65.384244 
4270.000000	65.379953 
4269.000000	65.356373 
4268.000000	65.314340 
4267.000000	65.255951 
4266.000000	65.185284 
4265.000000	65.107274 
4264.000000	65.027499 
4263.000000	64.951372 
4262.000000	64.883804 
4261.000000	64.828896 
4260.000000	64.789462 
4259.000000	64.767146 
4258.000000	64.762306 
4257.000000	64.774155 
4256.000000	64.800691 
4255.000000	64.838504 
4254.000000	64.882731 
4253.000000	64.927744 
4252.000000	64.967870 
4251.000000	64.998173 
4250.000000	65.015053 
4249.000000	65.017175 
4248.000000	65.005683 
4247.000000	64.984226 
4246.000000	64.957785 
4245.000000	64.931821 
4244.000000	64.910435 
4243.000000	64.896178 
4242.000000	64.888668 
4241.000000	64.885497 
4240.000000	64.882302 
4239.000000	64.874410 
4238.000000	64.857745 
4237.000000	64.830207 
4236.000000	64.792466 
4235.000000	64.747118 
4234.000000	64.699244 
4233.000000	64.654755 
4232.000000	64.620280 
4231.000000	64.601397 
4230.000000	64.602422 
4229.000000	64.625549 
4228.000000	64.670395 
4227.000000	64.733910 
4226.000000	64.810514 
4225.000000	64.892816 
4224.000000	64.972329 
4223.000000	65.040946 
4222.000000	65.091562 
4221.000000	65.119600 
4220.000000	65.123414 
4219.000000	65.105032 
4218.000000	65.069222 
4217.000000	65.023088 
4216.000000	64.974975 
4215.000000	64.932703 
4214.000000	64.903140 
4213.000000	64.890074 
4212.000000	64.894676 
4211.000000	64.914631 
4210.000000	64.945673 
4209.000000	64.981532 
4208.000000	65.015673 
4207.000000	65.042257 
4206.000000	65.056872 
4205.000000	65.057611 
4204.000000	65.044808 
4203.000000	65.021276 
4202.000000	64.991283 
4201.000000	64.959859 
4200.000000	64.931583 
4199.000000	64.909911 
4198.000000	64.896774 
4197.000000	64.892292 
4196.000000	64.895009 
4195.000000	64.902114 
4194.000000	64.910268 
4193.000000	64.916324 
4192.000000	64.918136 
4191.000000	64.914178 
4190.000000	64.904427 
4189.000000	64.890217 
4188.000000	64.874148 
4187.000000	64.859414 
4186.000000	64.849090 
4185.000000	64.845657 
4184.000000	64.850068 
4183.000000	64.862132 
4182.000000	64.879894 
4181.000000	64.900159 
4180.000000	64.919424 
4179.000000	64.934444 
4178.000000	64.943099 
4177.000000	64.944839 
4176.000000	64.940643 
4175.000000	64.932560 
4174.000000	64.923334 
4173.000000	64.915561 
4172.000000	64.910745 
4171.000000	64.908957 
4170.000000	64.908528 
4169.000000	64.906597 
4168.000000	64.900040 
4167.000000	64.886546 
4166.000000	64.865231 
4165.000000	64.837121 
4164.000000	64.805340 
4163.000000	64.774322 
4162.000000	64.748358 
4161.000000	64.730858 
4160.000000	64.723086 
4159.000000	64.724516 
