PE IR       SPECTRUM    SPECTRUM    ASCII       PEDS        1.60        
  -1
BZ6F24~1.ASC
17/04/07
17:08:17.00
17/04/07
17:08:17.00
tln
$BZ1503107-1_t0047$<tbV0>[7.8,-2.6,8.0,0.0,27,1,0]
370.000000
64









2002,4.07    
MIRTGS : RIGHTBACK : INTERNAL 2
MIR : ON : INTERNAL 2
OPTKBR

0.200000
8
8.000000
FILLER
RATIO
SPECTRUM
UNLOCKED 256

DOUBLE
64
COMBINED
1
0
0


1.000000
RATIO


1
0
TRUE
51149
0
LEFT NOT FITTED RIGHT NOT FITTED 0
NONE
NONE
15600
12.000000
4.427000
51148
TRUE
1 0 8 72 0 0 0 0 

15798.010000






#HDR
-1
-1
#GR
CM-1
%T
0.00002384185791015625
0.0
5000.000000
-1.000000
4631
8
70.222067
43.118643
#DATA
5000.000000	65.953969 
4999.000000	66.156744 
4998.000000	66.396307 
4997.000000	66.645336 
4996.000000	66.865968 
4995.000000	67.019057 
4994.000000	67.073535 
4993.000000	67.015576 
4992.000000	66.852927 
4991.000000	66.616129 
4990.000000	66.349363 
4989.000000	66.100001 
4988.000000	65.908265 
4987.000000	65.799474 
4986.000000	65.777134 
4985.000000	65.824413 
4984.000000	65.910291 
4983.000000	65.999269 
4982.000000	66.059660 
4981.000000	66.071557 
4980.000000	66.027951 
4979.000000	65.935754 
4978.000000	65.809106 
4977.000000	65.666985 
4976.000000	65.527963 
4975.000000	65.407466 
4974.000000	65.316677 
4973.000000	65.260314 
4972.000000	65.239214 
4971.000000	65.248799 
4970.000000	65.281558 
4969.000000	65.327429 
4968.000000	65.374827 
4967.000000	65.412807 
4966.000000	65.431308 
4965.000000	65.424203 
4964.000000	65.389394 
4963.000000	65.329694 
4962.000000	65.251135 
4961.000000	65.162730 
4960.000000	65.074539 
4959.000000	64.995884 
4958.000000	64.933800 
4957.000000	64.892268 
4956.000000	64.871668 
4955.000000	64.869999 
4954.000000	64.883184 
4953.000000	64.904952 
4952.000000	64.928460 
4951.000000	64.945769 
4950.000000	64.950752 
4949.000000	64.939546 
4948.000000	64.913105 
4947.000000	64.877057 
4946.000000	64.841747 
4945.000000	64.819264 
4944.000000	64.821577 
4943.000000	64.858150 
4942.000000	64.932298 
4941.000000	65.040230 
4940.000000	65.170168 
4939.000000	65.305471 
4938.000000	65.426349 
4937.000000	65.514755 
4936.000000	65.556573 
4935.000000	65.545058 
4934.000000	65.480518 
4933.000000	65.370297 
4932.000000	65.226149 
4931.000000	65.062189 
4930.000000	64.892411 
4929.000000	64.729142 
4928.000000	64.582395 
4927.000000	64.459872 
4926.000000	64.367079 
4925.000000	64.308190 
4924.000000	64.285540 
4923.000000	64.300274 
4922.000000	64.351296 
4921.000000	64.435744 
4920.000000	64.547204 
4919.000000	64.677262 
4918.000000	64.815211 
4917.000000	64.950013 
4916.000000	65.070843 
4915.000000	65.168905 
4914.000000	65.238261 
4913.000000	65.276479 
4912.000000	65.284776 
4911.000000	65.266942 
4910.000000	65.229368 
4909.000000	65.178632 
4908.000000	65.121603 
4907.000000	65.063142 
4906.000000	65.006661 
4905.000000	64.952874 
4904.000000	64.901113 
4903.000000	64.849448 
4902.000000	64.796400 
4901.000000	64.741492 
4900.000000	64.686155 
4899.000000	64.632797 
4898.000000	64.584922 
4897.000000	64.546394 
4896.000000	64.520931 
4895.000000	64.510893 
4894.000000	64.517021 
4893.000000	64.538049 
4892.000000	64.570832 
4891.000000	64.610934 
4890.000000	64.653205 
4889.000000	64.691805 
4888.000000	64.721894 
4887.000000	64.740037 
4886.000000	64.744973 
4885.000000	64.737105 
4884.000000	64.719009 
4883.000000	64.694857 
4882.000000	64.669299 
4881.000000	64.646792 
4880.000000	64.630222 
4879.000000	64.620351 
4878.000000	64.616060 
4877.000000	64.615154 
4876.000000	64.614844 
4875.000000	64.612555 
4874.000000	64.607310 
4873.000000	64.599871 
4872.000000	64.591550 
4871.000000	64.583468 
4870.000000	64.576101 
4869.000000	64.568471 
4868.000000	64.557981 
4867.000000	64.541125 
4866.000000	64.514803 
4865.000000	64.477610 
4864.000000	64.430236 
4863.000000	64.376139 
4862.000000	64.320921 
4861.000000	64.271497 
4860.000000	64.234089 
4859.000000	64.213490 
4858.000000	64.211559 
4857.000000	64.227771 
4856.000000	64.259147 
4855.000000	64.301824 
4854.000000	64.351439 
4853.000000	64.404678 
4852.000000	64.459347 
4851.000000	64.514708 
4850.000000	64.570641 
4849.000000	64.627599 
4848.000000	64.685726 
4847.000000	64.744687 
4846.000000	64.803242 
4845.000000	64.859318 
4844.000000	64.910101 
4843.000000	64.952778 
4842.000000	64.984917 
4841.000000	65.005016 
4840.000000	65.012788 
4839.000000	65.009713 
4838.000000	64.998745 
4837.000000	64.984440 
4836.000000	64.971971 
4835.000000	64.966630 
4834.000000	64.972257 
4833.000000	64.991044 
4832.000000	65.022134 
4831.000000	65.062594 
4830.000000	65.106701 
4829.000000	65.147542 
4828.000000	65.177869 
4827.000000	65.191793 
4826.000000	65.185761 
4825.000000	65.159344 
4824.000000	65.115046 
4823.000000	65.057921 
4822.000000	64.994740 
4821.000000	64.932680 
4820.000000	64.878296 
4819.000000	64.836359 
4818.000000	64.809823 
4817.000000	64.799141 
4816.000000	64.802646 
4815.000000	64.816498 
4814.000000	64.835262 
4813.000000	64.852690 
4812.000000	64.862036 
4811.000000	64.858269 
4810.000000	64.838194 
4809.000000	64.802002 
4808.000000	64.753103 
4807.000000	64.697790 
4806.000000	64.643621 
4805.000000	64.597940 
4804.000000	64.566302 
4803.000000	64.551329 
4802.000000	64.552092 
4801.000000	64.564871 
4800.000000	64.583683 
4799.000000	64.602947 
4798.000000	64.618778 
4797.000000	64.629912 
4796.000000	64.637517 
4795.000000	64.645028 
4794.000000	64.656758 
4793.000000	64.676141 
4792.000000	64.704799 
4791.000000	64.742207 
4790.000000	64.786076 
4789.000000	64.833498 
4788.000000	64.881587 
4787.000000	64.928293 
4786.000000	64.972829 
4785.000000	65.015697 
4784.000000	65.058612 
4783.000000	65.103697 
4782.000000	65.152549 
4781.000000	65.206098 
4780.000000	65.263080 
4779.000000	65.320873 
4778.000000	65.374565 
4777.000000	65.418863 
4776.000000	65.447688 
4775.000000	65.455937 
4774.000000	65.439915 
4773.000000	65.399241 
4772.000000	65.335726 
4771.000000	65.253686 
4770.000000	65.158939 
4769.000000	65.058422 
4768.000000	64.958786 
4767.000000	64.866065 
4766.000000	64.784598 
4765.000000	64.717411 
4764.000000	64.666509 
4763.000000	64.633464 
4762.000000	64.619088 
4761.000000	64.623475 
4760.000000	64.645433 
4759.000000	64.682626 
4758.000000	64.730143 
4757.000000	64.781880 
4756.000000	64.830684 
4755.000000	64.870476 
4754.000000	64.895963 
4753.000000	64.905071 
4752.000000	64.899110 
4751.000000	64.882946 
4750.000000	64.863252 
4749.000000	64.848017 
4748.000000	64.844918 
4747.000000	64.859151 
4746.000000	64.892816 
4745.000000	64.943599 
4744.000000	65.005779 
4743.000000	65.070796 
4742.000000	65.129303 
4741.000000	65.172624 
4740.000000	65.194559 
4739.000000	65.192985 
4738.000000	65.170145 
4737.000000	65.131592 
4736.000000	65.085053 
4735.000000	65.039348 
4734.000000	65.002179 
4733.000000	64.978885 
4732.000000	64.970827 
4731.000000	64.976453 
4730.000000	64.990806 
4729.000000	65.007090 
4728.000000	65.017890 
4727.000000	65.016746 
4726.000000	64.999485 
4725.000000	64.965009 
4724.000000	64.915323 
4723.000000	64.854931 
4722.000000	64.790129 
4721.000000	64.727687 
4720.000000	64.673519 
4719.000000	64.631605 
4718.000000	64.603781 
4717.000000	64.589571 
4716.000000	64.586925 
4715.000000	64.592933 
4714.000000	64.605331 
4713.000000	64.623022 
4712.000000	64.646148 
4711.000000	64.675712 
4710.000000	64.712643 
4709.000000	64.757299 
4708.000000	64.808273 
4707.000000	64.862394 
4706.000000	64.915466 
4705.000000	64.962840 
4704.000000	65.001177 
4703.000000	65.028667 
4702.000000	65.045785 
4701.000000	65.054631 
4700.000000	65.058851 
4699.000000	65.062093 
4698.000000	65.067315 
4697.000000	65.075635 
4696.000000	65.086579 
4695.000000	65.097856 
4694.000000	65.106630 
4693.000000	65.109729 
4692.000000	65.105199 
4691.000000	65.092277 
4690.000000	65.071845 
4689.000000	65.046310 
4688.000000	65.019106 
4687.000000	64.994239 
4686.000000	64.975285 
4685.000000	64.965152 
4684.000000	64.965438 
4683.000000	64.976286 
4682.000000	64.996433 
4681.000000	65.023088 
4680.000000	65.052604 
4679.000000	65.081119 
4678.000000	65.105390 
4677.000000	65.123081 
4676.000000	65.133452 
4675.000000	65.137505 
4674.000000	65.137243 
4673.000000	65.135407 
4672.000000	65.133857 
4671.000000	65.133690 
4670.000000	65.134215 
4669.000000	65.133404 
4668.000000	65.128517 
4667.000000	65.117096 
4666.000000	65.098118 
4665.000000	65.072679 
4664.000000	65.043950 
4663.000000	65.016484 
4662.000000	64.995265 
4661.000000	64.984273 
4660.000000	64.985203 
4659.000000	64.997100 
4658.000000	65.016531 
4657.000000	65.038657 
4656.000000	65.058994 
4655.000000	65.074777 
4654.000000	65.085411 
4653.000000	65.092563 
4652.000000	65.099358 
4651.000000	65.109252 
4650.000000	65.124058 
4649.000000	65.143632 
4648.000000	65.165853 
4647.000000	65.187215 
4646.000000	65.204048 
4645.000000	65.213441 
4644.000000	65.214276 
4643.000000	65.207242 
4642.000000	65.194773 
4641.000000	65.180230 
4640.000000	65.166878 
4639.000000	65.157580 
4638.000000	65.154147 
4637.000000	65.157437 
4636.000000	65.167522 
4635.000000	65.183687 
4634.000000	65.204906 
4633.000000	65.228724 
4632.000000	65.251302 
4631.000000	65.267300 
4630.000000	65.270566 
4629.000000	65.254759 
4628.000000	65.214896 
4627.000000	65.148830 
4626.000000	65.058469 
4625.000000	64.950013 
4624.000000	64.833331 
4623.000000	64.720153 
4622.000000	64.622449 
4621.000000	64.549994 
4620.000000	64.508843 
4619.000000	64.500141 
4618.000000	64.520215 
4617.000000	64.561438 
4616.000000	64.614391 
4615.000000	64.669084 
4614.000000	64.717817 
4613.000000	64.755725 
4612.000000	64.781928 
4611.000000	64.798069 
4610.000000	64.808416 
4609.000000	64.817643 
4608.000000	64.830160 
4607.000000	64.848637 
4606.000000	64.874076 
4605.000000	64.905667 
4604.000000	64.941215 
4603.000000	64.977788 
4602.000000	65.012526 
4601.000000	65.043044 
4600.000000	65.067434 
4599.000000	65.084671 
4598.000000	65.094065 
4597.000000	65.095806 
4596.000000	65.090823 
4595.000000	65.080976 
4594.000000	65.068912 
4593.000000	65.057730 
4592.000000	65.051460 
4591.000000	65.053319 
4590.000000	65.064716 
4589.000000	65.084981 
4588.000000	65.111804 
4587.000000	65.141487 
4586.000000	65.169477 
4585.000000	65.191817 
4584.000000	65.206122 
4583.000000	65.211367 
4582.000000	65.208220 
4581.000000	65.197515 
4580.000000	65.180015 
4579.000000	65.155601 
4578.000000	65.123510 
4577.000000	65.082740 
4576.000000	65.032696 
4575.000000	64.974546 
4574.000000	64.911556 
4573.000000	64.849042 
4572.000000	64.793539 
4571.000000	64.751744 
4570.000000	64.729189 
4569.000000	64.727759 
4568.000000	64.746689 
4567.000000	64.782190 
4566.000000	64.829897 
4565.000000	64.884567 
4564.000000	64.942932 
4563.000000	65.003681 
4562.000000	65.068006 
4561.000000	65.138220 
4560.000000	65.216302 
4559.000000	65.302228 
4558.000000	65.393042 
4557.000000	65.482854 
4556.000000	65.563225 
4555.000000	65.625214 
4554.000000	65.661358 
4553.000000	65.667843 
4552.000000	65.645551 
4551.000000	65.600061 
4550.000000	65.540742 
4549.000000	65.478491 
4548.000000	65.423202 
4547.000000	65.380978 
4546.000000	65.353798 
4545.000000	65.338420 
4544.000000	65.327501 
4543.000000	65.311622 
4542.000000	65.281939 
4541.000000	65.233278 
4540.000000	65.165090 
4539.000000	65.083122 
4538.000000	64.996886 
4537.000000	64.919090 
4536.000000	64.861702 
4535.000000	64.834213 
4534.000000	64.840388 
4533.000000	64.878892 
4532.000000	64.943957 
4531.000000	65.026473 
4530.000000	65.116143 
4529.000000	65.202999 
4528.000000	65.278840 
4527.000000	65.337944 
4526.000000	65.376758 
4525.000000	65.395116 
4524.000000	65.395855 
4523.000000	65.383863 
4522.000000	65.365028 
4521.000000	65.345406 
4520.000000	65.329837 
4519.000000	65.321350 
4518.000000	65.320539 
4517.000000	65.326333 
4516.000000	65.335702 
4515.000000	65.345788 
4514.000000	65.353012 
4513.000000	65.353560 
4512.000000	65.344214 
4511.000000	65.322113 
4510.000000	65.286469 
4509.000000	65.238261 
4508.000000	65.181112 
4507.000000	65.120792 
4506.000000	65.064644 
4505.000000	65.020418 
4504.000000	64.994001 
4503.000000	64.988303 
4502.000000	65.001749 
4501.000000	65.028738 
4500.000000	65.059995 
4499.000000	65.084505 
4498.000000	65.092611 
4497.000000	65.078306 
4496.000000	65.040659 
4495.000000	64.983725 
4494.000000	64.914941 
4493.000000	64.843297 
4492.000000	64.776420 
4491.000000	64.719986 
4490.000000	64.677619 
4489.000000	64.650869 
4488.000000	64.640808 
4487.000000	64.647293 
4486.000000	64.668488 
4485.000000	64.700722 
4484.000000	64.737796 
4483.000000	64.772558 
4482.000000	64.798831 
4481.000000	64.811205 
4480.000000	64.806628 
4479.000000	64.783000 
4478.000000	64.738702 
4477.000000	64.673042 
4476.000000	64.585161 
4475.000000	64.478302 
4474.000000	64.359641 
4473.000000	64.242720 
4472.000000	64.146256 
4471.000000	64.086294 
4470.000000	64.071941 
4469.000000	64.104413 
4468.000000	64.176487 
4467.000000	64.272403 
4466.000000	64.372324 
4465.000000	64.459323 
4464.000000	64.522719 
4463.000000	64.557743 
4462.000000	64.566349 
4461.000000	64.556360 
4460.000000	64.537072 
4459.000000	64.515757 
4458.000000	64.494752 
4457.000000	64.471292 
4456.000000	64.437580 
4455.000000	64.387822 
4454.000000	64.315462 
4453.000000	64.216637 
4452.000000	64.090824 
4451.000000	63.939523 
4450.000000	63.771677 
4449.000000	63.595986 
4448.000000	63.438129 
4447.000000	63.336396 
4446.000000	63.340353 
4445.000000	63.499784 
4444.000000	63.849067 
4443.000000	64.395403 
4442.000000	65.111160 
4441.000000	65.937423 
4440.000000	66.799402 
4439.000000	67.621350 
4438.000000	68.347573 
4437.000000	68.947052 
4436.000000	69.415378 
4435.000000	69.763517 
4434.000000	70.009136 
4433.000000	70.161509 
4432.000000	70.222067 
4431.000000	70.176339 
4430.000000	70.013880 
4429.000000	69.720554 
4428.000000	69.300174 
4427.000000	68.764090 
4426.000000	68.144536 
4425.000000	67.477154 
4424.000000	66.798281 
4423.000000	66.138315 
4422.000000	65.516090 
4421.000000	64.948391 
4420.000000	64.451432 
4419.000000	64.047646 
4418.000000	63.764095 
4417.000000	63.628435 
4416.000000	63.660907 
4415.000000	63.861823 
4414.000000	64.206814 
4413.000000	64.649939 
4412.000000	65.130853 
4411.000000	65.583848 
4410.000000	65.951561 
4409.000000	66.196727 
4408.000000	66.307902 
4407.000000	66.294455 
4406.000000	66.185116 
4405.000000	66.020679 
4404.000000	65.843415 
4403.000000	65.689516 
4402.000000	65.581226 
4401.000000	65.529489 
4400.000000	65.529465 
4399.000000	65.571522 
4398.000000	65.636610 
4397.000000	65.703368 
4396.000000	65.750145 
4395.000000	65.759825 
4394.000000	65.721607 
4393.000000	65.630555 
4392.000000	65.492749 
4391.000000	65.324282 
4390.000000	65.144896 
4389.000000	64.973378 
4388.000000	64.825487 
4387.000000	64.711403 
4386.000000	64.634966 
4385.000000	64.594197 
4384.000000	64.584207 
4383.000000	64.598345 
4382.000000	64.629292 
4381.000000	64.670372 
4380.000000	64.712452 
4379.000000	64.747262 
4378.000000	64.768552 
4377.000000	64.773106 
4376.000000	64.759612 
4375.000000	64.730167 
4374.000000	64.688587 
4373.000000	64.641213 
4372.000000	64.594793 
4371.000000	64.556956 
4370.000000	64.534425 
4369.000000	64.533519 
4368.000000	64.559173 
4367.000000	64.614200 
4366.000000	64.698076 
4365.000000	64.806842 
4364.000000	64.933323 
4363.000000	65.067625 
4362.000000	65.198421 
4361.000000	65.314579 
4360.000000	65.406703 
4359.000000	65.467786 
4358.000000	65.493917 
4357.000000	65.485596 
4356.000000	65.447139 
4355.000000	65.385890 
4354.000000	65.310621 
4353.000000	65.231513 
4352.000000	65.157413 
4351.000000	65.095949 
4350.000000	65.051031 
4349.000000	65.023517 
4348.000000	65.010428 
4347.000000	65.006184 
4346.000000	65.004181 
4345.000000	64.997458 
4344.000000	64.982271 
4343.000000	64.958286 
4342.000000	64.929986 
4341.000000	64.904689 
4340.000000	64.891290 
4339.000000	64.897346 
4338.000000	64.926862 
4337.000000	64.978718 
4336.000000	65.047407 
4335.000000	65.124154 
4334.000000	65.199017 
4333.000000	65.262937 
4332.000000	65.309906 
4331.000000	65.337681 
4330.000000	65.347123 
4329.000000	65.341448 
4328.000000	65.324974 
4327.000000	65.301823 
4326.000000	65.274977 
4325.000000	65.245819 
4324.000000	65.214896 
4323.000000	65.182042 
4322.000000	65.148043 
4321.000000	65.114164 
4320.000000	65.082454 
4319.000000	65.055203 
4318.000000	65.034437 
4317.000000	65.021419 
4316.000000	65.016126 
4315.000000	65.017247 
4314.000000	65.022301 
4313.000000	65.028214 
4312.000000	65.031814 
4311.000000	65.030598 
4310.000000	65.023040 
4309.000000	65.009450 
4308.000000	64.991712 
4307.000000	64.973187 
4306.000000	64.957833 
4305.000000	64.949059 
4304.000000	64.948892 
4303.000000	64.957094 
4302.000000	64.971303 
4301.000000	64.988040 
4300.000000	65.003299 
4299.000000	65.013480 
4298.000000	65.016078 
4297.000000	65.010428 
4296.000000	64.997577 
4295.000000	64.979600 
4294.000000	64.959049 
4293.000000	64.938044 
4292.000000	64.918041 
4291.000000	64.899563 
4290.000000	64.882564 
4289.000000	64.866638 
4288.000000	64.851593 
4287.000000	64.837789 
4286.000000	64.826345 
4285.000000	64.818501 
4284.000000	64.815855 
4283.000000	64.819622 
4282.000000	64.830899 
4281.000000	64.850068 
4280.000000	64.877033 
4279.000000	64.910960 
4278.000000	64.949870 
4277.000000	64.990448 
4276.000000	65.028476 
4275.000000	65.059113 
4274.000000	65.077519 
4273.000000	65.079951 
4272.000000	65.064811 
4271.000000	65.032839 
4270.000000	64.987611 
4269.000000	64.934659 
4268.000000	64.880847 
4267.000000	64.832735 
4266.000000	64.795851 
4265.000000	64.773321 
4264.000000	64.765644 
4263.000000	64.770746 
4262.000000	64.784765 
4261.000000	64.803099 
4260.000000	64.821672 
4259.000000	64.837813 
4258.000000	64.850544 
4257.000000	64.861035 
4256.000000	64.871549 
4255.000000	64.884948 
4254.000000	64.903569 
4253.000000	64.928722 
4252.000000	64.959931 
4251.000000	64.995145 
4250.000000	65.030813 
4249.000000	65.062761 
4248.000000	65.087127 
4247.000000	65.101456 
4246.000000	65.104889 
4245.000000	65.098428 
4244.000000	65.084362 
4243.000000	65.065836 
4242.000000	65.045928 
4241.000000	65.026926 
4240.000000	65.009927 
4239.000000	64.995121 
4238.000000	64.981913 
4237.000000	64.969754 
4236.000000	64.958548 
4235.000000	64.948797 
4234.000000	64.942049 
4233.000000	64.940237 
4232.000000	64.945578 
4231.000000	64.959311 
4230.000000	64.981794 
4229.000000	65.011882 
4228.000000	65.047168 
4227.000000	65.084385 
4226.000000	65.119957 
4225.000000	65.150451 
4224.000000	65.173149 
4223.000000	65.186452 
4222.000000	65.189814 
4221.000000	65.183639 
4220.000000	65.169286 
4219.000000	65.148520 
4218.000000	65.123391 
4217.000000	65.095734 
4216.000000	65.067410 
4215.000000	65.039753 
4214.000000	65.013790 
4213.000000	64.990258 
4212.000000	64.969897 
4211.000000	64.953780 
4210.000000	64.942812 
4209.000000	64.938473 
4208.000000	64.942097 
4207.000000	64.954948 
4206.000000	64.977574 
4205.000000	65.009617 
4204.000000	65.049457 
4203.000000	65.094280 
4202.000000	65.140414 
4201.000000	65.183830 
4200.000000	65.220928 
4199.000000	65.249109 
4198.000000	65.267133 
4197.000000	65.275502 
4196.000000	65.275859 
4195.000000	65.270614 
4194.000000	65.261983 
4193.000000	65.252041 
4192.000000	65.241694 
4191.000000	65.231037 
4190.000000	65.218925 
4189.000000	65.203738 
4188.000000	65.183782 
4187.000000	65.157842 
4186.000000	65.126037 
4185.000000	65.089440 
4184.000000	65.050673 
4183.000000	65.013289 
4182.000000	64.981269 
4181.000000	64.958238 
4180.000000	64.946746 
4179.000000	64.947748 
4178.000000	64.960408 
4177.000000	64.981961 
4176.000000	65.008068 
4175.000000	65.033626 
4174.000000	65.053534 
4173.000000	65.063571 
4172.000000	65.060830 
4171.000000	65.044188 
4170.000000	65.014076 
4169.000000	64.972448 
4168.000000	64.922261 
4167.000000	64.867210 
4166.000000	64.811491 
4165.000000	64.759230 
4164.000000	64.714550 
4163.000000	64.680743 
4162.000000	64.659786 
4161.000000	64.652371 
4160.000000	64.657402 
4159.000000	64.672875 
