PE IR       SPECTRUM    SPECTRUM    ASCII       PEDS        1.60        
  -1
BZ6A26~1.ASC
17/04/07
19:57:57.00
17/04/07
19:57:57.00
tln
$BZ1503107-1_t0082$<tbV0>[2.6,5.2,8.0,0.0,27,1,0]
370.000000
64









2002,4.07    
MIRTGS : RIGHTBACK : INTERNAL 2
MIR : ON : INTERNAL 2
OPTKBR

0.200000
8
8.000000
FILLER
RATIO
SPECTRUM
UNLOCKED 256

DOUBLE
64
COMBINED
1
0
0


1.000000
RATIO


1
0
TRUE
51149
0
LEFT NOT FITTED RIGHT NOT FITTED 0
NONE
NONE
15600
12.000000
4.427000
51148
TRUE
1 0 8 72 0 0 0 0 

15798.010000






#HDR
-1
-1
#GR
CM-1
%T
0.00002384185791015625
0.0
5000.000000
-1.000000
4631
8
81.801962
51.260542
#DATA
5000.000000	66.234588 
4999.000000	66.064119 
4998.000000	65.804123 
4997.000000	65.484261 
4996.000000	65.144872 
4995.000000	64.828872 
4994.000000	64.572310 
4993.000000	64.396119 
4992.000000	64.305424 
4991.000000	64.290046 
4990.000000	64.331889 
4989.000000	64.411234 
4988.000000	64.513015 
4987.000000	64.629197 
4986.000000	64.759588 
4985.000000	64.907407 
4984.000000	65.076470 
4983.000000	65.265393 
4982.000000	65.464138 
4981.000000	65.653228 
4980.000000	65.808773 
4979.000000	65.906548 
4978.000000	65.928554 
4977.000000	65.866708 
4976.000000	65.725827 
4975.000000	65.522098 
4974.000000	65.281414 
4973.000000	65.032505 
4972.000000	64.800858 
4971.000000	64.604926 
4970.000000	64.454174 
4969.000000	64.350175 
4968.000000	64.288043 
4967.000000	64.262628 
4966.000000	64.269566 
4965.000000	64.310383 
4964.000000	64.389681 
4963.000000	64.514660 
4962.000000	64.690041 
4961.000000	64.912772 
4960.000000	65.168690 
4959.000000	65.430879 
4958.000000	65.663170 
4957.000000	65.825748 
4956.000000	65.884113 
4955.000000	65.816235 
4954.000000	65.619492 
4953.000000	65.313267 
4952.000000	64.937496 
4951.000000	64.545965 
4950.000000	64.197134 
4949.000000	63.944315 
4948.000000	63.824868 
4947.000000	63.854956 
4946.000000	64.025688 
4945.000000	64.306473 
4944.000000	64.651155 
4943.000000	65.006947 
4942.000000	65.325593 
4941.000000	65.569329 
4940.000000	65.718626 
4939.000000	65.771484 
4938.000000	65.741491 
4937.000000	65.650963 
4936.000000	65.524435 
4935.000000	65.383553 
4934.000000	65.241575 
4933.000000	65.104508 
4932.000000	64.971184 
4931.000000	64.838457 
4930.000000	64.704966 
4929.000000	64.575266 
4928.000000	64.458918 
4927.000000	64.369630 
4926.000000	64.321398 
4925.000000	64.325261 
4924.000000	64.384078 
4923.000000	64.491987 
4922.000000	64.635157 
4921.000000	64.794325 
4920.000000	64.949870 
4919.000000	65.084052 
4918.000000	65.182685 
4917.000000	65.237593 
4916.000000	65.246391 
4915.000000	65.212798 
4914.000000	65.145158 
4913.000000	65.054750 
4912.000000	64.954304 
4911.000000	64.855289 
4910.000000	64.768671 
4909.000000	64.700412 
4908.000000	64.652299 
4907.000000	64.620399 
4906.000000	64.597129 
4905.000000	64.572954 
4904.000000	64.539361 
4903.000000	64.490413 
4902.000000	64.424467 
4901.000000	64.345765 
4900.000000	64.263558 
4899.000000	64.188861 
4898.000000	64.132022 
4897.000000	64.100313 
4896.000000	64.096498 
4895.000000	64.118504 
4894.000000	64.160203 
4893.000000	64.213323 
4892.000000	64.268970 
4891.000000	64.319562 
4890.000000	64.359641 
4889.000000	64.384603 
4888.000000	64.392542 
4887.000000	64.383530 
4886.000000	64.359903 
4885.000000	64.325022 
4884.000000	64.283680 
4883.000000	64.241433 
4882.000000	64.204430 
4881.000000	64.179039 
4880.000000	64.171123 
4879.000000	64.184975 
4878.000000	64.223504 
4877.000000	64.287710 
4876.000000	64.376759 
4875.000000	64.487695 
4874.000000	64.616084 
4873.000000	64.755797 
4872.000000	64.899444 
4871.000000	65.038084 
4870.000000	65.162372 
4869.000000	65.262579 
4868.000000	65.330076 
4867.000000	65.357589 
4866.000000	65.342307 
4865.000000	65.284991 
4864.000000	65.190458 
4863.000000	65.066909 
4862.000000	64.925813 
4861.000000	64.780116 
4860.000000	64.643764 
4859.000000	64.528799 
4858.000000	64.444661 
4857.000000	64.396119 
4856.000000	64.383244 
4855.000000	64.401197 
4854.000000	64.440965 
4853.000000	64.492058 
4852.000000	64.544177 
4851.000000	64.589214 
4850.000000	64.621925 
4849.000000	64.640283 
4848.000000	64.644861 
4847.000000	64.637756 
4846.000000	64.621782 
4845.000000	64.600229 
4844.000000	64.576983 
4843.000000	64.556169 
4842.000000	64.542531 
4841.000000	64.542269 
4840.000000	64.561247 
4839.000000	64.603781 
4838.000000	64.670586 
4837.000000	64.758110 
4836.000000	64.857840 
4835.000000	64.957094 
4834.000000	65.041494 
4833.000000	65.098285 
4832.000000	65.118670 
4831.000000	65.101027 
4830.000000	65.049648 
4829.000000	64.973545 
4828.000000	64.884185 
4827.000000	64.793133 
4826.000000	64.709877 
4825.000000	64.640545 
4824.000000	64.588165 
4823.000000	64.553499 
4822.000000	64.535593 
4821.000000	64.532780 
4820.000000	64.543056 
4819.000000	64.564228 
4818.000000	64.593219 
4817.000000	64.626145 
4816.000000	64.658045 
4815.000000	64.683389 
4814.000000	64.696621 
4813.000000	64.693474 
4812.000000	64.671945 
4811.000000	64.633202 
4810.000000	64.581203 
4809.000000	64.522409 
4808.000000	64.464592 
4807.000000	64.415240 
4806.000000	64.380836 
4805.000000	64.365053 
4804.000000	64.368510 
4803.000000	64.388155 
4802.000000	64.418101 
4801.000000	64.450931 
4800.000000	64.478588 
4799.000000	64.495348 
4798.000000	64.498472 
4797.000000	64.490008 
4796.000000	64.475917 
4795.000000	64.465069 
4794.000000	64.466786 
4793.000000	64.488983 
4792.000000	64.536142 
4791.000000	64.608216 
4790.000000	64.700508 
4789.000000	64.804577 
4788.000000	64.909815 
4787.000000	65.005874 
4786.000000	65.084362 
4785.000000	65.139961 
4784.000000	65.171051 
4783.000000	65.179395 
4782.000000	65.169215 
4781.000000	65.146207 
4780.000000	65.115928 
4779.000000	65.083241 
4778.000000	65.051674 
4777.000000	65.024042 
4776.000000	65.001893 
4775.000000	64.986395 
4774.000000	64.978361 
4773.000000	64.978814 
4772.000000	64.988422 
4771.000000	65.007519 
4770.000000	65.035533 
4769.000000	65.070509 
4768.000000	65.109276 
4767.000000	65.147471 
4766.000000	65.179777 
4765.000000	65.200424 
4764.000000	65.204143 
4763.000000	65.187144 
4762.000000	65.147757 
4761.000000	65.087056 
4760.000000	65.008735 
4759.000000	64.919137 
4758.000000	64.826297 
4757.000000	64.738821 
4756.000000	64.664673 
4755.000000	64.610123 
4754.000000	64.578318 
4753.000000	64.569544 
4752.000000	64.581203 
4751.000000	64.608836 
4750.000000	64.646577 
4749.000000	64.689135 
4748.000000	64.732098 
4747.000000	64.772677 
4746.000000	64.809370 
4745.000000	64.841294 
4744.000000	64.867448 
4743.000000	64.886069 
4742.000000	64.894795 
4741.000000	64.891195 
4740.000000	64.873647 
4739.000000	64.842414 
4738.000000	64.800167 
4737.000000	64.751958 
4736.000000	64.704823 
4735.000000	64.666175 
4734.000000	64.643025 
4733.000000	64.640402 
4732.000000	64.660930 
4731.000000	64.704060 
4730.000000	64.766383 
4729.000000	64.841818 
4728.000000	64.922690 
4727.000000	65.000891 
4726.000000	65.069198 
4725.000000	65.121531 
4724.000000	65.154314 
4723.000000	65.166568 
4722.000000	65.159630 
4721.000000	65.137028 
4720.000000	65.103268 
4719.000000	65.063548 
4718.000000	65.022230 
4717.000000	64.982843 
4716.000000	64.947319 
4715.000000	64.916276 
4714.000000	64.889526 
4713.000000	64.866542 
4712.000000	64.846968 
4711.000000	64.830875 
4710.000000	64.818811 
4709.000000	64.811873 
4708.000000	64.810585 
4707.000000	64.815187 
4706.000000	64.825439 
4705.000000	64.840531 
4704.000000	64.859294 
4703.000000	64.880061 
4702.000000	64.900875 
4701.000000	64.919447 
4700.000000	64.933443 
4699.000000	64.940738 
4698.000000	64.939284 
4697.000000	64.927816 
4696.000000	64.906239 
4695.000000	64.875864 
4694.000000	64.839363 
4693.000000	64.800786 
4692.000000	64.765000 
4691.000000	64.736628 
4690.000000	64.719271 
4689.000000	64.714694 
4688.000000	64.722466 
4687.000000	64.739847 
4686.000000	64.762330 
4685.000000	64.784312 
4684.000000	64.800310 
4683.000000	64.805841 
4682.000000	64.798212 
4681.000000	64.776778 
4680.000000	64.743256 
4679.000000	64.701128 
4678.000000	64.655566 
4677.000000	64.612102 
4676.000000	64.576363 
4675.000000	64.552998 
4674.000000	64.545607 
4673.000000	64.555835 
4672.000000	64.584088 
4671.000000	64.629292 
4670.000000	64.689517 
4669.000000	64.761590 
4668.000000	64.841938 
4667.000000	64.926552 
4666.000000	65.011119 
4665.000000	65.091228 
4664.000000	65.162062 
4663.000000	65.218997 
4662.000000	65.257859 
4661.000000	65.275883 
4660.000000	65.271425 
4659.000000	65.244507 
4658.000000	65.197443 
4657.000000	65.134692 
4656.000000	65.062117 
4655.000000	64.985895 
4654.000000	64.912295 
4653.000000	64.846444 
4652.000000	64.792203 
4651.000000	64.751458 
4650.000000	64.724111 
4649.000000	64.708328 
4648.000000	64.701104 
4647.000000	64.698934 
4646.000000	64.697909 
4645.000000	64.695024 
4644.000000	64.687967 
4643.000000	64.675951 
4642.000000	64.658975 
4641.000000	64.638662 
4640.000000	64.617180 
4639.000000	64.597702 
4638.000000	64.582824 
4637.000000	64.575839 
4636.000000	64.579916 
4635.000000	64.597845 
4634.000000	64.631104 
4633.000000	64.680480 
4632.000000	64.745211 
4631.000000	64.822387 
4630.000000	64.906978 
4629.000000	64.992237 
4628.000000	65.070056 
4627.000000	65.132594 
4626.000000	65.173077 
4625.000000	65.186691 
4624.000000	65.171360 
4623.000000	65.129351 
4622.000000	65.066099 
4621.000000	64.989423 
4620.000000	64.908027 
4619.000000	64.831018 
4618.000000	64.765238 
4617.000000	64.715051 
4616.000000	64.681172 
4615.000000	64.661645 
4614.000000	64.652156 
4613.000000	64.647507 
4612.000000	64.642667 
4611.000000	64.633750 
4610.000000	64.618754 
4609.000000	64.597487 
4608.000000	64.571213 
4607.000000	64.541649 
4606.000000	64.510726 
4605.000000	64.479923 
4604.000000	64.450192 
4603.000000	64.422369 
4602.000000	64.398050 
4601.000000	64.380025 
4600.000000	64.371776 
4599.000000	64.376878 
4598.000000	64.398360 
4597.000000	64.437341 
4596.000000	64.491939 
4595.000000	64.557337 
4594.000000	64.626502 
4593.000000	64.691495 
4592.000000	64.745378 
4591.000000	64.783358 
4590.000000	64.803433 
4589.000000	64.806795 
4588.000000	64.797401 
4587.000000	64.780426 
4586.000000	64.760613 
4585.000000	64.741110 
4584.000000	64.723515 
4583.000000	64.707541 
4582.000000	64.691758 
4581.000000	64.674520 
4580.000000	64.654898 
4579.000000	64.632678 
4578.000000	64.608550 
4577.000000	64.583373 
4576.000000	64.557981 
4575.000000	64.532423 
4574.000000	64.506340 
4573.000000	64.478826 
4572.000000	64.449620 
4571.000000	64.419221 
4570.000000	64.389944 
4569.000000	64.365291 
4568.000000	64.349818 
4567.000000	64.347767 
4566.000000	64.362335 
4565.000000	64.394402 
4564.000000	64.442086 
4563.000000	64.501237 
4562.000000	64.565396 
4561.000000	64.627146 
4560.000000	64.679145 
4559.000000	64.715647 
4558.000000	64.733052 
4557.000000	64.730477 
4556.000000	64.709830 
4555.000000	64.675331 
4554.000000	64.632773 
4553.000000	64.588522 
4552.000000	64.547967 
4551.000000	64.514827 
4550.000000	64.490318 
4549.000000	64.473557 
4548.000000	64.461588 
4547.000000	64.450597 
4546.000000	64.437127 
4545.000000	64.419412 
4544.000000	64.397716 
4543.000000	64.374589 
4542.000000	64.354133 
4541.000000	64.340901 
4540.000000	64.338684 
4539.000000	64.348864 
4538.000000	64.370393 
4537.000000	64.399147 
4536.000000	64.428710 
4535.000000	64.452171 
4534.000000	64.463567 
4533.000000	64.459657 
4532.000000	64.440870 
4531.000000	64.411044 
4530.000000	64.376759 
4529.000000	64.344882 
4528.000000	64.320492 
4527.000000	64.306068 
4526.000000	64.300799 
4525.000000	64.302277 
4524.000000	64.307713 
4523.000000	64.315509 
4522.000000	64.325833 
4521.000000	64.340138 
4520.000000	64.360356 
4519.000000	64.386773 
4518.000000	64.417886 
4517.000000	64.450263 
4516.000000	64.479517 
4515.000000	64.501118 
4514.000000	64.512133 
4513.000000	64.512205 
4512.000000	64.504075 
4511.000000	64.492511 
4510.000000	64.483690 
4509.000000	64.482903 
4508.000000	64.494371 
4507.000000	64.519667 
4506.000000	64.558553 
4505.000000	64.609360 
4504.000000	64.669275 
4503.000000	64.735579 
4502.000000	64.804434 
4501.000000	64.871239 
4500.000000	64.930200 
4499.000000	64.974904 
4498.000000	64.999341 
4497.000000	64.998865 
4496.000000	64.972114 
4495.000000	64.920759 
4494.000000	64.848947 
4493.000000	64.761948 
4492.000000	64.665031 
4491.000000	64.562797 
4490.000000	64.458847 
4489.000000	64.356470 
4488.000000	64.259052 
4487.000000	64.170980 
4486.000000	64.097404 
4485.000000	64.044070 
4484.000000	64.014863 
4483.000000	64.012312 
4482.000000	64.036512 
4481.000000	64.084815 
4480.000000	64.150881 
4479.000000	64.226222 
4478.000000	64.300203 
4477.000000	64.363574 
4476.000000	64.410138 
4475.000000	64.437079 
4474.000000	64.443731 
4473.000000	64.434719 
4472.000000	64.419984 
4471.000000	64.406633 
4470.000000	64.396381 
4469.000000	64.390683 
4468.000000	64.390945 
4467.000000	64.394307 
4466.000000	64.395570 
4465.000000	64.395928 
4464.000000	64.400076 
4463.000000	64.409732 
4462.000000	64.423322 
4461.000000	64.439940 
4460.000000	64.454603 
4459.000000	64.459419 
4458.000000	64.443993 
4457.000000	64.391517 
4456.000000	64.291238 
4455.000000	64.147138 
4454.000000	63.976335 
4453.000000	63.799738 
4452.000000	63.649153 
4451.000000	63.555502 
4450.000000	63.554239 
4449.000000	63.668417 
4448.000000	63.927578 
4447.000000	64.360094 
4446.000000	64.993810 
4445.000000	65.846633 
4444.000000	66.916131 
4443.000000	68.174457 
4442.000000	69.566178 
4441.000000	71.018218 
4440.000000	72.467446 
4439.000000	73.869132 
4438.000000	75.215530 
4437.000000	76.513791 
4436.000000	77.785038 
4435.000000	79.015851 
4434.000000	80.161833 
4433.000000	81.111073 
4432.000000	81.715846 
4431.000000	81.801962 
4430.000000	81.233549 
4429.000000	79.939556 
4428.000000	77.963066 
4427.000000	75.455927 
4426.000000	72.675681 
4425.000000	69.926381 
4424.000000	67.503499 
4423.000000	65.636873 
4422.000000	64.445710 
4421.000000	63.939523 
4420.000000	64.032649 
4419.000000	64.574861 
4418.000000	65.392684 
4417.000000	66.313314 
4416.000000	67.191934 
4415.000000	67.909407 
4414.000000	68.380355 
4413.000000	68.564796 
4412.000000	68.464517 
4411.000000	68.119096 
4410.000000	67.591094 
4409.000000	66.959118 
4408.000000	66.297340 
4407.000000	65.662503 
4406.000000	65.088701 
4405.000000	64.600348 
4404.000000	64.206910 
4403.000000	63.915872 
4402.000000	63.727569 
4401.000000	63.635730 
4400.000000	63.628411 
4399.000000	63.680863 
4398.000000	63.766980 
4397.000000	63.855218 
4396.000000	63.923931 
4395.000000	63.965177 
4394.000000	63.979792 
4393.000000	63.969326 
4392.000000	63.943290 
4391.000000	63.915753 
4390.000000	63.896799 
4389.000000	63.889193 
4388.000000	63.892841 
4387.000000	63.905143 
4386.000000	63.923740 
4385.000000	63.947153 
4384.000000	63.973236 
4383.000000	63.999176 
4382.000000	64.022374 
4381.000000	64.040064 
4380.000000	64.048361 
4379.000000	64.044165 
4378.000000	64.024734 
4377.000000	63.990736 
4376.000000	63.949418 
4375.000000	63.911223 
4374.000000	63.885903 
4373.000000	63.881921 
4372.000000	63.904380 
4371.000000	63.954257 
4370.000000	64.027118 
4369.000000	64.116382 
4368.000000	64.215135 
4367.000000	64.317417 
4366.000000	64.419388 
4365.000000	64.518594 
4364.000000	64.613413 
4363.000000	64.702129 
4362.000000	64.782285 
4361.000000	64.850354 
4360.000000	64.902234 
4359.000000	64.934825 
4358.000000	64.946722 
4357.000000	64.939999 
4356.000000	64.919233 
4355.000000	64.891242 
4354.000000	64.863014 
4353.000000	64.840579 
4352.000000	64.827299 
4351.000000	64.824175 
4350.000000	64.829254 
4349.000000	64.839267 
4348.000000	64.850115 
4347.000000	64.858317 
4346.000000	64.861774 
4345.000000	64.859437 
4344.000000	64.852285 
4343.000000	64.842677 
4342.000000	64.834117 
4341.000000	64.830160 
4340.000000	64.833617 
4339.000000	64.846014 
4338.000000	64.866518 
4337.000000	64.891982 
4336.000000	64.917206 
4335.000000	64.936113 
4334.000000	64.942407 
4333.000000	64.931368 
4332.000000	64.901399 
4331.000000	64.854907 
4330.000000	64.798092 
4329.000000	64.739680 
4328.000000	64.689540 
4327.000000	64.655900 
4326.000000	64.643669 
4325.000000	64.652705 
4324.000000	64.677977 
4323.000000	64.710378 
4322.000000	64.739203 
4321.000000	64.754652 
4320.000000	64.749550 
4319.000000	64.721751 
4318.000000	64.673852 
4317.000000	64.613389 
4316.000000	64.550256 
4315.000000	64.494800 
4314.000000	64.455199 
4313.000000	64.435958 
4312.000000	64.437460 
4311.000000	64.456224 
4310.000000	64.486384 
4309.000000	64.521312 
4308.000000	64.555501 
4307.000000	64.585518 
4306.000000	64.610457 
4305.000000	64.631652 
4304.000000	64.651775 
4303.000000	64.673233 
4302.000000	64.697360 
4301.000000	64.723420 
4300.000000	64.749240 
4299.000000	64.771914 
4298.000000	64.788913 
4297.000000	64.799070 
4296.000000	64.803409 
4295.000000	64.805269 
4294.000000	64.808988 
4293.000000	64.818596 
4292.000000	64.836382 
4291.000000	64.862060 
4290.000000	64.892578 
4289.000000	64.922952 
4288.000000	64.947462 
4287.000000	64.961624 
4286.000000	64.963126 
4285.000000	64.952707 
4284.000000	64.933800 
4283.000000	64.911556 
4282.000000	64.891123 
4281.000000	64.876365 
4280.000000	64.868855 
4279.000000	64.867663 
4278.000000	64.870190 
4277.000000	64.873313 
4276.000000	64.874505 
4275.000000	64.872741 
4274.000000	64.868998 
4273.000000	64.865708 
4272.000000	64.865493 
4271.000000	64.870476 
4270.000000	64.881253 
4269.000000	64.896893 
4268.000000	64.914751 
4267.000000	64.931678 
4266.000000	64.945125 
4265.000000	64.953851 
4264.000000	64.958262 
4263.000000	64.960122 
4262.000000	64.961910 
4261.000000	64.965510 
4260.000000	64.971637 
4259.000000	64.979195 
4258.000000	64.985418 
4257.000000	64.986848 
4256.000000	64.980268 
4255.000000	64.963793 
4254.000000	64.937496 
4253.000000	64.903664 
4252.000000	64.866495 
4251.000000	64.830970 
4250.000000	64.801669 
4249.000000	64.781832 
4248.000000	64.772534 
4247.000000	64.772629 
4246.000000	64.778900 
4245.000000	64.787030 
4244.000000	64.792704 
4243.000000	64.792490 
4242.000000	64.784812 
4241.000000	64.769649 
4240.000000	64.749050 
4239.000000	64.725637 
4238.000000	64.702725 
4237.000000	64.683222 
4236.000000	64.669442 
4235.000000	64.662289 
4234.000000	64.661955 
4233.000000	64.668035 
4232.000000	64.680075 
4231.000000	64.697957 
4230.000000	64.721894 
4229.000000	64.751982 
4228.000000	64.788031 
4227.000000	64.828777 
4226.000000	64.871644 
4225.000000	64.912796 
4224.000000	64.948225 
4223.000000	64.974117 
4222.000000	64.987778 
4221.000000	64.988017 
4220.000000	64.975571 
4219.000000	64.952707 
4218.000000	64.922785 
4217.000000	64.889812 
4216.000000	64.857673 
4215.000000	64.830088 
4214.000000	64.810276 
4213.000000	64.801239 
4212.000000	64.804911 
4211.000000	64.822387 
4210.000000	64.854049 
4209.000000	64.898633 
4208.000000	64.953088 
4207.000000	65.012812 
4206.000000	65.071892 
4205.000000	65.124320 
4204.000000	65.164804 
4203.000000	65.189790 
4202.000000	65.197777 
4201.000000	65.189146 
4200.000000	65.165662 
4199.000000	65.129661 
4198.000000	65.083503 
4197.000000	65.028977 
4196.000000	64.967370 
4195.000000	64.899730 
4194.000000	64.827394 
4193.000000	64.752507 
4192.000000	64.678764 
4191.000000	64.610528 
4190.000000	64.553761 
4189.000000	64.514422 
4188.000000	64.498686 
4187.000000	64.510655 
4186.000000	64.552354 
4185.000000	64.622592 
4184.000000	64.716553 
4183.000000	64.825963 
4182.000000	64.939713 
4181.000000	65.045094 
4180.000000	65.129971 
4179.000000	65.184283 
4178.000000	65.202736 
4177.000000	65.185618 
4176.000000	65.139365 
4175.000000	65.075063 
4174.000000	65.006637 
4173.000000	64.947962 
4172.000000	64.909982 
4171.000000	64.898514 
4170.000000	64.913177 
4169.000000	64.947986 
4168.000000	64.993381 
4167.000000	65.038752 
4166.000000	65.074658 
4165.000000	65.094757 
4164.000000	65.097403 
4163.000000	65.084767 
4162.000000	65.060997 
4161.000000	65.031075 
4160.000000	64.999032 
4159.000000	64.967298 
