PE IR       SPECTRUM    SPECTRUM    ASCII       PEDS        1.60        
  -1
BZ6823~1.ASC
17/04/07
14:48:50.00
17/04/07
14:48:50.00
tln
$BZ1503107-1_t0020$<tbV0>[-7.8,-10.4,8.0,0.0,27,1,0]
370.000000
64









2002,4.07    
MIRTGS : RIGHTBACK : INTERNAL 2
MIR : ON : INTERNAL 2
OPTKBR

0.200000
8
8.000000
FILLER
RATIO
SPECTRUM
UNLOCKED 256

DOUBLE
64
COMBINED
1
0
0


1.000000
RATIO


1
0
TRUE
51149
0
LEFT NOT FITTED RIGHT NOT FITTED 0
NONE
NONE
15600
12.000000
4.427000
51148
TRUE
1 0 8 72 0 0 0 0 

15798.010000






#HDR
-1
-1
#GR
CM-1
%T
0.00002384185791015625
0.0
5000.000000
-1.000000
4631
8
78.397083
26.587939
#DATA
5000.000000	61.090946 
4999.000000	61.525249 
4998.000000	61.941313 
4997.000000	62.316751 
4996.000000	62.632703 
4995.000000	62.876605 
4994.000000	63.039064 
4993.000000	63.119101 
4992.000000	63.115429 
4991.000000	63.029837 
4990.000000	62.862896 
4989.000000	62.620043 
4988.000000	62.307882 
4987.000000	61.939477 
4986.000000	61.531591 
4985.000000	61.106491 
4984.000000	60.688304 
4983.000000	60.301685 
4982.000000	59.967756 
4981.000000	59.702634 
4980.000000	59.516716 
4979.000000	59.414625 
4978.000000	59.393286 
4977.000000	59.443736 
4976.000000	59.550428 
4975.000000	59.695482 
4974.000000	59.855747 
4973.000000	60.011172 
4972.000000	60.145163 
4971.000000	60.250163 
4970.000000	60.324430 
4969.000000	60.374259 
4968.000000	60.411906 
4967.000000	60.449552 
4966.000000	60.495543 
4965.000000	60.550880 
4964.000000	60.610365 
4963.000000	60.662269 
4962.000000	60.692954 
4961.000000	60.690689 
4960.000000	60.650420 
4959.000000	60.575890 
4958.000000	60.480451 
4957.000000	60.381913 
4956.000000	60.298252 
4955.000000	60.244226 
4954.000000	60.228109 
4953.000000	60.250163 
4952.000000	60.303473 
4951.000000	60.378837 
4950.000000	60.466337 
4949.000000	60.556411 
4948.000000	60.641264 
4947.000000	60.714626 
4946.000000	60.771632 
4945.000000	60.807895 
4944.000000	60.819458 
4943.000000	60.803222 
4942.000000	60.757780 
4941.000000	60.684967 
4940.000000	60.590028 
4939.000000	60.481834 
4938.000000	60.372138 
4937.000000	60.274553 
4936.000000	60.201716 
4935.000000	60.162901 
4934.000000	60.162377 
4933.000000	60.198807 
4932.000000	60.265064 
4931.000000	60.349678 
4930.000000	60.439062 
4929.000000	60.520362 
4928.000000	60.583138 
4927.000000	60.621309 
4926.000000	60.633611 
4925.000000	60.623526 
4924.000000	60.597753 
4923.000000	60.564446 
4922.000000	60.531020 
4921.000000	60.502576 
4920.000000	60.481643 
4919.000000	60.468268 
4918.000000	60.461783 
4917.000000	60.461044 
4916.000000	60.466098 
4915.000000	60.477542 
4914.000000	60.496115 
4913.000000	60.521531 
4912.000000	60.551667 
4911.000000	60.582447 
4910.000000	60.608386 
4909.000000	60.623669 
4908.000000	60.623383 
4907.000000	60.604953 
4906.000000	60.569047 
4905.000000	60.519552 
4904.000000	60.462760 
4903.000000	60.406327 
4902.000000	60.357880 
4901.000000	60.323143 
4900.000000	60.304880 
4899.000000	60.302376 
4898.000000	60.312223 
4897.000000	60.328722 
4896.000000	60.346341 
4895.000000	60.360288 
4894.000000	60.369014 
4893.000000	60.373806 
4892.000000	60.379219 
4891.000000	60.391283 
4890.000000	60.415887 
4889.000000	60.457205 
4888.000000	60.515093 
4887.000000	60.584926 
4886.000000	60.656738 
4885.000000	60.718202 
4884.000000	60.755801 
4883.000000	60.758709 
4882.000000	60.720348 
4881.000000	60.640788 
4880.000000	60.525727 
4879.000000	60.385394 
4878.000000	60.232663 
4877.000000	60.080933 
4876.000000	59.942293 
4875.000000	59.826231 
4874.000000	59.739398 
4873.000000	59.685707 
4872.000000	59.667062 
4871.000000	59.683871 
4870.000000	59.734272 
4869.000000	59.814715 
4868.000000	59.919047 
4867.000000	60.039544 
4866.000000	60.165715 
4865.000000	60.286855 
4864.000000	60.392856 
4863.000000	60.476064 
4862.000000	60.532236 
4861.000000	60.561132 
4860.000000	60.565924 
4859.000000	60.552811 
4858.000000	60.529255 
4857.000000	60.503554 
4856.000000	60.483336 
4855.000000	60.475087 
4854.000000	60.483932 
4853.000000	60.512733 
4852.000000	60.562562 
4851.000000	60.631275 
4850.000000	60.713791 
4849.000000	60.801434 
4848.000000	60.882854 
4847.000000	60.945820 
4846.000000	60.979509 
4845.000000	60.976195 
4844.000000	60.933113 
4843.000000	60.854244 
4842.000000	60.749650 
4841.000000	60.634136 
4840.000000	60.523915 
4839.000000	60.433530 
4838.000000	60.373139 
4837.000000	60.347032 
4836.000000	60.353469 
4835.000000	60.386061 
4834.000000	60.435509 
4833.000000	60.492467 
4832.000000	60.548734 
4831.000000	60.598754 
4830.000000	60.638928 
4829.000000	60.666632 
4828.000000	60.679626 
4827.000000	60.674810 
4826.000000	60.649704 
4825.000000	60.602712 
4824.000000	60.535669 
4823.000000	60.454630 
4822.000000	60.370159 
4821.000000	60.295605 
4820.000000	60.244393 
4819.000000	60.226368 
4818.000000	60.244297 
4817.000000	60.292220 
4816.000000	60.355305 
4815.000000	60.413908 
4814.000000	60.448193 
4813.000000	60.444974 
4812.000000	60.399961 
4811.000000	60.321521 
4810.000000	60.228252 
4809.000000	60.145831 
4808.000000	60.099935 
4807.000000	60.110068 
4806.000000	60.184073 
4805.000000	60.315895 
4804.000000	60.487294 
4803.000000	60.671710 
4802.000000	60.841107 
4801.000000	60.971736 
4800.000000	61.048746 
4799.000000	61.069488 
4798.000000	61.042833 
4797.000000	60.986018 
4796.000000	60.919284 
4795.000000	60.861372 
4794.000000	60.824847 
4793.000000	60.815095 
4792.000000	60.829329 
4791.000000	60.857748 
4790.000000	60.885763 
4789.000000	60.898447 
4788.000000	60.883903 
4787.000000	60.834431 
4786.000000	60.749626 
4785.000000	60.634636 
4784.000000	60.501313 
4783.000000	60.365796 
4782.000000	60.245513 
4781.000000	60.156774 
4780.000000	60.109806 
4779.000000	60.108041 
4778.000000	60.144901 
4777.000000	60.206222 
4776.000000	60.271716 
4775.000000	60.319685 
4774.000000	60.331821 
4773.000000	60.296201 
4772.000000	60.212135 
4771.000000	60.089635 
4770.000000	59.948420 
4769.000000	59.812474 
4768.000000	59.707832 
4767.000000	59.656453 
4766.000000	59.672713 
4765.000000	59.760022 
4764.000000	59.909868 
4763.000000	60.102987 
4762.000000	60.313344 
4761.000000	60.512995 
4760.000000	60.676217 
4759.000000	60.785007 
4758.000000	60.830545 
4757.000000	60.815405 
4756.000000	60.751748 
4755.000000	60.657882 
4754.000000	60.555291 
4753.000000	60.462069 
4752.000000	60.391688 
4751.000000	60.348272 
4750.000000	60.329890 
4749.000000	60.327100 
4748.000000	60.327768 
4747.000000	60.319471 
4746.000000	60.293459 
4745.000000	60.246109 
4744.000000	60.179305 
4743.000000	60.100173 
4742.000000	60.018539 
4741.000000	59.946227 
4740.000000	59.894156 
4739.000000	59.870934 
4738.000000	59.880781 
4737.000000	59.923291 
4736.000000	59.992790 
4735.000000	60.079574 
4734.000000	60.171175 
4733.000000	60.254120 
4732.000000	60.315966 
4731.000000	60.347056 
4730.000000	60.342121 
4729.000000	60.301256 
4728.000000	60.229301 
4727.000000	60.134744 
4726.000000	60.028100 
4725.000000	59.919881 
4724.000000	59.819602 
4723.000000	59.734964 
4722.000000	59.671521 
4721.000000	59.632825 
4720.000000	59.620571 
4719.000000	59.635663 
4718.000000	59.676432 
4717.000000	59.738254 
4716.000000	59.813141 
4715.000000	59.890198 
4714.000000	59.956836 
4713.000000	60.000753 
4712.000000	60.012722 
4711.000000	59.988594 
4710.000000	59.930515 
4709.000000	59.846687 
4708.000000	59.750318 
4707.000000	59.657049 
4706.000000	59.581661 
4705.000000	59.535551 
4704.000000	59.524393 
4703.000000	59.548020 
4702.000000	59.601378 
4701.000000	59.676218 
4700.000000	59.762597 
4699.000000	59.851670 
4698.000000	59.936404 
4697.000000	60.013151 
4696.000000	60.080146 
4695.000000	60.138106 
4694.000000	60.187935 
4693.000000	60.231018 
4692.000000	60.268664 
4691.000000	60.301160 
4690.000000	60.327720 
4689.000000	60.347056 
4688.000000	60.358357 
4687.000000	60.361170 
4686.000000	60.356044 
4685.000000	60.344433 
4684.000000	60.328984 
4683.000000	60.313129 
4682.000000	60.300374 
4681.000000	60.293674 
4680.000000	60.294222 
4679.000000	60.301017 
4678.000000	60.310554 
4677.000000	60.317921 
4676.000000	60.317730 
4675.000000	60.305285 
4674.000000	60.278224 
4673.000000	60.237360 
4672.000000	60.186982 
4671.000000	60.133528 
4670.000000	60.084819 
4669.000000	60.047507 
4668.000000	60.026907 
4667.000000	60.026073 
4666.000000	60.045480 
4665.000000	60.082674 
4664.000000	60.133671 
4663.000000	60.193705 
4662.000000	60.257339 
4661.000000	60.318946 
4660.000000	60.373425 
4659.000000	60.416460 
4658.000000	60.444974 
4657.000000	60.457372 
4656.000000	60.454344 
4655.000000	60.438871 
4654.000000	60.416388 
4653.000000	60.393714 
4652.000000	60.378003 
4651.000000	60.374808 
4650.000000	60.387420 
4649.000000	60.415530 
4648.000000	60.455369 
4647.000000	60.500216 
4646.000000	60.542416 
4645.000000	60.574603 
4644.000000	60.591197 
4643.000000	60.589504 
4642.000000	60.570335 
4641.000000	60.537028 
4640.000000	60.494589 
4639.000000	60.447931 
4638.000000	60.401177 
4637.000000	60.356211 
4636.000000	60.312867 
4635.000000	60.269618 
4634.000000	60.225009 
4633.000000	60.178637 
4632.000000	60.132098 
4631.000000	60.089254 
4630.000000	60.055398 
4629.000000	60.036063 
4628.000000	60.035181 
4627.000000	60.053586 
4626.000000	60.088682 
4625.000000	60.134148 
4624.000000	60.182237 
4623.000000	60.224771 
4622.000000	60.256147 
4621.000000	60.274052 
4620.000000	60.280537 
4619.000000	60.281181 
4618.000000	60.283422 
4617.000000	60.294079 
4616.000000	60.317182 
4615.000000	60.352730 
4614.000000	60.396647 
4613.000000	60.441875 
4612.000000	60.480666 
4611.000000	60.506463 
4610.000000	60.516738 
4609.000000	60.513401 
4608.000000	60.502934 
4607.000000	60.494303 
4606.000000	60.496497 
4605.000000	60.515880 
4604.000000	60.554456 
4603.000000	60.609483 
4602.000000	60.674166 
4601.000000	60.739564 
4600.000000	60.797190 
4599.000000	60.840821 
4598.000000	60.867857 
4597.000000	60.879397 
4596.000000	60.879349 
4595.000000	60.873365 
4594.000000	60.867381 
4593.000000	60.865640 
4592.000000	60.870552 
4591.000000	60.881376 
4590.000000	60.895514 
4589.000000	60.908293 
4588.000000	60.914802 
4587.000000	60.910296 
4586.000000	60.891699 
4585.000000	60.857987 
4584.000000	60.810589 
4583.000000	60.753393 
4582.000000	60.692238 
4581.000000	60.633730 
4580.000000	60.584163 
4579.000000	60.548162 
4578.000000	60.527873 
4577.000000	60.522460 
4576.000000	60.528564 
4575.000000	60.541152 
4574.000000	60.554671 
4573.000000	60.564422 
4572.000000	60.567331 
4571.000000	60.561990 
4570.000000	60.549044 
4569.000000	60.529541 
4568.000000	60.505628 
4567.000000	60.479664 
4566.000000	60.454225 
4565.000000	60.431790 
4564.000000	60.414648 
4563.000000	60.405039 
4562.000000	60.404443 
4561.000000	60.413527 
4560.000000	60.431480 
4559.000000	60.456061 
4558.000000	60.483932 
4557.000000	60.510778 
4556.000000	60.532712 
4555.000000	60.546994 
4554.000000	60.552859 
4553.000000	60.551714 
4552.000000	60.547232 
4551.000000	60.544419 
4550.000000	60.548567 
4549.000000	60.563874 
4548.000000	60.591769 
4547.000000	60.630416 
4546.000000	60.675501 
4545.000000	60.721206 
4544.000000	60.761761 
4543.000000	60.792469 
4542.000000	60.811686 
4541.000000	60.819649 
4540.000000	60.817170 
4539.000000	60.805535 
4538.000000	60.785770 
4537.000000	60.758614 
4536.000000	60.725116 
4535.000000	60.686874 
4534.000000	60.647654 
4533.000000	60.611414 
4532.000000	60.581970 
4531.000000	60.561156 
4530.000000	60.548472 
4529.000000	60.540699 
4528.000000	60.532498 
4527.000000	60.518479 
4526.000000	60.494923 
4525.000000	60.461091 
4524.000000	60.419821 
4523.000000	60.378050 
4522.000000	60.345339 
4521.000000	60.329866 
4520.000000	60.337138 
4519.000000	60.368323 
4518.000000	60.421347 
4517.000000	60.492038 
4516.000000	60.576081 
4515.000000	60.671782 
4514.000000	60.779118 
4513.000000	60.896563 
4512.000000	61.021852 
4511.000000	61.150336 
4510.000000	61.276197 
4509.000000	61.393547 
4508.000000	61.496663 
4507.000000	61.581397 
4506.000000	61.644911 
4505.000000	61.686944 
4504.000000	61.708498 
4503.000000	61.710119 
4502.000000	61.696457 
4501.000000	61.676096 
4500.000000	61.663007 
4499.000000	61.673998 
4498.000000	61.729073 
4497.000000	61.846780 
4496.000000	62.036991 
4495.000000	62.296867 
4494.000000	62.607383 
4493.000000	62.938404 
4492.000000	63.251018 
4491.000000	63.511776 
4490.000000	63.704466 
4489.000000	63.835144 
4488.000000	63.934326 
4487.000000	64.043045 
4486.000000	64.203977 
4485.000000	64.439249 
4484.000000	64.743351 
4483.000000	65.075898 
4482.000000	65.376114 
4481.000000	65.570807 
4480.000000	65.598583 
4479.000000	65.422248 
4478.000000	65.046977 
4477.000000	64.511370 
4476.000000	63.879847 
4475.000000	63.226079 
4474.000000	62.618803 
4473.000000	62.102365 
4472.000000	61.689591 
4471.000000	61.369729 
4470.000000	61.118841 
4469.000000	60.906410 
4468.000000	60.706925 
4467.000000	60.511493 
4466.000000	60.328960 
4465.000000	60.167956 
4464.000000	60.036349 
4463.000000	59.937214 
4462.000000	59.866738 
4461.000000	59.814739 
4460.000000	59.766054 
4459.000000	59.702491 
4458.000000	59.605669 
4457.000000	59.472203 
4456.000000	59.298849 
4455.000000	59.080052 
4454.000000	58.804583 
4453.000000	58.466053 
4452.000000	58.050179 
4451.000000	57.537436 
4450.000000	56.912875 
4449.000000	56.178545 
4448.000000	55.350303 
4447.000000	54.460692 
4446.000000	53.549647 
4445.000000	52.660155 
4444.000000	51.810836 
4443.000000	50.991106 
4442.000000	50.156998 
4441.000000	49.247312 
4440.000000	48.192048 
4439.000000	46.950054 
4438.000000	45.521569 
4437.000000	43.982577 
4436.000000	42.470765 
4435.000000	41.189098 
4434.000000	40.347003 
4433.000000	40.143227 
4432.000000	40.701198 
4431.000000	42.061781 
4430.000000	44.146418 
4429.000000	46.792793 
4428.000000	49.770808 
4427.000000	52.833414 
4426.000000	55.749678 
4425.000000	58.340048 
4424.000000	60.485816 
4423.000000	62.136721 
4422.000000	63.297009 
4421.000000	64.010477 
4420.000000	64.341592 
4419.000000	64.366126 
4418.000000	64.169192 
4417.000000	63.827133 
4416.000000	63.409090 
4415.000000	62.978100 
4414.000000	62.590765 
4413.000000	62.284803 
4412.000000	62.077546 
4411.000000	61.968994 
4410.000000	61.943078 
4409.000000	61.969685 
4408.000000	62.014174 
4407.000000	62.046456 
4406.000000	62.047338 
4405.000000	62.006592 
4404.000000	61.927819 
4403.000000	61.820602 
4402.000000	61.701750 
4401.000000	61.589217 
4400.000000	61.498975 
4399.000000	61.439514 
4398.000000	61.412310 
4397.000000	61.418461 
4396.000000	61.449313 
4395.000000	61.483359 
4394.000000	61.502075 
4393.000000	61.498212 
4392.000000	61.469125 
4391.000000	61.415386 
4390.000000	61.345505 
4389.000000	61.272883 
4388.000000	61.208868 
4387.000000	61.159682 
4386.000000	61.125016 
4385.000000	61.098623 
4384.000000	61.072111 
4383.000000	61.038398 
4382.000000	60.993456 
4381.000000	60.939002 
4380.000000	60.883140 
4379.000000	60.838294 
4378.000000	60.815262 
4377.000000	60.821986 
4376.000000	60.858941 
4375.000000	60.921192 
4374.000000	60.999107 
4373.000000	61.082053 
4372.000000	61.161732 
4371.000000	61.233425 
4370.000000	61.296510 
4369.000000	61.353111 
4368.000000	61.405825 
4367.000000	61.456203 
4366.000000	61.503243 
4365.000000	61.543798 
4364.000000	61.573672 
4363.000000	61.589002 
4362.000000	61.588001 
4361.000000	61.571788 
4360.000000	61.544656 
4359.000000	61.512684 
4358.000000	61.482453 
4357.000000	61.459350 
4356.000000	61.446547 
4355.000000	61.444401 
4354.000000	61.451339 
4353.000000	61.464929 
4352.000000	61.483049 
4351.000000	61.505389 
4350.000000	61.532616 
4349.000000	61.566352 
4348.000000	61.606907 
4347.000000	61.652541 
4346.000000	61.698198 
4345.000000	61.736392 
4344.000000	61.758232 
4343.000000	61.756014 
4342.000000	61.724996 
4341.000000	61.665439 
4340.000000	61.583161 
4339.000000	61.488676 
4338.000000	61.394929 
4337.000000	61.314606 
4336.000000	61.257600 
4335.000000	61.229133 
4334.000000	61.228799 
4333.000000	61.251020 
4332.000000	61.286449 
4331.000000	61.324238 
4330.000000	61.353898 
4329.000000	61.367511 
4328.000000	61.360549 
4327.000000	61.333036 
4326.000000	61.287856 
4325.000000	61.230993 
4324.000000	61.169981 
4323.000000	61.112666 
4322.000000	61.065936 
4321.000000	61.034584 
4320.000000	61.021256 
4319.000000	61.025786 
4318.000000	61.045360 
4317.000000	61.075592 
4316.000000	61.111545 
4315.000000	61.148691 
4314.000000	61.183190 
4313.000000	61.212778 
4312.000000	61.236381 
4311.000000	61.254191 
4310.000000	61.267042 
4309.000000	61.276125 
4308.000000	61.282348 
4307.000000	61.286830 
4306.000000	61.290311 
4305.000000	61.292886 
4304.000000	61.293578 
4303.000000	61.290955 
4302.000000	61.283016 
4301.000000	61.267447 
4300.000000	61.241936 
4299.000000	61.204886 
4298.000000	61.155962 
4297.000000	61.096405 
4296.000000	61.028909 
4295.000000	60.957670 
4294.000000	60.887193 
4293.000000	60.821533 
4292.000000	60.763454 
4291.000000	60.714125 
4290.000000	60.673189 
4289.000000	60.638785 
4288.000000	60.609006 
4287.000000	60.582184 
4286.000000	60.558223 
4285.000000	60.538101 
4284.000000	60.524153 
4283.000000	60.518741 
4282.000000	60.523962 
4281.000000	60.540485 
4280.000000	60.567116 
4279.000000	60.600805 
4278.000000	60.637235 
4277.000000	60.671877 
4276.000000	60.700654 
4275.000000	60.721039 
4274.000000	60.732269 
4273.000000	60.735559 
4272.000000	60.733437 
4271.000000	60.729265 
4270.000000	60.726022 
4269.000000	60.725998 
4268.000000	60.730361 
4267.000000	60.738968 
4266.000000	60.750770 
4265.000000	60.763955 
4264.000000	60.776901 
4263.000000	60.788273 
4262.000000	60.797071 
4261.000000	60.803222 
4260.000000	60.807490 
4259.000000	60.811471 
4258.000000	60.817217 
4257.000000	60.826849 
4256.000000	60.842037 
4255.000000	60.863089 
4254.000000	60.888743 
4253.000000	60.916137 
4252.000000	60.941314 
4251.000000	60.959911 
4250.000000	60.968255 
4249.000000	60.964512 
4248.000000	60.949325 
4247.000000	60.925745 
4246.000000	60.898423 
4245.000000	60.872554 
4244.000000	60.852432 
4243.000000	60.840535 
4242.000000	60.836887 
4241.000000	60.839200 
4240.000000	60.843539 
4239.000000	60.846328 
4238.000000	60.844707 
4237.000000	60.837864 
4236.000000	60.826468 
4235.000000	60.812425 
4234.000000	60.797667 
4233.000000	60.783290 
4232.000000	60.769200 
4231.000000	60.753870 
4230.000000	60.735583 
4229.000000	60.713148 
4228.000000	60.687565 
4227.000000	60.662221 
4226.000000	60.642457 
4225.000000	60.634183 
4224.000000	60.642671 
4223.000000	60.670638 
4222.000000	60.717010 
4221.000000	60.776543 
4220.000000	60.840773 
4219.000000	60.899662 
4218.000000	60.944080 
4217.000000	60.967278 
4216.000000	60.966420 
4215.000000	60.942745 
4214.000000	60.901117 
4213.000000	60.848641 
4212.000000	60.792684 
4211.000000	60.739994 
4210.000000	60.695791 
4209.000000	60.663676 
4208.000000	60.646104 
4207.000000	60.644221 
4206.000000	60.658526 
4205.000000	60.687685 
4204.000000	60.728669 
4203.000000	60.775685 
4202.000000	60.820889 
4201.000000	60.854911 
4200.000000	60.868549 
4199.000000	60.855007 
4198.000000	60.811901 
4197.000000	60.742425 
4196.000000	60.655450 
4195.000000	60.563731 
4194.000000	60.481691 
4193.000000	60.422420 
4192.000000	60.395240 
4191.000000	60.403299 
4190.000000	60.443806 
4189.000000	60.509419 
4188.000000	60.589694 
4187.000000	60.673856 
4186.000000	60.752344 
4185.000000	60.818314 
4184.000000	60.868144 
4183.000000	60.900211 
4182.000000	60.915327 
4181.000000	60.915112 
4180.000000	60.902190 
4179.000000	60.879921 
4178.000000	60.852456 
4177.000000	60.824728 
4176.000000	60.802054 
4175.000000	60.789847 
4174.000000	60.791921 
4173.000000	60.809683 
4172.000000	60.841345 
4171.000000	60.881972 
4170.000000	60.924077 
4169.000000	60.959005 
4168.000000	60.978770 
4167.000000	60.977888 
4166.000000	60.953950 
4165.000000	60.908555 
4164.000000	60.846877 
4163.000000	60.776948 
4162.000000	60.707807 
4161.000000	60.648107 
4160.000000	60.605216 
4159.000000	60.583233 
