PE IR       SPECTRUM    SPECTRUM    ASCII       PEDS        1.60        
  -1
BZ6E22~1.ASC
17/04/07
13:43:34.00
17/04/07
13:43:34.00
tln
$BZ1503107-1_t0006$<tbV0>[0.0,-13.0,8.0,0.0,27,1,0]
370.000000
64









2002,4.07    
MIRTGS : RIGHTBACK : INTERNAL 2
MIR : ON : INTERNAL 2
OPTKBR

0.200000
8
8.000000
FILLER
RATIO
SPECTRUM
UNLOCKED 256

DOUBLE
64
COMBINED
1
0
0


1.000000
RATIO


1
0
TRUE
51149
0
LEFT NOT FITTED RIGHT NOT FITTED 0
NONE
NONE
15600
12.000000
4.427000
51148
TRUE
1 0 8 72 0 0 0 0 

15798.010000






#HDR
-1
-1
#GR
CM-1
%T
0.00002384185791015625
0.0
5000.000000
-1.000000
4631
8
78.766846
52.336740
#DATA
5000.000000	64.730739 
4999.000000	64.664173 
4998.000000	64.597392 
4997.000000	64.541769 
4996.000000	64.508080 
4995.000000	64.504957 
4994.000000	64.535570 
4993.000000	64.597344 
4992.000000	64.680576 
4991.000000	64.770960 
4990.000000	64.850544 
4989.000000	64.901947 
4988.000000	64.910769 
4987.000000	64.868593 
4986.000000	64.775252 
4985.000000	64.638876 
4984.000000	64.474701 
4983.000000	64.302015 
4982.000000	64.141607 
4981.000000	64.011740 
4980.000000	63.925123 
4979.000000	63.886713 
4978.000000	63.893628 
4977.000000	63.936090 
4976.000000	63.999867 
4975.000000	64.069485 
4974.000000	64.130902 
4973.000000	64.174365 
4972.000000	64.195108 
4971.000000	64.193606 
4970.000000	64.173340 
4969.000000	64.139485 
4968.000000	64.096665 
4967.000000	64.048218 
4966.000000	63.995337 
4965.000000	63.938689 
4964.000000	63.879537 
4963.000000	63.821721 
4962.000000	63.771820 
4961.000000	63.738870 
4960.000000	63.732504 
4959.000000	63.760447 
4958.000000	63.826131 
4957.000000	63.926935 
4956.000000	64.054083 
4955.000000	64.194893 
4954.000000	64.335417 
4953.000000	64.462542 
4952.000000	64.566946 
4951.000000	64.645433 
4950.000000	64.700412 
4949.000000	64.739108 
4948.000000	64.769673 
4947.000000	64.798831 
4946.000000	64.827895 
4945.000000	64.853882 
4944.000000	64.868474 
4943.000000	64.861631 
4942.000000	64.824295 
4941.000000	64.753389 
4940.000000	64.652371 
4939.000000	64.532232 
4938.000000	64.408254 
4937.000000	64.296245 
4936.000000	64.209270 
4935.000000	64.154148 
4934.000000	64.132642 
4933.000000	64.141392 
4932.000000	64.176583 
4931.000000	64.235281 
4930.000000	64.319109 
4929.000000	64.432811 
4928.000000	64.582037 
4927.000000	64.768123 
4926.000000	64.982891 
4925.000000	65.205836 
4924.000000	65.405750 
4923.000000	65.545272 
4922.000000	65.590834 
4921.000000	65.519809 
4920.000000	65.328049 
4919.000000	65.031599 
4918.000000	64.665412 
4917.000000	64.276075 
4916.000000	63.912367 
4915.000000	63.616394 
4914.000000	63.416361 
4913.000000	63.322615 
4912.000000	63.328957 
4911.000000	63.415050 
4910.000000	63.553595 
4909.000000	63.714432 
4908.000000	63.869738 
4907.000000	63.998293 
4906.000000	64.085817 
4905.000000	64.127993 
4904.000000	64.127564 
4903.000000	64.097428 
4902.000000	64.055967 
4901.000000	64.026308 
4900.000000	64.029669 
4899.000000	64.079523 
4898.000000	64.176273 
4897.000000	64.306020 
4896.000000	64.442420 
4895.000000	64.551568 
4894.000000	64.601945 
4893.000000	64.572906 
4892.000000	64.461946 
4891.000000	64.286422 
4890.000000	64.079427 
4889.000000	63.883352 
4888.000000	63.736104 
4887.000000	63.661599 
4886.000000	63.662862 
4885.000000	63.722634 
4884.000000	63.807916 
4883.000000	63.880109 
4882.000000	63.906383 
4881.000000	63.869953 
4880.000000	63.772940 
4879.000000	63.634896 
4878.000000	63.486242 
4877.000000	63.358068 
4876.000000	63.276386 
4875.000000	63.255620 
4874.000000	63.297986 
4873.000000	63.394999 
4872.000000	63.532900 
4871.000000	63.697385 
4870.000000	63.877511 
4869.000000	64.067435 
4868.000000	64.264273 
4867.000000	64.467096 
4866.000000	64.672255 
4865.000000	64.873361 
4864.000000	65.061163 
4863.000000	65.224170 
4862.000000	65.353488 
4861.000000	65.441489 
4860.000000	65.486073 
4859.000000	65.487980 
4858.000000	65.453028 
4857.000000	65.387678 
4856.000000	65.298676 
4855.000000	65.192484 
4854.000000	65.076303 
4853.000000	64.958047 
4852.000000	64.847445 
4851.000000	64.754843 
4850.000000	64.690423 
4849.000000	64.662361 
4848.000000	64.675426 
4847.000000	64.728927 
4846.000000	64.816832 
4845.000000	64.928293 
4844.000000	65.049910 
4843.000000	65.168476 
4842.000000	65.272855 
4841.000000	65.356040 
4840.000000	65.414786 
4839.000000	65.447878 
4838.000000	65.456008 
4837.000000	65.440726 
4836.000000	65.404891 
4835.000000	65.352368 
4834.000000	65.289068 
4833.000000	65.224528 
4832.000000	65.169167 
4831.000000	65.134882 
4830.000000	65.129041 
4829.000000	65.153884 
4828.000000	65.202856 
4827.000000	65.261673 
4826.000000	65.311861 
4825.000000	65.335178 
4824.000000	65.320181 
4823.000000	65.265560 
4822.000000	65.181708 
4821.000000	65.088033 
4820.000000	65.008258 
4819.000000	64.963364 
4818.000000	64.965200 
4817.000000	65.012884 
4816.000000	65.092182 
4815.000000	65.180015 
4814.000000	65.251684 
4813.000000	65.288472 
4812.000000	65.282154 
4811.000000	65.238833 
4810.000000	65.177297 
4809.000000	65.123867 
4808.000000	65.103340 
4807.000000	65.132713 
4806.000000	65.216040 
4805.000000	65.342712 
4804.000000	65.491509 
4803.000000	65.634870 
4802.000000	65.747189 
4801.000000	65.810537 
4800.000000	65.819025 
4799.000000	65.779304 
4798.000000	65.707778 
4797.000000	65.625524 
4796.000000	65.552091 
4795.000000	65.500783 
4794.000000	65.475583 
4793.000000	65.472173 
4792.000000	65.480089 
4791.000000	65.485787 
4790.000000	65.476393 
4789.000000	65.443181 
4788.000000	65.382838 
4787.000000	65.296149 
4786.000000	65.188384 
4785.000000	65.065360 
4784.000000	64.934873 
4783.000000	64.805579 
4782.000000	64.686942 
4781.000000	64.588713 
4780.000000	64.519333 
4779.000000	64.485883 
4778.000000	64.490509 
4777.000000	64.529967 
4776.000000	64.594411 
4775.000000	64.667773 
4774.000000	64.731717 
4773.000000	64.768218 
4772.000000	64.766025 
4771.000000	64.722704 
4770.000000	64.647483 
4769.000000	64.558243 
4768.000000	64.479994 
4767.000000	64.438199 
4766.000000	64.453220 
4765.000000	64.534378 
4764.000000	64.677119 
4763.000000	64.862656 
4762.000000	65.062499 
4761.000000	65.243721 
4760.000000	65.375518 
4759.000000	65.435814 
4758.000000	65.415167 
4757.000000	65.318894 
4756.000000	65.164184 
4755.000000	64.977383 
4754.000000	64.787721 
4753.000000	64.622473 
4752.000000	64.502382 
4751.000000	64.438748 
4750.000000	64.434218 
4749.000000	64.482021 
4748.000000	64.569711 
4747.000000	64.680862 
4746.000000	64.798474 
4745.000000	64.906930 
4744.000000	64.993715 
4743.000000	65.050315 
4742.000000	65.071797 
4741.000000	65.058422 
4740.000000	65.014696 
4739.000000	64.948678 
4738.000000	64.870357 
4737.000000	64.790964 
4736.000000	64.720630 
4735.000000	64.667725 
4734.000000	64.637088 
4733.000000	64.629936 
4732.000000	64.643383 
4731.000000	64.671397 
4730.000000	64.705801 
4729.000000	64.738130 
4728.000000	64.760732 
4727.000000	64.767313 
4726.000000	64.754533 
4725.000000	64.721393 
4724.000000	64.670372 
4723.000000	64.607143 
4722.000000	64.539265 
4721.000000	64.474415 
4720.000000	64.419245 
4719.000000	64.379477 
4718.000000	64.356303 
4717.000000	64.346551 
4716.000000	64.342689 
4715.000000	64.334893 
4714.000000	64.313149 
4713.000000	64.270162 
4712.000000	64.203548 
4711.000000	64.116859 
4710.000000	64.019393 
4709.000000	63.924264 
4708.000000	63.845205 
4707.000000	63.793396 
4706.000000	63.774609 
4705.000000	63.788127 
4704.000000	63.826942 
4703.000000	63.880300 
4702.000000	63.936114 
4701.000000	63.985228 
4700.000000	64.022207 
4699.000000	64.048361 
4698.000000	64.069247 
4697.000000	64.094662 
4696.000000	64.133644 
4695.000000	64.193844 
4694.000000	64.278340 
4693.000000	64.385867 
4692.000000	64.511060 
4691.000000	64.645409 
4690.000000	64.779639 
4689.000000	64.904832 
4688.000000	65.014576 
4687.000000	65.104508 
4686.000000	65.172576 
4685.000000	65.218639 
4684.000000	65.243697 
4683.000000	65.249681 
4682.000000	65.238666 
4681.000000	65.213751 
4680.000000	65.178012 
4679.000000	65.135216 
4678.000000	65.088367 
4677.000000	65.040898 
4676.000000	64.995121 
4675.000000	64.952373 
4674.000000	64.912891 
4673.000000	64.876246 
4672.000000	64.842081 
4671.000000	64.810371 
4670.000000	64.781880 
4669.000000	64.757513 
4668.000000	64.738750 
4667.000000	64.727044 
4666.000000	64.723205 
4665.000000	64.726495 
4664.000000	64.735126 
4663.000000	64.746427 
4662.000000	64.757227 
4661.000000	64.764285 
4660.000000	64.765381 
4659.000000	64.759707 
4658.000000	64.747238 
4657.000000	64.728689 
4656.000000	64.705443 
4655.000000	64.679360 
4654.000000	64.651823 
4653.000000	64.624404 
4652.000000	64.598989 
4651.000000	64.577770 
4650.000000	64.563298 
4649.000000	64.557695 
4648.000000	64.562201 
4647.000000	64.576411 
4646.000000	64.598107 
4645.000000	64.623427 
4644.000000	64.647078 
4643.000000	64.663982 
4642.000000	64.670228 
4641.000000	64.664125 
4640.000000	64.646387 
4639.000000	64.620208 
4638.000000	64.590454 
4637.000000	64.562320 
4636.000000	64.539957 
4635.000000	64.525794 
4634.000000	64.520239 
4633.000000	64.521598 
4632.000000	64.526939 
4631.000000	64.533090 
4630.000000	64.537358 
4629.000000	64.538049 
4628.000000	64.534592 
4627.000000	64.526987 
4626.000000	64.515614 
4625.000000	64.500880 
4624.000000	64.483070 
4623.000000	64.462423 
4622.000000	64.439320 
4621.000000	64.414405 
4620.000000	64.389061 
4619.000000	64.365053 
4618.000000	64.344620 
4617.000000	64.329791 
4616.000000	64.322233 
4615.000000	64.322686 
4614.000000	64.330887 
4613.000000	64.345550 
4612.000000	64.365077 
4611.000000	64.387392 
4610.000000	64.411258 
4609.000000	64.436054 
4608.000000	64.462113 
4607.000000	64.489984 
4606.000000	64.519906 
4605.000000	64.551067 
4604.000000	64.581274 
4603.000000	64.607167 
4602.000000	64.625096 
4601.000000	64.631724 
4600.000000	64.625215 
4599.000000	64.605450 
4598.000000	64.574480 
4597.000000	64.535832 
4596.000000	64.493942 
4595.000000	64.453220 
4594.000000	64.417409 
4593.000000	64.389038 
4592.000000	64.369344 
4591.000000	64.358162 
4590.000000	64.354467 
4589.000000	64.356684 
4588.000000	64.362621 
4587.000000	64.370465 
4586.000000	64.378809 
4585.000000	64.386844 
4584.000000	64.393758 
4583.000000	64.399170 
4582.000000	64.402985 
4581.000000	64.404797 
4580.000000	64.403700 
4579.000000	64.398074 
4578.000000	64.386057 
4577.000000	64.365458 
4576.000000	64.334607 
4575.000000	64.292907 
4574.000000	64.241456 
4573.000000	64.183330 
4572.000000	64.123415 
4571.000000	64.067506 
4570.000000	64.021277 
4569.000000	63.989329 
4568.000000	63.974022 
4567.000000	63.974618 
4566.000000	63.987445 
4565.000000	64.006972 
4564.000000	64.026308 
4563.000000	64.038610 
4562.000000	64.037919 
4561.000000	64.020776 
4560.000000	63.985657 
4559.000000	63.933134 
4558.000000	63.865542 
4557.000000	63.786244 
4556.000000	63.699555 
4555.000000	63.610196 
4554.000000	63.523316 
4553.000000	63.444113 
4552.000000	63.377451 
4551.000000	63.327455 
4550.000000	63.296890 
4549.000000	63.287186 
4548.000000	63.297605 
4547.000000	63.325905 
4546.000000	63.367843 
4545.000000	63.419079 
4544.000000	63.475394 
4543.000000	63.534092 
4542.000000	63.594126 
4541.000000	63.655924 
4540.000000	63.719773 
4539.000000	63.785791 
4538.000000	63.853311 
4537.000000	63.920497 
4536.000000	63.984751 
4535.000000	64.042520 
4534.000000	64.091396 
4533.000000	64.128351 
4532.000000	64.150595 
4531.000000	64.155983 
4530.000000	64.143657 
4529.000000	64.115500 
4528.000000	64.076256 
4527.000000	64.034152 
4526.000000	64.000296 
4525.000000	63.984203 
4524.000000	63.991641 
4523.000000	64.023828 
4522.000000	64.077138 
4521.000000	64.142131 
4520.000000	64.206457 
4519.000000	64.258670 
4518.000000	64.291834 
4517.000000	64.304423 
4516.000000	64.301371 
4515.000000	64.293909 
4514.000000	64.295649 
4513.000000	64.315772 
4512.000000	64.358758 
4511.000000	64.423203 
4510.000000	64.502835 
4509.000000	64.590120 
4508.000000	64.676499 
4507.000000	64.754104 
4506.000000	64.817571 
4505.000000	64.865541 
4504.000000	64.899373 
4503.000000	64.919328 
4502.000000	64.931011 
4501.000000	64.944291 
4500.000000	64.974141 
4499.000000	65.036964 
4498.000000	65.152001 
4497.000000	65.336322 
4496.000000	65.595650 
4495.000000	65.921235 
4494.000000	66.288089 
4493.000000	66.662693 
4492.000000	67.002367 
4491.000000	67.274165 
4490.000000	67.472028 
4489.000000	67.617845 
4488.000000	67.763757 
4487.000000	67.967367 
4486.000000	68.270897 
4485.000000	68.679404 
4484.000000	69.168567 
4483.000000	69.668889 
4482.000000	70.078563 
4481.000000	70.289158 
4480.000000	70.223784 
4479.000000	69.849586 
4478.000000	69.197511 
4477.000000	68.345570 
4476.000000	67.402791 
4475.000000	66.480159 
4474.000000	65.667772 
4473.000000	65.013241 
4472.000000	64.515852 
4471.000000	64.142203 
4470.000000	63.841652 
4469.000000	63.557457 
4468.000000	63.240218 
4467.000000	62.836599 
4466.000000	62.307906 
4465.000000	61.606526 
4464.000000	60.723710 
4463.000000	59.688162 
4462.000000	58.614158 
4461.000000	57.678627 
4460.000000	57.124209 
4459.000000	57.215595 
4458.000000	58.170461 
4457.000000	60.103011 
4456.000000	62.954306 
4455.000000	66.485929 
4454.000000	70.289778 
4453.000000	73.862957 
4452.000000	76.700425 
4451.000000	78.405070 
4450.000000	78.766846 
4449.000000	77.813339 
4448.000000	75.782275 
4447.000000	73.062729 
4446.000000	70.103812 
4445.000000	67.321968 
4444.000000	65.023517 
4443.000000	63.365006 
4442.000000	62.363362 
4441.000000	61.928725 
4440.000000	61.905550 
4439.000000	62.129497 
4438.000000	62.455630 
4437.000000	62.794995 
4436.000000	63.096737 
4435.000000	63.360357 
4434.000000	63.587212 
4433.000000	63.791537 
4432.000000	63.975167 
4431.000000	64.135479 
4430.000000	64.268898 
4429.000000	64.369583 
4428.000000	64.438819 
4427.000000	64.479660 
4426.000000	64.496016 
4425.000000	64.495277 
4424.000000	64.491438 
4423.000000	64.497947 
4422.000000	64.523839 
4421.000000	64.575219 
4420.000000	64.658355 
4419.000000	64.766907 
4418.000000	64.882254 
4417.000000	64.980721 
4416.000000	65.038466 
4415.000000	65.043973 
4414.000000	65.001749 
4413.000000	64.920163 
4412.000000	64.811086 
4411.000000	64.693999 
4410.000000	64.589548 
4409.000000	64.512252 
4408.000000	64.468932 
4407.000000	64.459133 
4406.000000	64.475631 
4405.000000	64.509344 
4404.000000	64.549756 
4403.000000	64.586687 
4402.000000	64.612388 
4401.000000	64.622402 
4400.000000	64.615774 
4399.000000	64.592599 
4398.000000	64.555501 
4397.000000	64.508891 
4396.000000	64.457798 
4395.000000	64.407372 
4394.000000	64.361524 
4393.000000	64.322805 
4392.000000	64.291453 
4391.000000	64.265847 
4390.000000	64.243936 
4389.000000	64.224267 
4388.000000	64.207363 
4387.000000	64.195656 
4386.000000	64.192843 
4385.000000	64.202332 
4384.000000	64.225363 
4383.000000	64.260339 
4382.000000	64.302110 
4381.000000	64.343237 
4380.000000	64.375948 
4379.000000	64.393901 
4378.000000	64.393186 
4377.000000	64.373803 
4376.000000	64.339923 
4375.000000	64.298367 
4374.000000	64.257168 
4373.000000	64.222979 
4372.000000	64.200043 
4371.000000	64.188599 
4370.000000	64.185452 
4369.000000	64.184856 
4368.000000	64.180636 
4367.000000	64.168095 
4366.000000	64.145708 
4365.000000	64.115715 
4364.000000	64.083600 
4363.000000	64.056539 
4362.000000	64.041495 
4361.000000	64.043402 
4360.000000	64.064145 
4359.000000	64.102482 
4358.000000	64.154624 
4357.000000	64.215469 
4356.000000	64.279985 
4355.000000	64.343810 
4354.000000	64.403963 
4353.000000	64.458417 
4352.000000	64.506244 
4351.000000	64.547276 
4350.000000	64.581680 
4349.000000	64.609956 
4348.000000	64.632296 
4347.000000	64.649176 
4346.000000	64.660716 
4345.000000	64.667749 
4344.000000	64.670872 
4343.000000	64.671039 
4342.000000	64.668869 
4341.000000	64.665222 
4340.000000	64.660263 
4339.000000	64.653897 
4338.000000	64.645648 
4337.000000	64.635205 
4336.000000	64.622640 
4335.000000	64.608573 
4334.000000	64.594626 
4333.000000	64.583039 
4332.000000	64.576625 
4331.000000	64.577889 
4330.000000	64.587998 
4329.000000	64.606189 
4328.000000	64.629459 
4327.000000	64.653372 
4326.000000	64.671659 
4325.000000	64.679098 
4324.000000	64.673185 
4323.000000	64.655351 
4322.000000	64.630579 
4321.000000	64.606475 
4320.000000	64.591526 
4319.000000	64.592528 
4318.000000	64.612603 
4317.000000	64.650249 
4316.000000	64.699530 
4315.000000	64.751863 
4314.000000	64.798259 
4313.000000	64.832043 
4312.000000	64.850664 
4311.000000	64.856219 
4310.000000	64.854526 
4309.000000	64.852714 
4308.000000	64.856743 
4307.000000	64.869451 
4306.000000	64.889049 
4305.000000	64.909672 
4304.000000	64.922690 
4303.000000	64.919376 
4302.000000	64.893198 
4301.000000	64.841198 
4300.000000	64.765048 
4299.000000	64.670586 
4298.000000	64.567565 
4297.000000	64.467191 
4296.000000	64.381194 
4295.000000	64.319443 
4294.000000	64.288902 
4293.000000	64.292836 
4292.000000	64.329838 
4291.000000	64.394283 
4290.000000	64.476799 
4289.000000	64.565610 
4288.000000	64.648556 
4287.000000	64.714360 
4286.000000	64.755392 
4285.000000	64.768481 
4284.000000	64.755582 
4283.000000	64.722871 
4282.000000	64.679241 
4281.000000	64.634084 
4280.000000	64.595413 
4279.000000	64.568114 
4278.000000	64.553809 
4277.000000	64.551210 
4276.000000	64.557957 
4275.000000	64.571452 
4274.000000	64.590096 
4273.000000	64.613485 
4272.000000	64.642167 
4271.000000	64.676618 
4270.000000	64.716100 
4269.000000	64.758062 
4268.000000	64.797973 
4267.000000	64.830183 
4266.000000	64.848780 
4265.000000	64.849305 
4264.000000	64.830565 
4263.000000	64.794611 
4262.000000	64.746546 
4261.000000	64.693474 
4260.000000	64.643001 
4259.000000	64.601659 
4258.000000	64.574074 
4257.000000	64.561963 
4256.000000	64.564347 
4255.000000	64.578580 
4254.000000	64.601373 
4253.000000	64.629459 
4252.000000	64.660263 
4251.000000	64.692234 
4250.000000	64.724731 
4249.000000	64.757490 
4248.000000	64.790105 
4247.000000	64.821767 
4246.000000	64.851093 
4245.000000	64.876580 
4244.000000	64.896774 
4243.000000	64.911413 
4242.000000	64.920854 
4241.000000	64.926719 
4240.000000	64.930748 
4239.000000	64.934682 
4238.000000	64.939427 
4237.000000	64.944863 
4236.000000	64.950037 
4235.000000	64.953684 
4234.000000	64.954519 
4233.000000	64.952158 
4232.000000	64.946699 
4231.000000	64.938855 
4230.000000	64.929580 
4229.000000	64.919948 
4228.000000	64.910340 
4227.000000	64.900588 
4226.000000	64.890193 
4225.000000	64.878487 
4224.000000	64.864969 
4223.000000	64.849400 
4222.000000	64.831924 
4221.000000	64.813065 
4220.000000	64.793229 
4219.000000	64.772772 
4218.000000	64.751815 
4217.000000	64.730715 
4216.000000	64.710330 
4215.000000	64.691901 
4214.000000	64.677071 
4213.000000	64.667415 
4212.000000	64.664101 
4211.000000	64.667510 
4210.000000	64.676594 
4209.000000	64.689850 
4208.000000	64.705705 
4207.000000	64.723205 
4206.000000	64.742350 
4205.000000	64.763545 
4204.000000	64.787578 
4203.000000	64.814496 
4202.000000	64.843106 
4201.000000	64.870715 
4200.000000	64.893651 
4199.000000	64.908194 
4198.000000	64.911890 
4197.000000	64.905142 
4196.000000	64.891505 
4195.000000	64.877629 
4194.000000	64.871287 
4193.000000	64.879488 
4192.000000	64.906072 
4191.000000	64.950680 
4190.000000	65.008068 
4189.000000	65.069389 
4188.000000	65.123701 
4187.000000	65.161395 
4186.000000	65.176010 
4185.000000	65.165710 
4184.000000	65.133619 
4183.000000	65.086531 
4182.000000	65.033650 
4181.000000	64.983940 
4180.000000	64.944601 
4179.000000	64.919829 
4178.000000	64.910602 
4177.000000	64.915442 
4176.000000	64.930748 
4175.000000	64.952516 
4174.000000	64.975953 
4173.000000	64.996528 
4172.000000	65.009999 
4171.000000	65.013194 
4170.000000	65.004491 
4169.000000	64.984583 
4168.000000	64.956426 
4167.000000	64.925074 
4166.000000	64.897036 
4165.000000	64.878535 
4164.000000	64.874291 
4163.000000	64.885759 
4162.000000	64.911007 
4161.000000	64.944410 
4160.000000	64.978528 
4159.000000	65.005302 
