PE IR       SPECTRUM    SPECTRUM    ASCII       PEDS        1.60        
  -1
BZ61B5~1.ASC
17/04/07
21:22:58.00
17/04/07
21:22:58.00
tln
$BZ1503107-1_t0099$<tbV0>[-13.0,7.8,8.0,0.0,27,1,0]
370.000000
64









2002,4.07    
MIRTGS : RIGHTBACK : INTERNAL 2
MIR : ON : INTERNAL 2
OPTKBR

0.200000
8
8.000000
FILLER
RATIO
SPECTRUM
UNLOCKED 256

DOUBLE
64
COMBINED
1
0
0


1.000000
RATIO


1
0
TRUE
51149
0
LEFT NOT FITTED RIGHT NOT FITTED 0
NONE
NONE
15600
12.000000
4.427000
51148
TRUE
1 0 8 72 0 0 0 0 

15798.010000






#HDR
-1
-1
#GR
CM-1
%T
0.00002384185791015625
0.0
5000.000000
-1.000000
4631
8
85.106563
26.018404
#DATA
5000.000000	65.271425 
4999.000000	65.309619 
4998.000000	65.396976 
4997.000000	65.523815 
4996.000000	65.665149 
4995.000000	65.787482 
4994.000000	65.855932 
4993.000000	65.844345 
4992.000000	65.741801 
4991.000000	65.557408 
4990.000000	65.315961 
4989.000000	65.052556 
4988.000000	64.801764 
4987.000000	64.589619 
4986.000000	64.427137 
4985.000000	64.309859 
4984.000000	64.220595 
4983.000000	64.137148 
4982.000000	64.042520 
4981.000000	63.932085 
4980.000000	63.815236 
4979.000000	63.713622 
4978.000000	63.652300 
4977.000000	63.652873 
4976.000000	63.725137 
4975.000000	63.864207 
4974.000000	64.047908 
4973.000000	64.244198 
4972.000000	64.421653 
4971.000000	64.554667 
4970.000000	64.631986 
4969.000000	64.653110 
4968.000000	64.626216 
4967.000000	64.561915 
4966.000000	64.467787 
4965.000000	64.347505 
4964.000000	64.198565 
4963.000000	64.021635 
4962.000000	63.823366 
4961.000000	63.624382 
4960.000000	63.458228 
4959.000000	63.367986 
4958.000000	63.396453 
4957.000000	63.574481 
4956.000000	63.909363 
4955.000000	64.379501 
4954.000000	64.933490 
4953.000000	65.496802 
4952.000000	65.984582 
4951.000000	66.319036 
4950.000000	66.444563 
4949.000000	66.338038 
4948.000000	66.014266 
4947.000000	65.521001 
4946.000000	64.930939 
4945.000000	64.326357 
4944.000000	63.786053 
4943.000000	63.373613 
4942.000000	63.128423 
4941.000000	63.066411 
4940.000000	63.177156 
4939.000000	63.432884 
4938.000000	63.790392 
4937.000000	64.198613 
4936.000000	64.605784 
4935.000000	64.962339 
4934.000000	65.231919 
4933.000000	65.392160 
4932.000000	65.440058 
4931.000000	65.388536 
4930.000000	65.263414 
4929.000000	65.096306 
4928.000000	64.919114 
4927.000000	64.757657 
4926.000000	64.629769 
4925.000000	64.542579 
4924.000000	64.495158 
4923.000000	64.479207 
4922.000000	64.482593 
4921.000000	64.492702 
4920.000000	64.495944 
4919.000000	64.484691 
4918.000000	64.456915 
4917.000000	64.420151 
4916.000000	64.387607 
4915.000000	64.376735 
4914.000000	64.403271 
4913.000000	64.477109 
4912.000000	64.601278 
4911.000000	64.765930 
4910.000000	64.949703 
4909.000000	65.123009 
4908.000000	65.254688 
4907.000000	65.319490 
4906.000000	65.304732 
4905.000000	65.212774 
4904.000000	65.060210 
4903.000000	64.874339 
4902.000000	64.686560 
4901.000000	64.524078 
4900.000000	64.404225 
4899.000000	64.332962 
4898.000000	64.305257 
4897.000000	64.309811 
4896.000000	64.333438 
4895.000000	64.364552 
4894.000000	64.397215 
4893.000000	64.430141 
4892.000000	64.467763 
4891.000000	64.515686 
4890.000000	64.579534 
4889.000000	64.660978 
4888.000000	64.757370 
4887.000000	64.861989 
4886.000000	64.964437 
4885.000000	65.054106 
4884.000000	65.120601 
4883.000000	65.156817 
4882.000000	65.158867 
4881.000000	65.126991 
4880.000000	65.065526 
4879.000000	64.982485 
4878.000000	64.888024 
4877.000000	64.793038 
4876.000000	64.707350 
4875.000000	64.638543 
4874.000000	64.590477 
4873.000000	64.563536 
4872.000000	64.554357 
4871.000000	64.557218 
4870.000000	64.565896 
4869.000000	64.575052 
4868.000000	64.579558 
4867.000000	64.576268 
4866.000000	64.563751 
4865.000000	64.542984 
4864.000000	64.516139 
4863.000000	64.486598 
4862.000000	64.458322 
4861.000000	64.434409 
4860.000000	64.417195 
4859.000000	64.406514 
4858.000000	64.400553 
4857.000000	64.395093 
4856.000000	64.384579 
4855.000000	64.363718 
4854.000000	64.328193 
4853.000000	64.277601 
4852.000000	64.215588 
4851.000000	64.150142 
4850.000000	64.092087 
4849.000000	64.052319 
4848.000000	64.039087 
4847.000000	64.056110 
4846.000000	64.101743 
4845.000000	64.169764 
4844.000000	64.251422 
4843.000000	64.337468 
4842.000000	64.420747 
4841.000000	64.496970 
4840.000000	64.565777 
4839.000000	64.628720 
4838.000000	64.689135 
4837.000000	64.750075 
4836.000000	64.813303 
4835.000000	64.878702 
4834.000000	64.943909 
4833.000000	65.005373 
4832.000000	65.058612 
4831.000000	65.100288 
4830.000000	65.128183 
4829.000000	65.141797 
4828.000000	65.143084 
4827.000000	65.136003 
4826.000000	65.126466 
4825.000000	65.121507 
4824.000000	65.127587 
4823.000000	65.149402 
4822.000000	65.187191 
4821.000000	65.236592 
4820.000000	65.288233 
4819.000000	65.330123 
4818.000000	65.350079 
4817.000000	65.339016 
4816.000000	65.293884 
4815.000000	65.218400 
4814.000000	65.122294 
4813.000000	65.018868 
4812.000000	64.921569 
4811.000000	64.841222 
4810.000000	64.783811 
4809.000000	64.749956 
4808.000000	64.735555 
4807.000000	64.734172 
4806.000000	64.739966 
4805.000000	64.749026 
4804.000000	64.760017 
4803.000000	64.773845 
4802.000000	64.792275 
4801.000000	64.816141 
4800.000000	64.843082 
4799.000000	64.869022 
4798.000000	64.888596 
4797.000000	64.897131 
4796.000000	64.892125 
4795.000000	64.874267 
4794.000000	64.847707 
4793.000000	64.818644 
4792.000000	64.794325 
4791.000000	64.781069 
4790.000000	64.783167 
4789.000000	64.802217 
4788.000000	64.837193 
4787.000000	64.885520 
4786.000000	64.943552 
4785.000000	65.007567 
4784.000000	65.073704 
4783.000000	65.137910 
4782.000000	65.195775 
4781.000000	65.242815 
4780.000000	65.274190 
4779.000000	65.285468 
4778.000000	65.273499 
4777.000000	65.238213 
4776.000000	65.182256 
4775.000000	65.111041 
4774.000000	65.032005 
4773.000000	64.953660 
4772.000000	64.883589 
4771.000000	64.827466 
4770.000000	64.788269 
4769.000000	64.766287 
4768.000000	64.759325 
4767.000000	64.763641 
4766.000000	64.774847 
4765.000000	64.788675 
4764.000000	64.801383 
4763.000000	64.810371 
4762.000000	64.813280 
4761.000000	64.808797 
4760.000000	64.796471 
4759.000000	64.777326 
4758.000000	64.753389 
4757.000000	64.727854 
4756.000000	64.704680 
4755.000000	64.688062 
4754.000000	64.681315 
4753.000000	64.686751 
4752.000000	64.705371 
4751.000000	64.736843 
4750.000000	64.778947 
4749.000000	64.829158 
4748.000000	64.884614 
4747.000000	64.943075 
4746.000000	65.002679 
4745.000000	65.062308 
4744.000000	65.121006 
4743.000000	65.177989 
4742.000000	65.232253 
4741.000000	65.282225 
4740.000000	65.325331 
4739.000000	65.358829 
4738.000000	65.379691 
4737.000000	65.384674 
4736.000000	65.370917 
4735.000000	65.336871 
4734.000000	65.283012 
4733.000000	65.212798 
4732.000000	65.132451 
4731.000000	65.050601 
4730.000000	64.976310 
4729.000000	64.917802 
4728.000000	64.880061 
4727.000000	64.863848 
4726.000000	64.865422 
4725.000000	64.877605 
4724.000000	64.891910 
4723.000000	64.900183 
4722.000000	64.897537 
4721.000000	64.882850 
4720.000000	64.859509 
4719.000000	64.833784 
4718.000000	64.813256 
4717.000000	64.804220 
4716.000000	64.810132 
4715.000000	64.830541 
4714.000000	64.861655 
4713.000000	64.897370 
4712.000000	64.931249 
4711.000000	64.957904 
4710.000000	64.973926 
4709.000000	64.978170 
4708.000000	64.971256 
4707.000000	64.954948 
4706.000000	64.931631 
4705.000000	64.903354 
4704.000000	64.872002 
4703.000000	64.838695 
4702.000000	64.803886 
4701.000000	64.767694 
4700.000000	64.730525 
4699.000000	64.693808 
4698.000000	64.659452 
4697.000000	64.630675 
4696.000000	64.611005 
4695.000000	64.604234 
4694.000000	64.612746 
4693.000000	64.637732 
4692.000000	64.677834 
4691.000000	64.730453 
4690.000000	64.791584 
4689.000000	64.856791 
4688.000000	64.921736 
4687.000000	64.983129 
4686.000000	65.038657 
4685.000000	65.087127 
4684.000000	65.127921 
4683.000000	65.160536 
4682.000000	65.184187 
4681.000000	65.197992 
4680.000000	65.201091 
4679.000000	65.193748 
4678.000000	65.177297 
4677.000000	65.154790 
4676.000000	65.130186 
4675.000000	65.107607 
4674.000000	65.090465 
4673.000000	65.080714 
4672.000000	65.078473 
4671.000000	65.082359 
4670.000000	65.089964 
4669.000000	65.099000 
4668.000000	65.107369 
4667.000000	65.114021 
4666.000000	65.118408 
4665.000000	65.120577 
4664.000000	65.120744 
4663.000000	65.118765 
4662.000000	65.114378 
4661.000000	65.107083 
4660.000000	65.096569 
4659.000000	65.083026 
4658.000000	65.067267 
4657.000000	65.050649 
4656.000000	65.034937 
4655.000000	65.021896 
4654.000000	65.012502 
4653.000000	65.006899 
4652.000000	65.004706 
4651.000000	65.004920 
4650.000000	65.006089 
4649.000000	65.006852 
4648.000000	65.006446 
4647.000000	65.004587 
4646.000000	65.001106 
4645.000000	64.996099 
4644.000000	64.989733 
4643.000000	64.982342 
4642.000000	64.974188 
4641.000000	64.965963 
4640.000000	64.958477 
4639.000000	64.953088 
4638.000000	64.951300 
4637.000000	64.954876 
4636.000000	64.965152 
4635.000000	64.982843 
4634.000000	65.007758 
4633.000000	65.038967 
4632.000000	65.074682 
4631.000000	65.112829 
4630.000000	65.150809 
4629.000000	65.185904 
4628.000000	65.214848 
4627.000000	65.234541 
4626.000000	65.241551 
4625.000000	65.232920 
4624.000000	65.206170 
4623.000000	65.160155 
4622.000000	65.095543 
4621.000000	65.015172 
4620.000000	64.924144 
4619.000000	64.829373 
4618.000000	64.738607 
4617.000000	64.659547 
4616.000000	64.598560 
4615.000000	64.559412 
4614.000000	64.543080 
4613.000000	64.547729 
4612.000000	64.569211 
4611.000000	64.601540 
4610.000000	64.638495 
4609.000000	64.674115 
4608.000000	64.703774 
4607.000000	64.724445 
4606.000000	64.735436 
4605.000000	64.737725 
4604.000000	64.733672 
4603.000000	64.726018 
4602.000000	64.717125 
4601.000000	64.708304 
4600.000000	64.699697 
4599.000000	64.690232 
4598.000000	64.678120 
4597.000000	64.661765 
4596.000000	64.640259 
4595.000000	64.614152 
4594.000000	64.585375 
4593.000000	64.556765 
4592.000000	64.531445 
4591.000000	64.511919 
4590.000000	64.498925 
4589.000000	64.491915 
4588.000000	64.488744 
4587.000000	64.486980 
4586.000000	64.484381 
4585.000000	64.480137 
4584.000000	64.474892 
4583.000000	64.470291 
4582.000000	64.468050 
4581.000000	64.468979 
4580.000000	64.472365 
4579.000000	64.475893 
4578.000000	64.476251 
4577.000000	64.470410 
4576.000000	64.456629 
4575.000000	64.435386 
4574.000000	64.409351 
4573.000000	64.383268 
4572.000000	64.362382 
4571.000000	64.350867 
4570.000000	64.350581 
4569.000000	64.360547 
4568.000000	64.377212 
4567.000000	64.395642 
4566.000000	64.410662 
4565.000000	64.418458 
4564.000000	64.417147 
4563.000000	64.406704 
4562.000000	64.388632 
4561.000000	64.364957 
4560.000000	64.337658 
4559.000000	64.307904 
4558.000000	64.276504 
4557.000000	64.244174 
4556.000000	64.211964 
4555.000000	64.181590 
4554.000000	64.155864 
4553.000000	64.138293 
4552.000000	64.132761 
4551.000000	64.142608 
4550.000000	64.170002 
4549.000000	64.215111 
4548.000000	64.276266 
4547.000000	64.349675 
4546.000000	64.429974 
4545.000000	64.510488 
4544.000000	64.584636 
4543.000000	64.645910 
4542.000000	64.688825 
4541.000000	64.709568 
4540.000000	64.706826 
4539.000000	64.681553 
4538.000000	64.637851 
4537.000000	64.581370 
4536.000000	64.518928 
4535.000000	64.457154 
4534.000000	64.402127 
4533.000000	64.358472 
4532.000000	64.329099 
4531.000000	64.315271 
4530.000000	64.316701 
4529.000000	64.331936 
4528.000000	64.358448 
4527.000000	64.393162 
4526.000000	64.432430 
4525.000000	64.472937 
4524.000000	64.511561 
4523.000000	64.545583 
4522.000000	64.572381 
4521.000000	64.589405 
4520.000000	64.593768 
4519.000000	64.582419 
4518.000000	64.552617 
4517.000000	64.503192 
4516.000000	64.435195 
4515.000000	64.352273 
4514.000000	64.261150 
4513.000000	64.171433 
4512.000000	64.094376 
4511.000000	64.040136 
4510.000000	64.016723 
4509.000000	64.028644 
4508.000000	64.075231 
4507.000000	64.150500 
4506.000000	64.243888 
4505.000000	64.342093 
4504.000000	64.431333 
4503.000000	64.499378 
4502.000000	64.538192 
4501.000000	64.544844 
4500.000000	64.521765 
4499.000000	64.475703 
4498.000000	64.415431 
4497.000000	64.349603 
4496.000000	64.285254 
4495.000000	64.226722 
4494.000000	64.174818 
4493.000000	64.127612 
4492.000000	64.083433 
4491.000000	64.041304 
4490.000000	64.000225 
4489.000000	63.959789 
4488.000000	63.920950 
4487.000000	63.884949 
4486.000000	63.852190 
4485.000000	63.821840 
4484.000000	63.792848 
4483.000000	63.762736 
4482.000000	63.726496 
4481.000000	63.679361 
4480.000000	63.622117 
4479.000000	63.556528 
4478.000000	63.479661 
4477.000000	63.393545 
4476.000000	63.310360 
4475.000000	63.239502 
4474.000000	63.182306 
4473.000000	63.138651 
4472.000000	63.106203 
4471.000000	63.087415 
4470.000000	63.092756 
4469.000000	63.126564 
4468.000000	63.188529 
4467.000000	63.287568 
4466.000000	63.437628 
4465.000000	63.657355 
4464.000000	63.959479 
4463.000000	64.337062 
4462.000000	64.764857 
4461.000000	65.188789 
4460.000000	65.552353 
4459.000000	65.816497 
4458.000000	65.972471 
4457.000000	66.048979 
4456.000000	66.108226 
4455.000000	66.194820 
4454.000000	66.381859 
4453.000000	66.706013 
4452.000000	67.254662 
4451.000000	68.169641 
4450.000000	69.599938 
4449.000000	71.704554 
4448.000000	74.475216 
4447.000000	77.709555 
4446.000000	80.965566 
4445.000000	83.631134 
4444.000000	85.106563 
4443.000000	84.960007 
4442.000000	83.091568 
4441.000000	79.774117 
4440.000000	75.560164 
4439.000000	71.156907 
4438.000000	67.219710 
4437.000000	64.228034 
4436.000000	62.430834 
4435.000000	61.813974 
4434.000000	62.206840 
4433.000000	63.304996 
4432.000000	64.764690 
4431.000000	66.268348 
4430.000000	67.526698 
4429.000000	68.373107 
4428.000000	68.733501 
4427.000000	68.657541 
4426.000000	68.260335 
4425.000000	67.697739 
4424.000000	67.109990 
4423.000000	66.594362 
4422.000000	66.187667 
4421.000000	65.877842 
4420.000000	65.635275 
4419.000000	65.422105 
4418.000000	65.221142 
4417.000000	65.028452 
4416.000000	64.857411 
4415.000000	64.718174 
4414.000000	64.612436 
4413.000000	64.539670 
4412.000000	64.495635 
4411.000000	64.474701 
4410.000000	64.472174 
4409.000000	64.480662 
4408.000000	64.493727 
4407.000000	64.514541 
4406.000000	64.549374 
4405.000000	64.591693 
4404.000000	64.632558 
4403.000000	64.667224 
4402.000000	64.692187 
4401.000000	64.707159 
4400.000000	64.712882 
4399.000000	64.708065 
4398.000000	64.691758 
4397.000000	64.665985 
4396.000000	64.631342 
4395.000000	64.586687 
4394.000000	64.531087 
4393.000000	64.464068 
4392.000000	64.389133 
4391.000000	64.314961 
4390.000000	64.250302 
4389.000000	64.201855 
4388.000000	64.172601 
4387.000000	64.160799 
4386.000000	64.159822 
4385.000000	64.160704 
4384.000000	64.155554 
4383.000000	64.140486 
4382.000000	64.116454 
4381.000000	64.089846 
4380.000000	64.070129 
4379.000000	64.067578 
4378.000000	64.089679 
4377.000000	64.138913 
4376.000000	64.211630 
4375.000000	64.298534 
4374.000000	64.387083 
4373.000000	64.464139 
4372.000000	64.519453 
4371.000000	64.547228 
4370.000000	64.547491 
4369.000000	64.524960 
4368.000000	64.487314 
4367.000000	64.443445 
4366.000000	64.401173 
4365.000000	64.366197 
4364.000000	64.341592 
4363.000000	64.327454 
4362.000000	64.321708 
4361.000000	64.321231 
4360.000000	64.322829 
4359.000000	64.323234 
4358.000000	64.319801 
4357.000000	64.310741 
4356.000000	64.295411 
4355.000000	64.274072 
4354.000000	64.248275 
4353.000000	64.220762 
4352.000000	64.195299 
4351.000000	64.176225 
4350.000000	64.167428 
4349.000000	64.171624 
4348.000000	64.189243 
4347.000000	64.218497 
4346.000000	64.254975 
4345.000000	64.292263 
4344.000000	64.323115 
4343.000000	64.340710 
4342.000000	64.340066 
4341.000000	64.318799 
4340.000000	64.278483 
4339.000000	64.224267 
4338.000000	64.164137 
4337.000000	64.107203 
4336.000000	64.061784 
4335.000000	64.033651 
4334.000000	64.025330 
4333.000000	64.035964 
4332.000000	64.061689 
4331.000000	64.097046 
4330.000000	64.136576 
4329.000000	64.176130 
4328.000000	64.212918 
4327.000000	64.245772 
4326.000000	64.274358 
4325.000000	64.298582 
4324.000000	64.317679 
4323.000000	64.330148 
4322.000000	64.334368 
4321.000000	64.328575 
4320.000000	64.312005 
4319.000000	64.285159 
4318.000000	64.250707 
4317.000000	64.212560 
4316.000000	64.175558 
4315.000000	64.144086 
4314.000000	64.121341 
4313.000000	64.108943 
4312.000000	64.106822 
4311.000000	64.113616 
4310.000000	64.127111 
4309.000000	64.145374 
4308.000000	64.166998 
4307.000000	64.191675 
4306.000000	64.219903 
4305.000000	64.252662 
4304.000000	64.290618 
4303.000000	64.333629 
4302.000000	64.380359 
4301.000000	64.428496 
4300.000000	64.475131 
4299.000000	64.516973 
4298.000000	64.551568 
4297.000000	64.578342 
4296.000000	64.598345 
4295.000000	64.614415 
4294.000000	64.629817 
4293.000000	64.647507 
4292.000000	64.668941 
4291.000000	64.693856 
4290.000000	64.719486 
4289.000000	64.741444 
4288.000000	64.754796 
4287.000000	64.755940 
4286.000000	64.743089 
4285.000000	64.717197 
4284.000000	64.682054 
4283.000000	64.643669 
4282.000000	64.608621 
4281.000000	64.582490 
4280.000000	64.568614 
4279.000000	64.567208 
4278.000000	64.575004 
4277.000000	64.585995 
4276.000000	64.592838 
4275.000000	64.588451 
4274.000000	64.567875 
4273.000000	64.529514 
4272.000000	64.474916 
4271.000000	64.409112 
4270.000000	64.339447 
4269.000000	64.274597 
4268.000000	64.221858 
4267.000000	64.187502 
4266.000000	64.175438 
4265.000000	64.187502 
4264.000000	64.222931 
4263.000000	64.279222 
4262.000000	64.352440 
4261.000000	64.437961 
4260.000000	64.530396 
4259.000000	64.624404 
4258.000000	64.714670 
4257.000000	64.796781 
4256.000000	64.867329 
4255.000000	64.924526 
4254.000000	64.968276 
4253.000000	65.000224 
4252.000000	65.023064 
4251.000000	65.039944 
4250.000000	65.053057 
4249.000000	65.064024 
4248.000000	65.072584 
4247.000000	65.077090 
4246.000000	65.074276 
4245.000000	65.061259 
4244.000000	65.035510 
4243.000000	64.995741 
4242.000000	64.942359 
4241.000000	64.877653 
4240.000000	64.806032 
4239.000000	64.732742 
4238.000000	64.664053 
4237.000000	64.605903 
4236.000000	64.563655 
4235.000000	64.541220 
4234.000000	64.540529 
4233.000000	64.560890 
4232.000000	64.599132 
4231.000000	64.649963 
4230.000000	64.705967 
4229.000000	64.758539 
4228.000000	64.799642 
4227.000000	64.823532 
4226.000000	64.827132 
4225.000000	64.810800 
4224.000000	64.778876 
4223.000000	64.738965 
4222.000000	64.700388 
4221.000000	64.672565 
4220.000000	64.663314 
4219.000000	64.677095 
4218.000000	64.714717 
4217.000000	64.772558 
4216.000000	64.843583 
4215.000000	64.918065 
4214.000000	64.986109 
4213.000000	65.038752 
4212.000000	65.069174 
4211.000000	65.073823 
4210.000000	65.053057 
4209.000000	65.010380 
4208.000000	64.951705 
4207.000000	64.883828 
4206.000000	64.814138 
4205.000000	64.748096 
4204.000000	64.688849 
4203.000000	64.637088 
4202.000000	64.591860 
4201.000000	64.551115 
4200.000000	64.513349 
4199.000000	64.477920 
4198.000000	64.445877 
4197.000000	64.420104 
4196.000000	64.404630 
4195.000000	64.402794 
4194.000000	64.416885 
4193.000000	64.446806 
4192.000000	64.490485 
4191.000000	64.543676 
4190.000000	64.601302 
4189.000000	64.658355 
4188.000000	64.711213 
4187.000000	64.757800 
4186.000000	64.798283 
4185.000000	64.833712 
4184.000000	64.866185 
4183.000000	64.897298 
4182.000000	64.928531 
4181.000000	64.960908 
4180.000000	64.995026 
4179.000000	65.031576 
4178.000000	65.070772 
4177.000000	65.112638 
4176.000000	65.156340 
4175.000000	65.200448 
4174.000000	65.242099 
4173.000000	65.277385 
4172.000000	65.302300 
4171.000000	65.313458 
4170.000000	65.308928 
4169.000000	65.288639 
4168.000000	65.254950 
4167.000000	65.212035 
4166.000000	65.164971 
4165.000000	65.118670 
4164.000000	65.076994 
4163.000000	65.042209 
4162.000000	65.015578 
4161.000000	64.997100 
4160.000000	64.986300 
4159.000000	64.982318 
