PE IR       SPECTRUM    SPECTRUM    ASCII       PEDS        1.60        
  -1
BZ68A6~1.ASC
17/04/07
19:01:54.00
17/04/07
19:01:54.00
tln
$BZ1503107-1_t0070$<tbV0>[5.2,2.6,8.0,0.0,27,1,0]
370.000000
64









2002,4.07    
MIRTGS : RIGHTBACK : INTERNAL 2
MIR : ON : INTERNAL 2
OPTKBR

0.200000
8
8.000000
FILLER
RATIO
SPECTRUM
UNLOCKED 256

DOUBLE
64
COMBINED
1
0
0


1.000000
RATIO


1
0
TRUE
51149
0
LEFT NOT FITTED RIGHT NOT FITTED 0
NONE
NONE
15600
12.000000
4.427000
51148
TRUE
1 0 8 72 0 0 0 0 

15798.010000






#HDR
-1
-1
#GR
CM-1
%T
0.00002384185791015625
0.0
5000.000000
-1.000000
4631
8
68.996548
27.752399
#DATA
5000.000000	65.370774 
4999.000000	65.341496 
4998.000000	65.275549 
4997.000000	65.180826 
4996.000000	65.070557 
4995.000000	64.960861 
4994.000000	64.867925 
4993.000000	64.805650 
4992.000000	64.782238 
4991.000000	64.799880 
4990.000000	64.852929 
4989.000000	64.929699 
4988.000000	65.013957 
4987.000000	65.088415 
4986.000000	65.138030 
4985.000000	65.152740 
4984.000000	65.129685 
4983.000000	65.073204 
4982.000000	64.993953 
4981.000000	64.906024 
4980.000000	64.823436 
4979.000000	64.757442 
4978.000000	64.714312 
4977.000000	64.695143 
4976.000000	64.697337 
4975.000000	64.716267 
4974.000000	64.747524 
4973.000000	64.788389 
4972.000000	64.838194 
4971.000000	64.897680 
4970.000000	64.966726 
4969.000000	65.043830 
4968.000000	65.124773 
4967.000000	65.203094 
4966.000000	65.270805 
4965.000000	65.319728 
4964.000000	65.343546 
4963.000000	65.339303 
4962.000000	65.308809 
4961.000000	65.257883 
4960.000000	65.195274 
4959.000000	65.130972 
4958.000000	65.074181 
4957.000000	65.031266 
4956.000000	65.004706 
4955.000000	64.992833 
4954.000000	64.990663 
4953.000000	64.991497 
4952.000000	64.988660 
4951.000000	64.977025 
4950.000000	64.954113 
4949.000000	64.920091 
4948.000000	64.877748 
4947.000000	64.831447 
4946.000000	64.786100 
4945.000000	64.745426 
4944.000000	64.711689 
4943.000000	64.685320 
4942.000000	64.665579 
4941.000000	64.651250 
4940.000000	64.641332 
4939.000000	64.635443 
4938.000000	64.633727 
4937.000000	64.636421 
4936.000000	64.643764 
4935.000000	64.654946 
4934.000000	64.669370 
4933.000000	64.686536 
4932.000000	64.706277 
4931.000000	64.728569 
4930.000000	64.752888 
4929.000000	64.778089 
4928.000000	64.802050 
4927.000000	64.822125 
4926.000000	64.835429 
4925.000000	64.839839 
4924.000000	64.835238 
4923.000000	64.823842 
4922.000000	64.809894 
4921.000000	64.799165 
4920.000000	64.797258 
4919.000000	64.808750 
4918.000000	64.835429 
4917.000000	64.876723 
4916.000000	64.929294 
4915.000000	64.988470 
4914.000000	65.049910 
4913.000000	65.109777 
4912.000000	65.166234 
4911.000000	65.217733 
4910.000000	65.262866 
4909.000000	65.299129 
4908.000000	65.322899 
4907.000000	65.330839 
4906.000000	65.321087 
4905.000000	65.294551 
4904.000000	65.255284 
4903.000000	65.209841 
4902.000000	65.166139 
4901.000000	65.131378 
4900.000000	65.110516 
4899.000000	65.105557 
4898.000000	65.115237 
4897.000000	65.136146 
4896.000000	65.163469 
4895.000000	65.192532 
4894.000000	65.219426 
4893.000000	65.241217 
4892.000000	65.255975 
4891.000000	65.262460 
4890.000000	65.259814 
4889.000000	65.247488 
4888.000000	65.225315 
4887.000000	65.194535 
4886.000000	65.156984 
4885.000000	65.116357 
4884.000000	65.075683 
4883.000000	65.037798 
4882.000000	65.003347 
4881.000000	64.970493 
4880.000000	64.936113 
4879.000000	64.897036 
4878.000000	64.851450 
4877.000000	64.799809 
4876.000000	64.745903 
4875.000000	64.695930 
4874.000000	64.657115 
4873.000000	64.635825 
4872.000000	64.635825 
4871.000000	64.657044 
4870.000000	64.695405 
4869.000000	64.743518 
4868.000000	64.791798 
4867.000000	64.831256 
4866.000000	64.854931 
4865.000000	64.859986 
4864.000000	64.847755 
4863.000000	64.823198 
4862.000000	64.793658 
4861.000000	64.766430 
4860.000000	64.747476 
4859.000000	64.739155 
4858.000000	64.740633 
4857.000000	64.747118 
4856.000000	64.752221 
4855.000000	64.748883 
4854.000000	64.731812 
4853.000000	64.698266 
4852.000000	64.648795 
4851.000000	64.586973 
4850.000000	64.518666 
4849.000000	64.450216 
4848.000000	64.387106 
4847.000000	64.333176 
4846.000000	64.290380 
4845.000000	64.258980 
4844.000000	64.238333 
4843.000000	64.227747 
4842.000000	64.227247 
4841.000000	64.237618 
4840.000000	64.260029 
4839.000000	64.294886 
4838.000000	64.340925 
4837.000000	64.394903 
4836.000000	64.451146 
4835.000000	64.502239 
4834.000000	64.540219 
4833.000000	64.558029 
4832.000000	64.551186 
4831.000000	64.519095 
4830.000000	64.465355 
4829.000000	64.397048 
4828.000000	64.323949 
4827.000000	64.256596 
4826.000000	64.204716 
4825.000000	64.175128 
4824.000000	64.171600 
4823.000000	64.194250 
4822.000000	64.240384 
4821.000000	64.304757 
4820.000000	64.381098 
4819.000000	64.462661 
4818.000000	64.542531 
4817.000000	64.614105 
4816.000000	64.671015 
4815.000000	64.707970 
4814.000000	64.721417 
4813.000000	64.710211 
4812.000000	64.675951 
4811.000000	64.623522 
4810.000000	64.561057 
4809.000000	64.498329 
4808.000000	64.445638 
4807.000000	64.411234 
4806.000000	64.400219 
4805.000000	64.413189 
4804.000000	64.446282 
4803.000000	64.492583 
4802.000000	64.543771 
4801.000000	64.592552 
4800.000000	64.634013 
4799.000000	64.667034 
4798.000000	64.693546 
4797.000000	64.717936 
4796.000000	64.744973 
4795.000000	64.777970 
4794.000000	64.817047 
4793.000000	64.859151 
4792.000000	64.898061 
4791.000000	64.925837 
4790.000000	64.934206 
4789.000000	64.916801 
4788.000000	64.870405 
4787.000000	64.795947 
4786.000000	64.698553 
4785.000000	64.586496 
4784.000000	64.470410 
4783.000000	64.361333 
4782.000000	64.269590 
4781.000000	64.203047 
4780.000000	64.166331 
4779.000000	64.160251 
4778.000000	64.182186 
4777.000000	64.226078 
4776.000000	64.284300 
4775.000000	64.348030 
4774.000000	64.409351 
4773.000000	64.461612 
4772.000000	64.501166 
4771.000000	64.527034 
4770.000000	64.540743 
4769.000000	64.545154 
4768.000000	64.544034 
4767.000000	64.540982 
4766.000000	64.538574 
4765.000000	64.537906 
4764.000000	64.538884 
4763.000000	64.540529 
4762.000000	64.541912 
4761.000000	64.542412 
4760.000000	64.542222 
4759.000000	64.542007 
4758.000000	64.543080 
4757.000000	64.546346 
4756.000000	64.551496 
4755.000000	64.556956 
4754.000000	64.560890 
4753.000000	64.561247 
4752.000000	64.556336 
4751.000000	64.545536 
4750.000000	64.530348 
4749.000000	64.513063 
4748.000000	64.496111 
4747.000000	64.480948 
4746.000000	64.467573 
4745.000000	64.454197 
4744.000000	64.438033 
4743.000000	64.415812 
4742.000000	64.384913 
4741.000000	64.344763 
4740.000000	64.297342 
4739.000000	64.246630 
4738.000000	64.197850 
4737.000000	64.156198 
4736.000000	64.126133 
4735.000000	64.109945 
4734.000000	64.108371 
4733.000000	64.120602 
4732.000000	64.145421 
4731.000000	64.181590 
4730.000000	64.228296 
4729.000000	64.284992 
4728.000000	64.351034 
4727.000000	64.424395 
4726.000000	64.501881 
4725.000000	64.579105 
4724.000000	64.650917 
4723.000000	64.712429 
4722.000000	64.759302 
4721.000000	64.789271 
4720.000000	64.801478 
4719.000000	64.797186 
4718.000000	64.778280 
4717.000000	64.747047 
4716.000000	64.705729 
4715.000000	64.656519 
4714.000000	64.601397 
4713.000000	64.542460 
4712.000000	64.482736 
4711.000000	64.426183 
4710.000000	64.377212 
4709.000000	64.340090 
4708.000000	64.317989 
4707.000000	64.312005 
4706.000000	64.320325 
4705.000000	64.338397 
4704.000000	64.359855 
4703.000000	64.377689 
4702.000000	64.385390 
4701.000000	64.378619 
4700.000000	64.355802 
4699.000000	64.318346 
4698.000000	64.269924 
4697.000000	64.215755 
4696.000000	64.160799 
4695.000000	64.109754 
4694.000000	64.066171 
4693.000000	64.032554 
4692.000000	64.010167 
4691.000000	63.999772 
4690.000000	64.001822 
4689.000000	64.016318 
4688.000000	64.042377 
4687.000000	64.078092 
4686.000000	64.120388 
4685.000000	64.165067 
4684.000000	64.207553 
4683.000000	64.244055 
4682.000000	64.272403 
4681.000000	64.292812 
4680.000000	64.307951 
4679.000000	64.322376 
4678.000000	64.341259 
4677.000000	64.369463 
4676.000000	64.410066 
4675.000000	64.463734 
4674.000000	64.527988 
4673.000000	64.598774 
4672.000000	64.670395 
4671.000000	64.737129 
4670.000000	64.793753 
4669.000000	64.836812 
4668.000000	64.864277 
4667.000000	64.875841 
4666.000000	64.872479 
4665.000000	64.856386 
4664.000000	64.830303 
4663.000000	64.797401 
4662.000000	64.760851 
4661.000000	64.724111 
4660.000000	64.689564 
4659.000000	64.658451 
4658.000000	64.630675 
4657.000000	64.605379 
4656.000000	64.581179 
4655.000000	64.557147 
4654.000000	64.533138 
4653.000000	64.510416 
4652.000000	64.491701 
4651.000000	64.480781 
4650.000000	64.480876 
4649.000000	64.494132 
4648.000000	64.520645 
4647.000000	64.558506 
4646.000000	64.603471 
4645.000000	64.650154 
4644.000000	64.693093 
4643.000000	64.727616 
4642.000000	64.751005 
4641.000000	64.762711 
4640.000000	64.764046 
4639.000000	64.757919 
4638.000000	64.747714 
4637.000000	64.737486 
4636.000000	64.731359 
4635.000000	64.733099 
4634.000000	64.745688 
4633.000000	64.771080 
4632.000000	64.809584 
4631.000000	64.859700 
4630.000000	64.917826 
4629.000000	64.978480 
4628.000000	65.034985 
4627.000000	65.080881 
4626.000000	65.111112 
4625.000000	65.122485 
4624.000000	65.114784 
4623.000000	65.091037 
4622.000000	65.057229 
4621.000000	65.020513 
4620.000000	64.988684 
4619.000000	64.968419 
4618.000000	64.964723 
4617.000000	64.980530 
4616.000000	65.015840 
4615.000000	65.068578 
4614.000000	65.133810 
4613.000000	65.205168 
4612.000000	65.274429 
4611.000000	65.333056 
4610.000000	65.372896 
4609.000000	65.387511 
4608.000000	65.373420 
4607.000000	65.330839 
4606.000000	65.263843 
4605.000000	65.179967 
4604.000000	65.089488 
4603.000000	65.003967 
4602.000000	64.935040 
4601.000000	64.892721 
4600.000000	64.883995 
4599.000000	64.911794 
4598.000000	64.974904 
4597.000000	65.067648 
4596.000000	65.180611 
4595.000000	65.301823 
4594.000000	65.418505 
4593.000000	65.518760 
4592.000000	65.592837 
4591.000000	65.634822 
4590.000000	65.642929 
4589.000000	65.620183 
4588.000000	65.573430 
4587.000000	65.512466 
4586.000000	65.448808 
4585.000000	65.393304 
4584.000000	65.354776 
4583.000000	65.338563 
4582.000000	65.346670 
4581.000000	65.376734 
4580.000000	65.423154 
4579.000000	65.478467 
4578.000000	65.535044 
4577.000000	65.586209 
4576.000000	65.627551 
4575.000000	65.656924 
4574.000000	65.674519 
4573.000000	65.682244 
4572.000000	65.683054 
4571.000000	65.679907 
4570.000000	65.674924 
4569.000000	65.669822 
4568.000000	65.665125 
4567.000000	65.661263 
4566.000000	65.657567 
4565.000000	65.653872 
4564.000000	65.649294 
4563.000000	65.643477 
4562.000000	65.635013 
4561.000000	65.621924 
4560.000000	65.600943 
4559.000000	65.568518 
4558.000000	65.521240 
4557.000000	65.456819 
4556.000000	65.375542 
4555.000000	65.280604 
4554.000000	65.179228 
4553.000000	65.081715 
4552.000000	64.999604 
4551.000000	64.943122 
4550.000000	64.919567 
4549.000000	64.931464 
4548.000000	64.975428 
4547.000000	65.042948 
4546.000000	65.121865 
4545.000000	65.199398 
4544.000000	65.264558 
4543.000000	65.310668 
4542.000000	65.336084 
4541.000000	65.344214 
4540.000000	65.341687 
4539.000000	65.336298 
4538.000000	65.334701 
4537.000000	65.340209 
4536.000000	65.352320 
4535.000000	65.366959 
4534.000000	65.378379 
4533.000000	65.381479 
4532.000000	65.373945 
4531.000000	65.357851 
4530.000000	65.339207 
4529.000000	65.327095 
4528.000000	65.330934 
4527.000000	65.358614 
4526.000000	65.414166 
4525.000000	65.497660 
4524.000000	65.604758 
4523.000000	65.728306 
4522.000000	65.859341 
4521.000000	65.988039 
4520.000000	66.105055 
4519.000000	66.202592 
4518.000000	66.275262 
4517.000000	66.320705 
4516.000000	66.339445 
4515.000000	66.335558 
4514.000000	66.314792 
4513.000000	66.284632 
4512.000000	66.251444 
4511.000000	66.220259 
4510.000000	66.193032 
4509.000000	66.170001 
4508.000000	66.148877 
4507.000000	66.126942 
4506.000000	66.101527 
4505.000000	66.071820 
4504.000000	66.038823 
4503.000000	66.005158 
4502.000000	65.974521 
4501.000000	65.950393 
4500.000000	65.934848 
4499.000000	65.927529 
4498.000000	65.926146 
4497.000000	65.927076 
4496.000000	65.926671 
4495.000000	65.922546 
4494.000000	65.915060 
4493.000000	65.907263 
4492.000000	65.903830 
4491.000000	65.909647 
4490.000000	65.928792 
4489.000000	65.962314 
4488.000000	66.007709 
4487.000000	66.058397 
4486.000000	66.105484 
4485.000000	66.139245 
4484.000000	66.151332 
4483.000000	66.136884 
4482.000000	66.096305 
4481.000000	66.034579 
4480.000000	65.960669 
4479.000000	65.884470 
4478.000000	65.814256 
4477.000000	65.755486 
4476.000000	65.710115 
4475.000000	65.677428 
4474.000000	65.655446 
4473.000000	65.642595 
4472.000000	65.639448 
4471.000000	65.646123 
4470.000000	65.661978 
4469.000000	65.683770 
4468.000000	65.706276 
4467.000000	65.723776 
4466.000000	65.731620 
4465.000000	65.729808 
4464.000000	65.722227 
4463.000000	65.713357 
4462.000000	65.707945 
4461.000000	65.710186 
4460.000000	65.721535 
4459.000000	65.742015 
4458.000000	65.767908 
4457.000000	65.789008 
4456.000000	65.794157 
4455.000000	65.779066 
4454.000000	65.743350 
4453.000000	65.683960 
4452.000000	65.605807 
4451.000000	65.524363 
4450.000000	65.458846 
4449.000000	65.423488 
4448.000000	65.433406 
4447.000000	65.504455 
4446.000000	65.639519 
4445.000000	65.826821 
4444.000000	66.039252 
4443.000000	66.241502 
4442.000000	66.393232 
4441.000000	66.463661 
4440.000000	66.451263 
4439.000000	66.386938 
4438.000000	66.339087 
4437.000000	66.387701 
4436.000000	66.599225 
4435.000000	66.992235 
4434.000000	67.544221 
4433.000000	68.163013 
4432.000000	68.706369 
4431.000000	68.996548 
4430.000000	68.882536 
4429.000000	68.250274 
4428.000000	67.062854 
4427.000000	65.354442 
4426.000000	63.243699 
4425.000000	60.885405 
4424.000000	58.442044 
4423.000000	56.054735 
4422.000000	53.825736 
4421.000000	51.818633 
4420.000000	50.069785 
4419.000000	48.592972 
4418.000000	47.396683 
4417.000000	46.464467 
4416.000000	45.766115 
4415.000000	45.248055 
4414.000000	44.859170 
4413.000000	44.584846 
4412.000000	44.469952 
4411.000000	44.618391 
4410.000000	45.176148 
4409.000000	46.277618 
4408.000000	48.008584 
4407.000000	50.342011 
4406.000000	53.146123 
4405.000000	56.194901 
4404.000000	59.215211 
4403.000000	61.949682 
4402.000000	64.195346 
4401.000000	65.841150 
4400.000000	66.872501 
4399.000000	67.364716 
4398.000000	67.447638 
4397.000000	67.273068 
4396.000000	66.977787 
4395.000000	66.678237 
4394.000000	66.435408 
4393.000000	66.268968 
4392.000000	66.167402 
4391.000000	66.121554 
4390.000000	66.113185 
4389.000000	66.130328 
4388.000000	66.168117 
4387.000000	66.229772 
4386.000000	66.316032 
4385.000000	66.422963 
4384.000000	66.542506 
4383.000000	66.661047 
4382.000000	66.763162 
4381.000000	66.832733 
4380.000000	66.853356 
4379.000000	66.813540 
4378.000000	66.714262 
4377.000000	66.566371 
4376.000000	66.384530 
4375.000000	66.188192 
4374.000000	66.004586 
4373.000000	65.856552 
4372.000000	65.751051 
4371.000000	65.687870 
4370.000000	65.667033 
4369.000000	65.682244 
4368.000000	65.720415 
4367.000000	65.770268 
4366.000000	65.824532 
4365.000000	65.879893 
4364.000000	65.936017 
4363.000000	65.992856 
4362.000000	66.048479 
4361.000000	66.098952 
4360.000000	66.138648 
4359.000000	66.162729 
4358.000000	66.168594 
4357.000000	66.158223 
4356.000000	66.137218 
4355.000000	66.113591 
4354.000000	66.094803 
4353.000000	66.085457 
4352.000000	66.086292 
4351.000000	66.095089 
4350.000000	66.107058 
4349.000000	66.117382 
4348.000000	66.121912 
4347.000000	66.118812 
4346.000000	66.108345 
4345.000000	66.091775 
4344.000000	66.071891 
4343.000000	66.051483 
4342.000000	66.033673 
4341.000000	66.021394 
4340.000000	66.016578 
4339.000000	66.019749 
4338.000000	66.029334 
4337.000000	66.042327 
4336.000000	66.053724 
4335.000000	66.057586 
4334.000000	66.048169 
4333.000000	66.021656 
4332.000000	65.977978 
4331.000000	65.921425 
4330.000000	65.860772 
4329.000000	65.806746 
4328.000000	65.769600 
4327.000000	65.755367 
4326.000000	65.764522 
4325.000000	65.790414 
4324.000000	65.820932 
4323.000000	65.840792 
4322.000000	65.836143 
4321.000000	65.797209 
4320.000000	65.720462 
4319.000000	65.609884 
4318.000000	65.475416 
4317.000000	65.331554 
4316.000000	65.193700 
4315.000000	65.075731 
4314.000000	64.987134 
4313.000000	64.932680 
4312.000000	64.912414 
4311.000000	64.922690 
4310.000000	64.957809 
4309.000000	65.011382 
4308.000000	65.077543 
4307.000000	65.151262 
4306.000000	65.228557 
4305.000000	65.306544 
4304.000000	65.383219 
4303.000000	65.457081 
4302.000000	65.526890 
4301.000000	65.591716 
4300.000000	65.650963 
4299.000000	65.704464 
4298.000000	65.752220 
4297.000000	65.795063 
4296.000000	65.833353 
4295.000000	65.868473 
4294.000000	65.900444 
4293.000000	65.928936 
4292.000000	65.951752 
4291.000000	65.966367 
4290.000000	65.969347 
4289.000000	65.957880 
4288.000000	65.930342 
4287.000000	65.887475 
4286.000000	65.832233 
4285.000000	65.769410 
4284.000000	65.705418 
4283.000000	65.647244 
4282.000000	65.601038 
4281.000000	65.570712 
4280.000000	65.557384 
4279.000000	65.559172 
4278.000000	65.571641 
4277.000000	65.588974 
4276.000000	65.604496 
4275.000000	65.612220 
4274.000000	65.608334 
4273.000000	65.591835 
4272.000000	65.563702 
4271.000000	65.527081 
4270.000000	65.486526 
4269.000000	65.446710 
4268.000000	65.411233 
4267.000000	65.381932 
4266.000000	65.359139 
4265.000000	65.341472 
4264.000000	65.326547 
4263.000000	65.312123 
4262.000000	65.296983 
4261.000000	65.281319 
4260.000000	65.266323 
4259.000000	65.254306 
4258.000000	65.247583 
4257.000000	65.247750 
4256.000000	65.254783 
4255.000000	65.266919 
4254.000000	65.280771 
4253.000000	65.292406 
4252.000000	65.298247 
4251.000000	65.295934 
4250.000000	65.284752 
4249.000000	65.266156 
4248.000000	65.242981 
4247.000000	65.218591 
4246.000000	65.195870 
4245.000000	65.176725 
4244.000000	65.161585 
4243.000000	65.149569 
4242.000000	65.138888 
4241.000000	65.128064 
4240.000000	65.115547 
4239.000000	65.100336 
4238.000000	65.081667 
4237.000000	65.059089 
4236.000000	65.032005 
4235.000000	64.999246 
4234.000000	64.959788 
4233.000000	64.912915 
4232.000000	64.859390 
4231.000000	64.801692 
4230.000000	64.744114 
4229.000000	64.692044 
4228.000000	64.651107 
4227.000000	64.625835 
4226.000000	64.618396 
4225.000000	64.627981 
4224.000000	64.650988 
4223.000000	64.682197 
4222.000000	64.715456 
4221.000000	64.745712 
4220.000000	64.769649 
4219.000000	64.786577 
4218.000000	64.797735 
4217.000000	64.805984 
4216.000000	64.814496 
4215.000000	64.825892 
4214.000000	64.841914 
4213.000000	64.862728 
4212.000000	64.887237 
4211.000000	64.913153 
4210.000000	64.938688 
4209.000000	64.961314 
4208.000000	64.978861 
4207.000000	64.988780 
4206.000000	64.988994 
4205.000000	64.977264 
4204.000000	64.952015 
4203.000000	64.912700 
4202.000000	64.860296 
4201.000000	64.797496 
4200.000000	64.728832 
4199.000000	64.659953 
4198.000000	64.597129 
4197.000000	64.545750 
4196.000000	64.509582 
4195.000000	64.489769 
4194.000000	64.484882 
4193.000000	64.491343 
4192.000000	64.504742 
4191.000000	64.520120 
4190.000000	64.534020 
4189.000000	64.544701 
4188.000000	64.553475 
4187.000000	64.562797 
4186.000000	64.576649 
4185.000000	64.598941 
4184.000000	64.632153 
4183.000000	64.676761 
4182.000000	64.729690 
4181.000000	64.785337 
4180.000000	64.835810 
4179.000000	64.873123 
4178.000000	64.890527 
4177.000000	64.884543 
4176.000000	64.855742 
4175.000000	64.809012 
4174.000000	64.752388 
4173.000000	64.695239 
4172.000000	64.646387 
4171.000000	64.612150 
4170.000000	64.594483 
4169.000000	64.590883 
4168.000000	64.595675 
4167.000000	64.601874 
4166.000000	64.602899 
4165.000000	64.594674 
4164.000000	64.576625 
4163.000000	64.551925 
4162.000000	64.525508 
4161.000000	64.503240 
4160.000000	64.489483 
4159.000000	64.486861 
