PE IR       SPECTRUM    SPECTRUM    ASCII       PEDS        1.60        
  -1
BZ6031~1.ASC
17/04/07
18:52:40.00
17/04/07
18:52:40.00
tln
$BZ1503107-1_t0068$<tbV0>[10.4,2.6,8.0,0.0,27,1,0]
370.000000
64









2002,4.07    
MIRTGS : RIGHTBACK : INTERNAL 2
MIR : ON : INTERNAL 2
OPTKBR

0.200000
8
8.000000
FILLER
RATIO
SPECTRUM
UNLOCKED 256

DOUBLE
64
COMBINED
1
0
0


1.000000
RATIO


1
0
TRUE
51149
0
LEFT NOT FITTED RIGHT NOT FITTED 0
NONE
NONE
15600
12.000000
4.427000
51148
TRUE
1 0 8 72 0 0 0 0 

15798.010000






#HDR
-1
-1
#GR
CM-1
%T
0.00002384185791015625
0.0
5000.000000
-1.000000
4631
8
80.126905
50.494718
#DATA
5000.000000	65.204644 
4999.000000	65.266156 
4998.000000	65.285348 
4997.000000	65.263557 
4996.000000	65.211033 
4995.000000	65.144538 
4994.000000	65.082883 
4993.000000	65.043735 
4992.000000	65.037012 
4991.000000	65.063953 
4990.000000	65.114879 
4989.000000	65.173578 
4988.000000	65.218853 
4987.000000	65.230798 
4986.000000	65.194702 
4985.000000	65.105175 
4984.000000	64.966440 
4983.000000	64.791727 
4982.000000	64.600229 
4981.000000	64.413356 
4980.000000	64.251470 
4979.000000	64.130425 
4978.000000	64.059734 
4977.000000	64.041352 
4976.000000	64.070820 
4975.000000	64.138412 
4974.000000	64.230751 
4973.000000	64.333772 
4972.000000	64.433455 
4971.000000	64.519309 
4970.000000	64.583015 
4969.000000	64.621853 
4968.000000	64.637422 
4967.000000	64.635467 
4966.000000	64.623999 
4965.000000	64.610838 
4964.000000	64.601945 
4963.000000	64.600014 
4962.000000	64.604902 
4961.000000	64.613771 
4960.000000	64.622735 
4959.000000	64.628791 
4958.000000	64.631223 
4957.000000	64.630651 
4956.000000	64.628720 
4955.000000	64.626693 
4954.000000	64.624881 
4953.000000	64.622330 
4952.000000	64.617323 
4951.000000	64.608907 
4950.000000	64.597511 
4949.000000	64.585089 
4948.000000	64.574885 
4947.000000	64.571404 
4946.000000	64.578318 
4945.000000	64.596915 
4944.000000	64.625310 
4943.000000	64.658045 
4942.000000	64.687967 
4941.000000	64.708256 
4940.000000	64.714694 
4939.000000	64.706444 
4938.000000	64.687323 
4937.000000	64.664554 
4936.000000	64.647340 
4935.000000	64.643907 
4934.000000	64.660501 
4933.000000	64.699602 
4932.000000	64.759445 
4931.000000	64.834308 
4930.000000	64.915299 
4929.000000	64.992213 
4928.000000	65.055251 
4927.000000	65.097069 
4926.000000	65.114188 
4925.000000	65.107750 
4924.000000	65.083599 
4923.000000	65.050363 
4922.000000	65.017747 
4921.000000	64.993572 
4920.000000	64.982867 
4919.000000	64.985942 
4918.000000	64.998936 
4917.000000	65.015077 
4916.000000	65.026950 
4915.000000	65.028667 
4914.000000	65.018057 
4913.000000	64.996814 
4912.000000	64.970421 
4911.000000	64.945149 
4910.000000	64.926433 
4909.000000	64.915990 
4908.000000	64.911174 
4907.000000	64.905643 
4906.000000	64.891505 
4905.000000	64.862132 
4904.000000	64.814734 
4903.000000	64.751863 
4902.000000	64.681482 
4901.000000	64.614915 
4900.000000	64.564180 
4899.000000	64.539480 
4898.000000	64.546656 
4897.000000	64.585399 
4896.000000	64.649438 
4895.000000	64.728736 
4894.000000	64.811515 
4893.000000	64.886856 
4892.000000	64.946794 
4891.000000	64.987087 
4890.000000	65.007591 
4889.000000	65.011024 
4888.000000	65.001797 
4887.000000	64.984273 
4886.000000	64.962124 
4885.000000	64.938378 
4884.000000	64.915108 
4883.000000	64.894175 
4882.000000	64.877414 
4881.000000	64.867353 
4880.000000	64.865994 
4879.000000	64.874601 
4878.000000	64.892697 
4877.000000	64.917993 
4876.000000	64.945650 
4875.000000	64.969062 
4874.000000	64.981245 
4873.000000	64.976382 
4872.000000	64.950871 
4871.000000	64.904117 
4870.000000	64.839386 
4869.000000	64.762949 
4868.000000	64.682602 
4867.000000	64.606380 
4866.000000	64.541101 
4865.000000	64.491629 
4864.000000	64.460325 
4863.000000	64.447522 
4862.000000	64.451241 
4861.000000	64.468812 
4860.000000	64.497613 
4859.000000	64.535593 
4858.000000	64.580059 
4857.000000	64.629101 
4856.000000	64.680528 
4855.000000	64.732336 
4854.000000	64.781999 
4853.000000	64.827394 
4852.000000	64.866805 
4851.000000	64.899706 
4850.000000	64.926743 
4849.000000	64.949893 
4848.000000	64.971899 
4847.000000	64.996123 
4846.000000	65.025568 
4845.000000	65.061855 
4844.000000	65.104746 
4843.000000	65.152573 
4842.000000	65.202188 
4841.000000	65.249991 
4840.000000	65.291714 
4839.000000	65.324378 
4838.000000	65.344834 
4837.000000	65.350961 
4836.000000	65.340375 
4835.000000	65.311908 
4834.000000	65.264654 
4833.000000	65.198898 
4832.000000	65.116047 
4831.000000	65.019655 
4830.000000	64.915013 
4829.000000	64.809036 
4828.000000	64.709210 
4827.000000	64.622139 
4826.000000	64.553403 
4825.000000	64.506769 
4824.000000	64.483904 
4823.000000	64.484047 
4822.000000	64.505767 
4821.000000	64.547181 
4820.000000	64.606142 
4819.000000	64.680051 
4818.000000	64.765834 
4817.000000	64.859247 
4816.000000	64.954471 
4815.000000	65.044403 
4814.000000	65.121603 
4813.000000	65.179443 
4812.000000	65.213918 
4811.000000	65.224123 
4810.000000	65.213370 
4809.000000	65.187525 
4808.000000	65.154838 
4807.000000	65.122628 
4806.000000	65.096831 
4805.000000	65.079283 
4804.000000	65.068984 
4803.000000	65.061140 
4802.000000	65.049576 
4801.000000	65.027999 
4800.000000	64.992594 
4799.000000	64.942240 
4798.000000	64.878916 
4797.000000	64.807343 
4796.000000	64.733743 
4795.000000	64.664554 
4794.000000	64.605021 
4793.000000	64.558768 
4792.000000	64.527511 
4791.000000	64.511728 
4790.000000	64.511060 
4789.000000	64.524245 
4788.000000	64.549660 
4787.000000	64.585113 
4786.000000	64.627861 
4785.000000	64.673852 
4784.000000	64.718532 
4783.000000	64.757204 
4782.000000	64.786124 
4781.000000	64.802885 
4780.000000	64.807152 
4779.000000	64.800739 
4778.000000	64.787220 
4777.000000	64.771270 
4776.000000	64.757394 
4775.000000	64.748859 
4774.000000	64.747166 
4773.000000	64.752531 
4772.000000	64.763617 
4771.000000	64.778065 
4770.000000	64.793205 
4769.000000	64.806938 
4768.000000	64.817357 
4767.000000	64.822959 
4766.000000	64.822483 
4765.000000	64.814949 
4764.000000	64.799737 
4763.000000	64.777040 
4762.000000	64.748406 
4761.000000	64.716887 
4760.000000	64.686512 
4759.000000	64.661908 
4758.000000	64.647722 
4757.000000	64.647507 
4756.000000	64.662432 
4755.000000	64.691615 
4754.000000	64.731502 
4753.000000	64.777445 
4752.000000	64.824247 
4751.000000	64.867734 
4750.000000	64.905166 
4749.000000	64.936232 
4748.000000	64.962625 
4747.000000	64.986968 
4746.000000	65.011978 
4745.000000	65.038895 
4744.000000	65.067243 
4743.000000	65.094184 
4742.000000	65.115308 
4741.000000	65.125513 
4740.000000	65.121006 
4739.000000	65.099883 
4738.000000	65.063357 
4737.000000	65.015864 
4736.000000	64.964604 
4735.000000	64.918398 
4734.000000	64.886331 
4733.000000	64.875745 
4732.000000	64.891266 
4731.000000	64.934086 
4730.000000	65.001511 
4729.000000	65.087509 
4728.000000	65.183353 
4727.000000	65.279436 
4726.000000	65.366291 
4725.000000	65.436077 
4724.000000	65.483307 
4723.000000	65.505576 
4722.000000	65.502715 
4721.000000	65.477347 
4720.000000	65.432667 
4719.000000	65.372681 
4718.000000	65.300536 
4717.000000	65.219211 
4716.000000	65.130829 
4715.000000	65.037441 
4714.000000	64.941740 
4713.000000	64.847755 
4712.000000	64.760923 
4711.000000	64.688014 
4710.000000	64.636588 
4709.000000	64.614033 
4708.000000	64.625358 
4707.000000	64.672303 
4706.000000	64.752173 
4705.000000	64.858174 
4704.000000	64.979410 
4703.000000	65.103125 
4702.000000	65.216207 
4701.000000	65.307974 
4700.000000	65.371322 
4699.000000	65.403747 
4698.000000	65.407133 
4697.000000	65.386724 
4696.000000	65.349507 
4695.000000	65.302467 
4694.000000	65.252280 
4693.000000	65.203166 
4692.000000	65.157938 
4691.000000	65.117359 
4690.000000	65.081524 
4689.000000	65.050053 
4688.000000	65.023088 
4687.000000	65.000605 
4686.000000	64.982533 
4685.000000	64.968395 
4684.000000	64.957070 
4683.000000	64.946198 
4682.000000	64.932918 
4681.000000	64.914321 
4680.000000	64.888644 
4679.000000	64.855670 
4678.000000	64.817571 
4677.000000	64.778661 
4676.000000	64.744734 
4675.000000	64.722132 
4674.000000	64.715981 
4673.000000	64.728951 
4672.000000	64.760017 
4671.000000	64.804840 
4670.000000	64.856028 
4669.000000	64.904546 
4668.000000	64.941930 
4667.000000	64.961624 
4666.000000	64.961099 
4665.000000	64.941954 
4664.000000	64.909410 
4663.000000	64.870810 
4662.000000	64.834022 
4661.000000	64.805793 
4660.000000	64.789915 
4659.000000	64.786744 
4658.000000	64.793682 
4657.000000	64.806151 
4656.000000	64.818811 
4655.000000	64.827084 
4654.000000	64.828085 
4653.000000	64.821195 
4652.000000	64.807605 
4651.000000	64.790201 
4650.000000	64.771866 
4649.000000	64.755821 
4648.000000	64.744615 
4647.000000	64.740681 
4646.000000	64.745688 
4645.000000	64.761114 
4644.000000	64.787983 
4643.000000	64.826941 
4642.000000	64.877676 
4641.000000	64.938974 
4640.000000	65.008449 
4639.000000	65.082573 
4638.000000	65.156674 
4637.000000	65.225529 
4636.000000	65.283918 
4635.000000	65.327310 
4634.000000	65.352702 
4633.000000	65.358901 
4632.000000	65.346884 
4631.000000	65.319728 
4630.000000	65.282201 
4629.000000	65.239715 
4628.000000	65.197181 
4627.000000	65.158748 
4626.000000	65.126681 
4625.000000	65.101146 
4624.000000	65.080380 
4623.000000	65.061521 
4622.000000	65.041518 
4621.000000	65.018439 
4620.000000	64.991879 
4619.000000	64.963126 
4618.000000	64.934659 
4617.000000	64.909195 
4616.000000	64.889311 
4615.000000	64.875483 
4614.000000	64.867281 
4613.000000	64.863514 
4612.000000	64.862918 
4611.000000	64.864373 
4610.000000	64.867639 
4609.000000	64.873218 
4608.000000	64.881896 
4607.000000	64.894127 
4606.000000	64.909791 
4605.000000	64.928126 
4604.000000	64.947605 
4603.000000	64.966392 
4602.000000	64.983177 
4601.000000	64.997458 
4600.000000	65.009927 
4599.000000	65.022015 
4598.000000	65.035295 
4597.000000	65.050458 
4596.000000	65.067672 
4595.000000	65.085172 
4594.000000	65.100121 
4593.000000	65.107989 
4592.000000	65.104675 
4591.000000	65.086436 
4590.000000	65.050816 
4589.000000	64.997506 
4588.000000	64.928293 
4587.000000	64.847946 
4586.000000	64.763474 
4585.000000	64.683604 
4584.000000	64.617300 
4583.000000	64.572429 
4582.000000	64.554071 
4581.000000	64.563393 
4580.000000	64.597201 
4579.000000	64.648461 
4578.000000	64.707684 
4577.000000	64.764761 
4576.000000	64.811134 
4575.000000	64.841723 
4574.000000	64.855766 
4573.000000	64.856767 
4572.000000	64.851117 
4571.000000	64.846324 
4570.000000	64.848637 
4569.000000	64.861726 
4568.000000	64.885187 
4567.000000	64.915394 
4566.000000	64.945602 
4565.000000	64.968895 
4564.000000	64.978885 
4563.000000	64.971590 
4562.000000	64.945912 
4561.000000	64.903688 
4560.000000	64.849305 
4559.000000	64.788246 
4558.000000	64.726328 
4557.000000	64.668560 
4556.000000	64.618682 
4555.000000	64.579010 
4554.000000	64.550542 
4553.000000	64.533376 
4552.000000	64.526629 
4551.000000	64.528822 
4550.000000	64.538097 
4549.000000	64.552712 
4548.000000	64.570808 
4547.000000	64.591193 
4546.000000	64.613151 
4545.000000	64.636659 
4544.000000	64.661884 
4543.000000	64.689040 
4542.000000	64.717793 
4541.000000	64.747500 
4540.000000	64.777040 
4539.000000	64.805054 
4538.000000	64.830493 
4537.000000	64.852166 
4536.000000	64.869332 
4535.000000	64.881134 
4534.000000	64.886975 
4533.000000	64.886116 
4532.000000	64.878487 
4531.000000	64.864087 
4530.000000	64.843654 
4529.000000	64.818048 
4528.000000	64.788436 
4527.000000	64.756727 
4526.000000	64.725589 
4525.000000	64.698886 
4524.000000	64.681339 
4523.000000	64.678287 
4522.000000	64.694547 
4521.000000	64.733219 
4520.000000	64.794516 
4519.000000	64.874792 
4518.000000	64.966917 
4517.000000	65.061926 
4516.000000	65.150070 
4515.000000	65.222978 
4514.000000	65.274429 
4513.000000	65.301513 
4512.000000	65.304088 
4511.000000	65.284442 
4510.000000	65.246200 
4509.000000	65.194320 
4508.000000	65.133285 
4507.000000	65.067648 
4506.000000	65.000796 
4505.000000	64.935994 
4504.000000	64.875769 
4503.000000	64.822435 
4502.000000	64.778256 
4501.000000	64.745712 
4500.000000	64.726734 
4499.000000	64.722108 
4498.000000	64.730978 
4497.000000	64.750528 
4496.000000	64.775943 
4495.000000	64.800953 
4494.000000	64.818692 
4493.000000	64.823102 
4492.000000	64.810228 
4491.000000	64.779329 
4490.000000	64.733290 
4489.000000	64.678025 
4488.000000	64.622163 
4487.000000	64.573812 
4486.000000	64.538836 
4485.000000	64.518857 
4484.000000	64.511036 
4483.000000	64.509105 
4482.000000	64.506554 
4481.000000	64.497041 
4480.000000	64.477562 
4479.000000	64.446735 
4478.000000	64.404368 
4477.000000	64.351153 
4476.000000	64.287090 
4475.000000	64.213824 
4474.000000	64.134693 
4473.000000	64.055442 
4472.000000	63.984203 
4471.000000	63.927912 
4470.000000	63.891005 
4469.000000	63.873720 
4468.000000	63.873028 
4467.000000	63.884139 
4466.000000	63.903069 
4465.000000	63.930082 
4464.000000	63.969182 
4463.000000	64.025735 
4462.000000	64.104557 
4461.000000	64.204907 
4460.000000	64.320540 
4459.000000	64.445543 
4458.000000	64.570832 
4457.000000	64.677643 
4456.000000	64.749383 
4455.000000	64.782023 
4454.000000	64.778494 
4453.000000	64.749574 
4452.000000	64.707064 
4451.000000	64.657902 
4450.000000	64.605164 
4449.000000	64.547467 
4448.000000	64.484167 
4447.000000	64.416122 
4446.000000	64.354610 
4445.000000	64.325785 
4444.000000	64.340686 
4443.000000	64.391779 
4442.000000	64.463615 
4441.000000	64.539122 
4440.000000	64.618945 
4439.000000	64.716792 
4438.000000	64.877057 
4437.000000	65.134406 
4436.000000	65.497040 
4435.000000	65.908765 
4434.000000	66.243958 
4433.000000	66.322469 
4432.000000	65.954470 
4431.000000	64.993453 
4430.000000	63.385868 
4429.000000	61.204862 
4428.000000	58.648252 
4427.000000	56.013464 
4426.000000	53.623223 
4425.000000	51.783990 
4424.000000	50.705075 
4423.000000	50.494718 
4422.000000	51.122903 
4421.000000	52.493453 
4420.000000	54.466700 
4419.000000	56.913614 
4418.000000	59.727287 
4417.000000	62.822914 
4416.000000	66.112136 
4415.000000	69.471049 
4414.000000	72.719502 
4413.000000	75.633883 
4412.000000	77.966117 
4411.000000	79.509687 
4410.000000	80.126905 
4409.000000	79.798102 
4408.000000	78.612875 
4407.000000	76.781892 
4406.000000	74.573302 
4405.000000	72.283172 
4404.000000	70.161104 
4403.000000	68.399906 
4402.000000	67.085933 
4401.000000	66.221642 
4400.000000	65.728211 
4399.000000	65.494060 
4398.000000	65.399694 
4397.000000	65.344190 
4396.000000	65.270256 
4395.000000	65.154218 
4394.000000	65.012073 
4393.000000	64.867115 
4392.000000	64.752268 
4391.000000	64.685964 
4390.000000	64.678311 
4389.000000	64.726400 
4388.000000	64.814138 
4387.000000	64.916205 
4386.000000	65.015530 
4385.000000	65.105390 
4384.000000	65.177559 
4383.000000	65.225481 
4382.000000	65.250301 
4381.000000	65.256261 
4380.000000	65.242123 
4379.000000	65.205168 
4378.000000	65.145754 
4377.000000	65.066242 
4376.000000	64.975023 
4375.000000	64.882802 
4374.000000	64.796710 
4373.000000	64.723801 
4372.000000	64.676284 
4371.000000	64.661240 
4370.000000	64.674806 
4369.000000	64.708805 
4368.000000	64.753794 
4367.000000	64.799427 
4366.000000	64.836645 
4365.000000	64.860010 
4364.000000	64.868235 
4363.000000	64.863562 
4362.000000	64.850568 
4361.000000	64.834237 
4360.000000	64.818716 
4359.000000	64.807319 
4358.000000	64.801979 
4357.000000	64.804267 
4356.000000	64.814972 
4355.000000	64.834523 
4354.000000	64.862275 
4353.000000	64.895701 
4352.000000	64.931058 
4351.000000	64.963483 
4350.000000	64.988517 
4349.000000	65.002894 
4348.000000	65.005898 
4347.000000	64.999151 
4346.000000	64.987015 
4345.000000	64.975666 
4344.000000	64.971303 
4343.000000	64.978957 
4342.000000	65.000605 
4341.000000	65.035200 
4340.000000	65.077376 
4339.000000	65.118598 
4338.000000	65.148425 
4337.000000	65.157175 
4336.000000	65.137267 
4335.000000	65.085315 
4334.000000	65.002560 
4333.000000	64.895105 
4332.000000	64.773201 
4331.000000	64.649605 
4330.000000	64.537405 
4329.000000	64.447832 
4328.000000	64.388751 
4327.000000	64.363312 
4326.000000	64.369797 
4325.000000	64.402437 
4324.000000	64.452981 
4323.000000	64.512419 
4322.000000	64.571881 
4321.000000	64.624738 
4320.000000	64.665842 
4319.000000	64.693140 
4318.000000	64.705944 
4317.000000	64.706277 
4316.000000	64.697623 
4315.000000	64.684820 
4314.000000	64.673376 
4313.000000	64.668369 
4312.000000	64.673495 
4311.000000	64.690303 
4310.000000	64.717984 
4309.000000	64.753508 
4308.000000	64.792037 
4307.000000	64.828038 
4306.000000	64.856338 
4305.000000	64.872670 
4304.000000	64.874577 
4303.000000	64.861464 
4302.000000	64.834785 
4301.000000	64.797091 
4300.000000	64.752054 
4299.000000	64.704084 
4298.000000	64.658164 
4297.000000	64.619445 
4296.000000	64.592480 
4295.000000	64.581418 
4294.000000	64.588379 
4293.000000	64.613676 
4292.000000	64.655065 
4291.000000	64.707469 
4290.000000	64.764451 
4289.000000	64.819002 
4288.000000	64.864969 
4287.000000	64.898061 
4286.000000	64.916419 
4285.000000	64.920496 
4284.000000	64.912748 
4283.000000	64.896655 
4282.000000	64.875841 
4281.000000	64.853310 
4280.000000	64.831566 
4279.000000	64.812397 
4278.000000	64.797306 
4277.000000	64.787292 
4276.000000	64.783453 
4275.000000	64.786076 
4274.000000	64.794182 
4273.000000	64.805340 
4272.000000	64.815378 
4271.000000	64.819383 
4270.000000	64.812350 
4269.000000	64.790940 
4268.000000	64.754557 
4267.000000	64.705872 
4266.000000	64.650559 
4265.000000	64.596438 
4264.000000	64.551734 
4263.000000	64.523434 
4262.000000	64.515328 
4261.000000	64.527750 
4260.000000	64.557194 
4259.000000	64.597773 
4258.000000	64.642667 
4257.000000	64.685773 
4256.000000	64.722800 
4255.000000	64.751982 
4254.000000	64.774107 
4253.000000	64.791703 
4252.000000	64.808034 
4251.000000	64.826178 
4250.000000	64.848279 
4249.000000	64.875316 
4248.000000	64.906620 
4247.000000	64.940547 
4246.000000	64.974260 
4245.000000	65.004420 
4244.000000	65.027427 
4243.000000	65.040087 
4242.000000	65.040135 
4241.000000	65.026688 
4240.000000	65.000772 
4239.000000	64.965343 
4238.000000	64.925026 
4237.000000	64.885544 
4236.000000	64.852309 
4235.000000	64.829587 
4234.000000	64.819622 
4233.000000	64.822220 
4232.000000	64.835214 
4231.000000	64.855051 
4230.000000	64.878296 
4229.000000	64.902400 
4228.000000	64.926433 
4227.000000	64.950776 
4226.000000	64.976382 
4225.000000	65.003609 
4224.000000	65.031409 
4223.000000	65.056800 
4222.000000	65.075039 
4221.000000	65.080595 
4220.000000	65.068888 
4219.000000	65.037536 
4218.000000	64.987850 
4217.000000	64.924597 
4216.000000	64.855480 
4215.000000	64.789319 
4214.000000	64.734339 
4213.000000	64.696383 
4212.000000	64.677619 
4211.000000	64.676642 
4210.000000	64.689302 
4209.000000	64.709997 
4208.000000	64.732956 
4207.000000	64.753890 
4206.000000	64.770603 
4205.000000	64.783024 
4204.000000	64.792108 
4203.000000	64.799427 
4202.000000	64.806008 
4201.000000	64.812302 
4200.000000	64.817786 
4199.000000	64.821767 
4198.000000	64.823698 
4197.000000	64.823770 
4196.000000	64.823150 
4195.000000	64.823317 
4194.000000	64.825868 
4193.000000	64.831829 
4192.000000	64.841675 
4191.000000	64.854454 
4190.000000	64.868998 
4189.000000	64.884090 
4188.000000	64.899396 
4187.000000	64.915680 
4186.000000	64.934968 
4185.000000	64.959621 
4184.000000	64.991879 
4183.000000	65.032982 
4182.000000	65.082359 
4181.000000	65.137577 
4180.000000	65.194392 
4179.000000	65.247797 
4178.000000	65.292787 
4177.000000	65.325546 
4176.000000	65.343713 
4175.000000	65.346932 
4174.000000	65.336871 
4173.000000	65.316867 
4172.000000	65.290975 
4171.000000	65.263009 
4170.000000	65.235686 
4169.000000	65.210318 
4168.000000	65.186858 
4167.000000	65.164232 
4166.000000	65.141224 
4165.000000	65.116882 
4164.000000	65.091395 
4163.000000	65.066146 
4162.000000	65.043091 
4161.000000	65.024518 
4160.000000	65.012311 
4159.000000	65.007138 
