PE IR       SPECTRUM    SPECTRUM    ASCII       PEDS        1.60        
  -1
BZ6D24~1.ASC
17/04/07
16:59:02.00
17/04/07
16:59:02.00
tln
$BZ1503107-1_t0045$<tbV0>[13.0,-2.6,8.0,0.0,27,1,0]
370.000000
64









2002,4.07    
MIRTGS : RIGHTBACK : INTERNAL 2
MIR : ON : INTERNAL 2
OPTKBR

0.200000
8
8.000000
FILLER
RATIO
SPECTRUM
UNLOCKED 256

DOUBLE
64
COMBINED
1
0
0


1.000000
RATIO


1
0
TRUE
51149
0
LEFT NOT FITTED RIGHT NOT FITTED 0
NONE
NONE
15600
12.000000
4.427000
51148
TRUE
1 0 8 72 0 0 0 0 

15798.010000






#HDR
-1
-1
#GR
CM-1
%T
0.00002384185791015625
0.0
5000.000000
-1.000000
4631
8
75.853323
53.018093
#DATA
5000.000000	65.238738 
4999.000000	65.252256 
4998.000000	65.296196 
4997.000000	65.362405 
4996.000000	65.436530 
4995.000000	65.501856 
4994.000000	65.542602 
4993.000000	65.548014 
4992.000000	65.514254 
4991.000000	65.445470 
4990.000000	65.351557 
4989.000000	65.244674 
4988.000000	65.137386 
4987.000000	65.040087 
4986.000000	64.959454 
4985.000000	64.897894 
4984.000000	64.854407 
4983.000000	64.826083 
4982.000000	64.809060 
4981.000000	64.800405 
4980.000000	64.799141 
4979.000000	64.807295 
4978.000000	64.827752 
4977.000000	64.864468 
4976.000000	64.921379 
4975.000000	65.000534 
4974.000000	65.101504 
4973.000000	65.218734 
4972.000000	65.342593 
4971.000000	65.458655 
4970.000000	65.550923 
4969.000000	65.603756 
4968.000000	65.605735 
4967.000000	65.551996 
4966.000000	65.446615 
4965.000000	65.301346 
4964.000000	65.134024 
4963.000000	64.964699 
4962.000000	64.812469 
4961.000000	64.691615 
4960.000000	64.609766 
4959.000000	64.567470 
4958.000000	64.559793 
4957.000000	64.577484 
4956.000000	64.609885 
4955.000000	64.647364 
4954.000000	64.683270 
4953.000000	64.713859 
4952.000000	64.738631 
4951.000000	64.758276 
4950.000000	64.773964 
4949.000000	64.786648 
4948.000000	64.796233 
4947.000000	64.801859 
4946.000000	64.801788 
4945.000000	64.794087 
4944.000000	64.777398 
4943.000000	64.751434 
4942.000000	64.717745 
4941.000000	64.679574 
4940.000000	64.641809 
4939.000000	64.609646 
4938.000000	64.588403 
4937.000000	64.581942 
4936.000000	64.592695 
4935.000000	64.620780 
4934.000000	64.664769 
4933.000000	64.721608 
4932.000000	64.788055 
4931.000000	64.860916 
4930.000000	64.936280 
4929.000000	65.009188 
4928.000000	65.073657 
4927.000000	65.123081 
4926.000000	65.150165 
4925.000000	65.148663 
4924.000000	65.114736 
4923.000000	65.048980 
4922.000000	64.957666 
4921.000000	64.852547 
4920.000000	64.749407 
4919.000000	64.664864 
4918.000000	64.613389 
4917.000000	64.603567 
4916.000000	64.636230 
4915.000000	64.704179 
4914.000000	64.793753 
4913.000000	64.888501 
4912.000000	64.972257 
4911.000000	65.033888 
4910.000000	65.068769 
4909.000000	65.079808 
4908.000000	65.075159 
4907.000000	65.066027 
4906.000000	65.062904 
4905.000000	65.072965 
4904.000000	65.098214 
4903.000000	65.135407 
4902.000000	65.177440 
4901.000000	65.215921 
4900.000000	65.243673 
4899.000000	65.256476 
4898.000000	65.254044 
4897.000000	65.239095 
4896.000000	65.216445 
4895.000000	65.191340 
4894.000000	65.167999 
4893.000000	65.148830 
4892.000000	65.134215 
4891.000000	65.123772 
4890.000000	65.116500 
4889.000000	65.112471 
4888.000000	65.111660 
4887.000000	65.114521 
4886.000000	65.120482 
4885.000000	65.127754 
4884.000000	65.133118 
4883.000000	65.132379 
4882.000000	65.121626 
4881.000000	65.097880 
4880.000000	65.061378 
4879.000000	65.016078 
4878.000000	64.969110 
4877.000000	64.929080 
4876.000000	64.904332 
4875.000000	64.900517 
4874.000000	64.919281 
4873.000000	64.957594 
4872.000000	65.008258 
4871.000000	65.061593 
4870.000000	65.107941 
4869.000000	65.139579 
4868.000000	65.152287 
4867.000000	65.145635 
4866.000000	65.122294 
4865.000000	65.087056 
4864.000000	65.045428 
4863.000000	65.002036 
4862.000000	64.960241 
4861.000000	64.920997 
4860.000000	64.883947 
4859.000000	64.847254 
4858.000000	64.809393 
4857.000000	64.769029 
4856.000000	64.726018 
4855.000000	64.681410 
4854.000000	64.636945 
4853.000000	64.595222 
4852.000000	64.558649 
4851.000000	64.529991 
4850.000000	64.511609 
4849.000000	64.505743 
4848.000000	64.514088 
4847.000000	64.538002 
4846.000000	64.577889 
4845.000000	64.632749 
4844.000000	64.699482 
4843.000000	64.773178 
4842.000000	64.846968 
4841.000000	64.912223 
4840.000000	64.960026 
4839.000000	64.982533 
4838.000000	64.974784 
4837.000000	64.936423 
4836.000000	64.871644 
4835.000000	64.789199 
4834.000000	64.700365 
4833.000000	64.616727 
4832.000000	64.548158 
4831.000000	64.501047 
4830.000000	64.477658 
4829.000000	64.475870 
4828.000000	64.491105 
4827.000000	64.517879 
4826.000000	64.551568 
4825.000000	64.589047 
4824.000000	64.629483 
4823.000000	64.673399 
4822.000000	64.721775 
4821.000000	64.774775 
4820.000000	64.831042 
4819.000000	64.887619 
4818.000000	64.940977 
4817.000000	64.987564 
4816.000000	65.025019 
4815.000000	65.051937 
4814.000000	65.068554 
4813.000000	65.075397 
4812.000000	65.073204 
4811.000000	65.062189 
4810.000000	65.042543 
4809.000000	65.014886 
4808.000000	64.980983 
4807.000000	64.943933 
4806.000000	64.908194 
4805.000000	64.879226 
4804.000000	64.862489 
4803.000000	64.862322 
4802.000000	64.880371 
4801.000000	64.915704 
4800.000000	64.964628 
4799.000000	65.021586 
4798.000000	65.080142 
4797.000000	65.134167 
4796.000000	65.178704 
4795.000000	65.210151 
4794.000000	65.226483 
4793.000000	65.226578 
4792.000000	65.209889 
4791.000000	65.176773 
4790.000000	65.128684 
4789.000000	65.068292 
4788.000000	64.999914 
4787.000000	64.929223 
4786.000000	64.863181 
4785.000000	64.808511 
4784.000000	64.771318 
4783.000000	64.756107 
4782.000000	64.765381 
4781.000000	64.798474 
4780.000000	64.852595 
4779.000000	64.922952 
4778.000000	65.003633 
4777.000000	65.088152 
4776.000000	65.170049 
4775.000000	65.242910 
4774.000000	65.301132 
4773.000000	65.340304 
4772.000000	65.357518 
4771.000000	65.351581 
4770.000000	65.323543 
4769.000000	65.276789 
4768.000000	65.216398 
4767.000000	65.148949 
4766.000000	65.081167 
4765.000000	65.019345 
4764.000000	64.968848 
4763.000000	64.933514 
4762.000000	64.915394 
4761.000000	64.914321 
4760.000000	64.927983 
4759.000000	64.952206 
4758.000000	64.981341 
4757.000000	65.009379 
4756.000000	65.030193 
4755.000000	65.039515 
4754.000000	65.034866 
4753.000000	65.017414 
4752.000000	64.990949 
4751.000000	64.962244 
4750.000000	64.939212 
4749.000000	64.929676 
4748.000000	64.939665 
4747.000000	64.971399 
4746.000000	65.022659 
4745.000000	65.087056 
4744.000000	65.155482 
4743.000000	65.217232 
4742.000000	65.262436 
4741.000000	65.283918 
4740.000000	65.278744 
4739.000000	65.248632 
4738.000000	65.199542 
4737.000000	65.140271 
4736.000000	65.080451 
4735.000000	65.029358 
4734.000000	64.993762 
4733.000000	64.977192 
4732.000000	64.979314 
4731.000000	64.996767 
4730.000000	65.024256 
4729.000000	65.055513 
4728.000000	65.085005 
4727.000000	65.108633 
4726.000000	65.124487 
4725.000000	65.132164 
4724.000000	65.132808 
4723.000000	65.128302 
4722.000000	65.120077 
4721.000000	65.108704 
4720.000000	65.093493 
4719.000000	65.073084 
4718.000000	65.045881 
4717.000000	65.010952 
4716.000000	64.968967 
4715.000000	64.922547 
4714.000000	64.876365 
4713.000000	64.836335 
4712.000000	64.808416 
4711.000000	64.796900 
4710.000000	64.803409 
4709.000000	64.825892 
4708.000000	64.858579 
4707.000000	64.893412 
4706.000000	64.921140 
4705.000000	64.934659 
4704.000000	64.929866 
4703.000000	64.908432 
4702.000000	64.876651 
4701.000000	64.845442 
4700.000000	64.827227 
4699.000000	64.833331 
4698.000000	64.871335 
4697.000000	64.942765 
4696.000000	65.042233 
4695.000000	65.158462 
4694.000000	65.277361 
4693.000000	65.384292 
4692.000000	65.467357 
4691.000000	65.519690 
4690.000000	65.540385 
4689.000000	65.534138 
4688.000000	65.509676 
4687.000000	65.477180 
4686.000000	65.445995 
4685.000000	65.422868 
4684.000000	65.410804 
4683.000000	65.409207 
4682.000000	65.414428 
4681.000000	65.421915 
4680.000000	65.427446 
4679.000000	65.428376 
4678.000000	65.424346 
4677.000000	65.417003 
4676.000000	65.409159 
4675.000000	65.403985 
4674.000000	65.403199 
4673.000000	65.406608 
4672.000000	65.411138 
4671.000000	65.411925 
4670.000000	65.402650 
4669.000000	65.377664 
4668.000000	65.333509 
4667.000000	65.270280 
4666.000000	65.192270 
4665.000000	65.107131 
4664.000000	65.024828 
4663.000000	64.955759 
4662.000000	64.908170 
4661.000000	64.886355 
4660.000000	64.889979 
4659.000000	64.914536 
4658.000000	64.952349 
4657.000000	64.994668 
4656.000000	65.033578 
4655.000000	65.063858 
4654.000000	65.083694 
4653.000000	65.094590 
4652.000000	65.099787 
4651.000000	65.103363 
4650.000000	65.108251 
4649.000000	65.115761 
4648.000000	65.125775 
4647.000000	65.136480 
4646.000000	65.145826 
4645.000000	65.151453 
4644.000000	65.151977 
4643.000000	65.146493 
4642.000000	65.134859 
4641.000000	65.117526 
4640.000000	65.095186 
4639.000000	65.069437 
4638.000000	65.042090 
4637.000000	65.016126 
4636.000000	64.995408 
4635.000000	64.984154 
4634.000000	64.986371 
4633.000000	65.004324 
4632.000000	65.037894 
4631.000000	65.084195 
4630.000000	65.138077 
4629.000000	65.193152 
4628.000000	65.243124 
4627.000000	65.283226 
4626.000000	65.310454 
4625.000000	65.324282 
4624.000000	65.325284 
4623.000000	65.314841 
4622.000000	65.293717 
4621.000000	65.262389 
4620.000000	65.220499 
4619.000000	65.168499 
4618.000000	65.107345 
4617.000000	65.039849 
4616.000000	64.969778 
4615.000000	64.902257 
4614.000000	64.842009 
4613.000000	64.792513 
4612.000000	64.754939 
4611.000000	64.728021 
4610.000000	64.708590 
4609.000000	64.692640 
4608.000000	64.676976 
4607.000000	64.660072 
4606.000000	64.642095 
4605.000000	64.624714 
4604.000000	64.609932 
4603.000000	64.599418 
4602.000000	64.593720 
4601.000000	64.592242 
4600.000000	64.593052 
4599.000000	64.593839 
4598.000000	64.593052 
4597.000000	64.590573 
4596.000000	64.587736 
4595.000000	64.587235 
4594.000000	64.592480 
4593.000000	64.606428 
4592.000000	64.630603 
4591.000000	64.664196 
4590.000000	64.703631 
4589.000000	64.743256 
4588.000000	64.776897 
4587.000000	64.799118 
4586.000000	64.806342 
4585.000000	64.798665 
4584.000000	64.779853 
4583.000000	64.756846 
4582.000000	64.737892 
4581.000000	64.731001 
4580.000000	64.741897 
4579.000000	64.771604 
4578.000000	64.815902 
4577.000000	64.866089 
4576.000000	64.910721 
4575.000000	64.938259 
4574.000000	64.939880 
4573.000000	64.911675 
4572.000000	64.855647 
4571.000000	64.779257 
4570.000000	64.694046 
4569.000000	64.612269 
4568.000000	64.545369 
4567.000000	64.501738 
4566.000000	64.485621 
4565.000000	64.496779 
4564.000000	64.531230 
4563.000000	64.582896 
4562.000000	64.644813 
4561.000000	64.710021 
4560.000000	64.773106 
4559.000000	64.829993 
4558.000000	64.878559 
4557.000000	64.917564 
4556.000000	64.947295 
4555.000000	64.968800 
4554.000000	64.983868 
4553.000000	64.994406 
4552.000000	65.002346 
4551.000000	65.009260 
4550.000000	65.016245 
4549.000000	65.023350 
4548.000000	65.029668 
4547.000000	65.032911 
4546.000000	65.030455 
4545.000000	65.019249 
4544.000000	64.996910 
4543.000000	64.961838 
4542.000000	64.913797 
4541.000000	64.853835 
4540.000000	64.784264 
4539.000000	64.708781 
4538.000000	64.631915 
4537.000000	64.559030 
4536.000000	64.495205 
4535.000000	64.445090 
4534.000000	64.412260 
4533.000000	64.398479 
4532.000000	64.403152 
4531.000000	64.423012 
4530.000000	64.452195 
4529.000000	64.483523 
4528.000000	64.509773 
4527.000000	64.525151 
4526.000000	64.526057 
4525.000000	64.512705 
4524.000000	64.488530 
4523.000000	64.459586 
4522.000000	64.432549 
4521.000000	64.412760 
4520.000000	64.402604 
4519.000000	64.401054 
4518.000000	64.403986 
4517.000000	64.405918 
4516.000000	64.401984 
4515.000000	64.389610 
4514.000000	64.369845 
4513.000000	64.346885 
4512.000000	64.327430 
4511.000000	64.318323 
4510.000000	64.324903 
4509.000000	64.349198 
4508.000000	64.389204 
4507.000000	64.439558 
4506.000000	64.492321 
4505.000000	64.539337 
4504.000000	64.573645 
4503.000000	64.591073 
4502.000000	64.590477 
4501.000000	64.573645 
4500.000000	64.544916 
4499.000000	64.509844 
4498.000000	64.474749 
4497.000000	64.445447 
4496.000000	64.426755 
4495.000000	64.421582 
4494.000000	64.430022 
4493.000000	64.449191 
4492.000000	64.473485 
4491.000000	64.495897 
4490.000000	64.509344 
4489.000000	64.508366 
4488.000000	64.490866 
4487.000000	64.458203 
4486.000000	64.415383 
4485.000000	64.369058 
4484.000000	64.325737 
4483.000000	64.289355 
4482.000000	64.260792 
4481.000000	64.236950 
4480.000000	64.212203 
4479.000000	64.180231 
4478.000000	64.136123 
4477.000000	64.078927 
4476.000000	64.011883 
4475.000000	63.942742 
4474.000000	63.881826 
4473.000000	63.839101 
4472.000000	63.820743 
4471.000000	63.829088 
4470.000000	63.861989 
4469.000000	63.913607 
4468.000000	63.975715 
4467.000000	64.039874 
4466.000000	64.099025 
4465.000000	64.148712 
4464.000000	64.186859 
4463.000000	64.212846 
4462.000000	64.226031 
4461.000000	64.226460 
4460.000000	64.213204 
4459.000000	64.181089 
4458.000000	64.125108 
4457.000000	64.046502 
4456.000000	63.950943 
4455.000000	63.846325 
4454.000000	63.744044 
4453.000000	63.660645 
4452.000000	63.608860 
4451.000000	63.594698 
4450.000000	63.613462 
4449.000000	63.650751 
4448.000000	63.683772 
4447.000000	63.687181 
4446.000000	63.639497 
4445.000000	63.528656 
4444.000000	63.359022 
4443.000000	63.150930 
4442.000000	62.935900 
4441.000000	62.749052 
4440.000000	62.617492 
4439.000000	62.556815 
4438.000000	62.561869 
4437.000000	62.619090 
4436.000000	62.712216 
4435.000000	62.840223 
4434.000000	63.016200 
4433.000000	63.276147 
4432.000000	63.667154 
4431.000000	64.238047 
4430.000000	65.016460 
4429.000000	65.998983 
4428.000000	67.145466 
4427.000000	68.375849 
4426.000000	69.588017 
4425.000000	70.664954 
4424.000000	71.500658 
4423.000000	72.014760 
4422.000000	72.171497 
4421.000000	71.983432 
4420.000000	71.511030 
4419.000000	70.848059 
4418.000000	70.106220 
4417.000000	69.386911 
4416.000000	68.765211 
4415.000000	68.278360 
4414.000000	67.926645 
4413.000000	67.685174 
4412.000000	67.516279 
4411.000000	67.384839 
4410.000000	67.266321 
4409.000000	67.145395 
4408.000000	67.018628 
4407.000000	66.879558 
4406.000000	66.726446 
4405.000000	66.556572 
4404.000000	66.372418 
4403.000000	66.180276 
4402.000000	65.991854 
4401.000000	65.824508 
4400.000000	65.695095 
4399.000000	65.612363 
4398.000000	65.578269 
4397.000000	65.587496 
4396.000000	65.627455 
4395.000000	65.678930 
4394.000000	65.724086 
4393.000000	65.751504 
4392.000000	65.754437 
4391.000000	65.730857 
4390.000000	65.682315 
4389.000000	65.611767 
4388.000000	65.521860 
4387.000000	65.414428 
4386.000000	65.289330 
4385.000000	65.146589 
4384.000000	64.992547 
4383.000000	64.839100 
4382.000000	64.700555 
4381.000000	64.591741 
4380.000000	64.524269 
4379.000000	64.504003 
4378.000000	64.528346 
4377.000000	64.587330 
4376.000000	64.665746 
4375.000000	64.746379 
4374.000000	64.812779 
4373.000000	64.853549 
4372.000000	64.863300 
4371.000000	64.843940 
4370.000000	64.802241 
4369.000000	64.749073 
4368.000000	64.696264 
4367.000000	64.653944 
4366.000000	64.628076 
4365.000000	64.620804 
4364.000000	64.630818 
4363.000000	64.654159 
4362.000000	64.685487 
4361.000000	64.719367 
4360.000000	64.751029 
4359.000000	64.776158 
4358.000000	64.791035 
4357.000000	64.793038 
4356.000000	64.780545 
4355.000000	64.752960 
4354.000000	64.710712 
4353.000000	64.656496 
4352.000000	64.593911 
4351.000000	64.527034 
4350.000000	64.459300 
4349.000000	64.393544 
4348.000000	64.331603 
4347.000000	64.274144 
4346.000000	64.221930 
4345.000000	64.175844 
4344.000000	64.138436 
4343.000000	64.113545 
4342.000000	64.106082 
4341.000000	64.120101 
4340.000000	64.157915 
4339.000000	64.218521 
4338.000000	64.297413 
4337.000000	64.386653 
4336.000000	64.476799 
4335.000000	64.558434 
4334.000000	64.624643 
4333.000000	64.672303 
4332.000000	64.702153 
4331.000000	64.718270 
4330.000000	64.726424 
4329.000000	64.731955 
4328.000000	64.738845 
4327.000000	64.747929 
4326.000000	64.757871 
4325.000000	64.764952 
4324.000000	64.765334 
4323.000000	64.755463 
4322.000000	64.734125 
4321.000000	64.702153 
4320.000000	64.662623 
4319.000000	64.620113 
4318.000000	64.579725 
4317.000000	64.546442 
4316.000000	64.523911 
4315.000000	64.514374 
4314.000000	64.518547 
4313.000000	64.535593 
4312.000000	64.563226 
4311.000000	64.598202 
4310.000000	64.636611 
4309.000000	64.674782 
4308.000000	64.709496 
4307.000000	64.738464 
4306.000000	64.760112 
4305.000000	64.774203 
4304.000000	64.781165 
4303.000000	64.781808 
4302.000000	64.776587 
4301.000000	64.765548 
4300.000000	64.748144 
4299.000000	64.723706 
4298.000000	64.691948 
4297.000000	64.653348 
4296.000000	64.609718 
4295.000000	64.564156 
4294.000000	64.520692 
4293.000000	64.483261 
4292.000000	64.455199 
4291.000000	64.438056 
4290.000000	64.432048 
4289.000000	64.435696 
4288.000000	64.446640 
4287.000000	64.462399 
4286.000000	64.480638 
4285.000000	64.499378 
4284.000000	64.517045 
4283.000000	64.532399 
4282.000000	64.544129 
4281.000000	64.550757 
4280.000000	64.551019 
4279.000000	64.544391 
4278.000000	64.531946 
4277.000000	64.516568 
4276.000000	64.503002 
4275.000000	64.496636 
4274.000000	64.502263 
4273.000000	64.522552 
4272.000000	64.557147 
4271.000000	64.602446 
4270.000000	64.652252 
4269.000000	64.699220 
4268.000000	64.736914 
4267.000000	64.760994 
4266.000000	64.769911 
4265.000000	64.765501 
4264.000000	64.751982 
4263.000000	64.735388 
4262.000000	64.721584 
4261.000000	64.715504 
4260.000000	64.720082 
4259.000000	64.735865 
4258.000000	64.761281 
4257.000000	64.792847 
4256.000000	64.826440 
4255.000000	64.857649 
4254.000000	64.882993 
4253.000000	64.900112 
4252.000000	64.908146 
4251.000000	64.908027 
4250.000000	64.902138 
4249.000000	64.893770 
4248.000000	64.886331 
4247.000000	64.882636 
4246.000000	64.884209 
4245.000000	64.891338 
4244.000000	64.902997 
4243.000000	64.917802 
4242.000000	64.934325 
4241.000000	64.951848 
4240.000000	64.970135 
4239.000000	64.989638 
4238.000000	65.010356 
4237.000000	65.031480 
4236.000000	65.051150 
4235.000000	65.066599 
4234.000000	65.074849 
4233.000000	65.073418 
4232.000000	65.061092 
4231.000000	65.038633 
4230.000000	65.008831 
4229.000000	64.976310 
4228.000000	64.945983 
4227.000000	64.922046 
4226.000000	64.906740 
4225.000000	64.900159 
4224.000000	64.900088 
4223.000000	64.903092 
4222.000000	64.905524 
4221.000000	64.904904 
4220.000000	64.900612 
4219.000000	64.894247 
4218.000000	64.888906 
4217.000000	64.888238 
4216.000000	64.894962 
4215.000000	64.909815 
4214.000000	64.931082 
4213.000000	64.954733 
4212.000000	64.975643 
4211.000000	64.988708 
4210.000000	64.990139 
4209.000000	64.979124 
4208.000000	64.957880 
4207.000000	64.931583 
4206.000000	64.906787 
4205.000000	64.890193 
4204.000000	64.886951 
4203.000000	64.899587 
4202.000000	64.927339 
4201.000000	64.966607 
4200.000000	65.012025 
4199.000000	65.057468 
4198.000000	65.097641 
4197.000000	65.128755 
4196.000000	65.149235 
4195.000000	65.159630 
4194.000000	65.162181 
4193.000000	65.159797 
4192.000000	65.155220 
4191.000000	65.150976 
4190.000000	65.148091 
4189.000000	65.146541 
4188.000000	65.144753 
4187.000000	65.140771 
4186.000000	65.132212 
4185.000000	65.116715 
4184.000000	65.092945 
4183.000000	65.060424 
4182.000000	65.020561 
4181.000000	64.976191 
4180.000000	64.931440 
4179.000000	64.890933 
4178.000000	64.858818 
4177.000000	64.837741 
4176.000000	64.828372 
4175.000000	64.829301 
4174.000000	64.837193 
4173.000000	64.847898 
4172.000000	64.857411 
4171.000000	64.863204 
4170.000000	64.864635 
4169.000000	64.863181 
4168.000000	64.861655 
4167.000000	64.863753 
4166.000000	64.873433 
4165.000000	64.893770 
4164.000000	64.926028 
4163.000000	64.969062 
4162.000000	65.020084 
4161.000000	65.074276 
4160.000000	65.126061 
4159.000000	65.169477 
