PE IR       SPECTRUM    SPECTRUM    ASCII       PEDS        1.60        
  -1
BZ6BA3~1.ASC
17/04/07
17:36:00.00
17/04/07
17:36:00.00
tln
$BZ1503107-1_t0053$<tbV0>[-7.8,-2.6,8.0,0.0,27,1,0]
370.000000
64









2002,4.07    
MIRTGS : RIGHTBACK : INTERNAL 2
MIR : ON : INTERNAL 2
OPTKBR

0.200000
8
8.000000
FILLER
RATIO
SPECTRUM
UNLOCKED 256

DOUBLE
64
COMBINED
1
0
0


1.000000
RATIO


1
0
TRUE
51149
0
LEFT NOT FITTED RIGHT NOT FITTED 0
NONE
NONE
15600
12.000000
4.427000
51148
TRUE
1 0 8 72 0 0 0 0 

15798.010000






#HDR
-1
-1
#GR
CM-1
%T
0.00002384185791015625
0.0
5000.000000
-1.000000
4631
8
81.593704
48.880791
#DATA
5000.000000	65.580058 
4999.000000	65.865612 
4998.000000	66.117548 
4997.000000	66.320776 
4996.000000	66.464614 
4995.000000	66.543197 
4994.000000	66.556119 
4993.000000	66.510510 
4992.000000	66.417908 
4991.000000	66.296362 
4990.000000	66.162419 
4989.000000	66.032743 
4988.000000	65.913510 
4987.000000	65.802097 
4986.000000	65.684390 
4985.000000	65.541005 
4984.000000	65.351343 
4983.000000	65.101766 
4982.000000	64.792108 
4981.000000	64.439606 
4980.000000	64.075469 
4979.000000	63.741397 
4978.000000	63.479757 
4977.000000	63.326978 
4976.000000	63.304758 
4975.000000	63.417434 
4974.000000	63.649988 
4973.000000	63.972520 
4972.000000	64.346051 
4971.000000	64.729404 
4970.000000	65.083599 
4969.000000	65.378165 
4968.000000	65.593194 
4967.000000	65.719723 
4966.000000	65.757203 
4965.000000	65.712070 
4964.000000	65.596294 
4963.000000	65.424609 
4962.000000	65.215611 
4961.000000	64.987993 
4960.000000	64.761257 
4959.000000	64.553117 
4958.000000	64.379954 
4957.000000	64.252471 
4956.000000	64.175152 
4955.000000	64.145660 
4954.000000	64.155817 
4953.000000	64.191436 
4952.000000	64.235663 
4951.000000	64.272069 
4950.000000	64.288330 
4949.000000	64.276528 
4948.000000	64.235854 
4947.000000	64.171481 
4946.000000	64.093708 
4945.000000	64.013481 
4944.000000	63.941335 
4943.000000	63.884878 
4942.000000	63.848447 
4941.000000	63.833498 
4940.000000	63.838768 
4939.000000	63.860726 
4938.000000	63.895344 
4937.000000	63.939738 
4936.000000	63.990855 
4935.000000	64.044809 
4934.000000	64.097261 
4933.000000	64.142799 
4932.000000	64.176583 
4931.000000	64.194822 
4930.000000	64.196777 
4929.000000	64.184975 
4928.000000	64.166331 
4927.000000	64.150619 
4926.000000	64.147162 
4925.000000	64.162755 
4924.000000	64.199686 
4923.000000	64.255571 
4922.000000	64.324164 
4921.000000	64.397215 
4920.000000	64.467167 
4919.000000	64.528822 
4918.000000	64.580869 
4917.000000	64.625048 
4916.000000	64.664936 
4915.000000	64.703822 
4914.000000	64.742732 
4913.000000	64.780020 
4912.000000	64.811635 
4911.000000	64.832663 
4910.000000	64.839696 
4909.000000	64.831423 
4908.000000	64.810347 
4907.000000	64.780926 
4906.000000	64.748811 
4905.000000	64.718627 
4904.000000	64.692807 
4903.000000	64.672183 
4902.000000	64.656209 
4901.000000	64.644408 
4900.000000	64.636540 
4899.000000	64.632558 
4898.000000	64.632225 
4897.000000	64.633870 
4896.000000	64.634799 
4895.000000	64.631080 
4894.000000	64.619159 
4893.000000	64.596962 
4892.000000	64.565086 
4891.000000	64.527177 
4890.000000	64.488935 
4889.000000	64.457416 
4888.000000	64.438033 
4887.000000	64.433526 
4886.000000	64.442110 
4885.000000	64.457488 
4884.000000	64.470672 
4883.000000	64.472413 
4882.000000	64.456200 
4881.000000	64.420151 
4880.000000	64.368200 
4879.000000	64.309024 
4878.000000	64.254236 
4877.000000	64.214849 
4876.000000	64.199352 
4875.000000	64.211368 
4874.000000	64.249181 
4873.000000	64.306116 
4872.000000	64.372587 
4871.000000	64.438676 
4870.000000	64.495992 
4869.000000	64.540004 
4868.000000	64.571022 
4867.000000	64.593958 
4866.000000	64.615845 
4865.000000	64.643836 
4864.000000	64.682698 
4863.000000	64.733123 
4862.000000	64.791846 
4861.000000	64.851713 
4860.000000	64.904403 
4859.000000	64.941692 
4858.000000	64.959168 
4857.000000	64.955830 
4856.000000	64.934659 
4855.000000	64.901232 
4854.000000	64.862298 
4853.000000	64.823770 
4852.000000	64.789581 
4851.000000	64.760756 
4850.000000	64.735960 
4849.000000	64.712119 
4848.000000	64.685702 
4847.000000	64.653658 
4846.000000	64.614295 
4845.000000	64.566802 
4844.000000	64.511418 
4843.000000	64.448475 
4842.000000	64.379048 
4841.000000	64.304757 
4840.000000	64.228892 
4839.000000	64.155507 
4838.000000	64.090538 
4837.000000	64.040756 
4836.000000	64.013314 
4835.000000	64.013361 
4834.000000	64.043545 
4833.000000	64.102768 
4832.000000	64.186167 
4831.000000	64.285230 
4830.000000	64.389252 
4829.000000	64.486622 
4828.000000	64.567184 
4827.000000	64.623498 
4826.000000	64.652419 
4825.000000	64.655256 
4824.000000	64.637136 
4823.000000	64.605832 
4822.000000	64.569473 
4821.000000	64.534807 
4820.000000	64.506292 
4819.000000	64.485406 
4818.000000	64.471101 
4817.000000	64.460587 
4816.000000	64.450979 
4815.000000	64.440274 
4814.000000	64.427566 
4813.000000	64.413499 
4812.000000	64.399433 
4811.000000	64.387488 
4810.000000	64.378905 
4809.000000	64.374613 
4808.000000	64.374566 
4807.000000	64.378881 
4806.000000	64.387464 
4805.000000	64.400792 
4804.000000	64.419960 
4803.000000	64.445924 
4802.000000	64.479160 
4801.000000	64.518523 
4800.000000	64.561247 
4799.000000	64.602780 
4798.000000	64.637684 
4797.000000	64.660549 
4796.000000	64.667248 
4795.000000	64.656043 
4794.000000	64.628243 
4793.000000	64.588046 
4792.000000	64.541769 
4791.000000	64.496803 
4790.000000	64.460015 
4789.000000	64.436650 
4788.000000	64.429140 
4787.000000	64.436912 
4786.000000	64.456653 
4785.000000	64.483094 
4784.000000	64.510560 
4783.000000	64.534139 
4782.000000	64.551019 
4781.000000	64.560222 
4780.000000	64.563441 
4779.000000	64.563751 
4778.000000	64.565372 
4777.000000	64.571785 
4776.000000	64.585828 
4775.000000	64.608955 
4774.000000	64.641094 
4773.000000	64.681029 
4772.000000	64.726185 
4771.000000	64.773392 
4770.000000	64.819073 
4769.000000	64.859914 
4768.000000	64.892625 
4767.000000	64.914059 
4766.000000	64.921736 
4765.000000	64.914035 
4764.000000	64.890336 
4763.000000	64.851069 
4762.000000	64.798116 
4761.000000	64.733982 
4760.000000	64.662027 
4759.000000	64.585471 
4758.000000	64.507651 
4757.000000	64.431524 
4756.000000	64.359617 
4755.000000	64.294028 
4754.000000	64.236211 
4753.000000	64.187145 
4752.000000	64.146995 
4751.000000	64.115977 
4750.000000	64.093136 
4749.000000	64.078307 
4748.000000	64.071464 
4747.000000	64.074206 
4746.000000	64.088320 
4745.000000	64.116597 
4744.000000	64.161300 
4743.000000	64.223504 
4742.000000	64.301681 
4741.000000	64.391708 
4740.000000	64.486575 
4739.000000	64.577364 
4738.000000	64.654636 
4737.000000	64.710378 
4736.000000	64.739632 
4735.000000	64.741516 
4734.000000	64.719033 
4733.000000	64.678454 
4732.000000	64.627504 
4731.000000	64.574170 
4730.000000	64.524793 
4729.000000	64.483141 
4728.000000	64.450120 
4727.000000	64.425587 
4726.000000	64.408349 
4725.000000	64.396834 
4724.000000	64.390325 
4723.000000	64.389204 
4722.000000	64.394521 
4721.000000	64.406824 
4720.000000	64.426040 
4719.000000	64.450573 
4718.000000	64.477705 
4717.000000	64.503979 
4716.000000	64.525818 
4715.000000	64.540529 
4714.000000	64.546656 
4713.000000	64.544248 
4712.000000	64.534568 
4711.000000	64.519476 
4710.000000	64.500808 
4709.000000	64.480113 
4708.000000	64.457988 
4707.000000	64.434862 
4706.000000	64.411425 
4705.000000	64.389705 
4704.000000	64.372348 
4703.000000	64.363551 
4702.000000	64.368343 
4701.000000	64.391970 
4700.000000	64.438176 
4699.000000	64.508104 
4698.000000	64.599514 
4697.000000	64.706230 
4696.000000	64.819049 
4695.000000	64.926767 
4694.000000	65.018200 
4693.000000	65.083861 
4692.000000	65.117645 
4691.000000	65.118169 
4690.000000	65.088725 
4689.000000	65.037131 
4688.000000	64.974141 
4687.000000	64.911699 
4686.000000	64.860725 
4685.000000	64.829635 
4684.000000	64.822602 
4683.000000	64.839029 
4682.000000	64.873480 
4681.000000	64.917135 
4680.000000	64.959359 
4679.000000	64.989519 
4678.000000	64.999341 
4677.000000	64.984345 
4676.000000	64.944744 
4675.000000	64.885187 
4674.000000	64.813661 
4673.000000	64.739894 
4672.000000	64.672517 
4671.000000	64.617896 
4670.000000	64.578247 
4669.000000	64.552140 
4668.000000	64.535164 
4667.000000	64.521932 
4666.000000	64.507913 
4665.000000	64.490485 
4664.000000	64.470481 
4663.000000	64.451718 
4662.000000	64.439702 
4661.000000	64.439535 
4660.000000	64.454698 
4659.000000	64.485692 
4658.000000	64.529943 
4657.000000	64.582252 
4656.000000	64.636301 
4655.000000	64.686250 
4654.000000	64.728188 
4653.000000	64.760899 
4652.000000	64.785337 
4651.000000	64.804124 
4650.000000	64.820122 
4649.000000	64.836096 
4648.000000	64.854025 
4647.000000	64.874386 
4646.000000	64.897489 
4645.000000	64.922308 
4644.000000	64.947676 
4643.000000	64.971947 
4642.000000	64.993715 
4641.000000	65.011572 
4640.000000	65.023970 
4639.000000	65.030050 
4638.000000	65.029692 
4637.000000	65.023756 
4636.000000	65.014243 
4635.000000	65.003871 
4634.000000	64.995813 
4633.000000	64.992594 
4632.000000	64.995598 
4631.000000	65.004587 
4630.000000	65.017819 
4629.000000	65.032911 
4628.000000	65.047240 
4627.000000	65.058779 
4626.000000	65.066361 
4625.000000	65.069580 
4624.000000	65.068769 
4623.000000	65.064167 
4622.000000	65.056586 
4621.000000	65.047192 
4620.000000	65.037918 
4619.000000	65.031528 
4618.000000	65.030789 
4617.000000	65.038228 
4616.000000	65.054821 
4615.000000	65.079832 
4614.000000	65.110254 
4613.000000	65.141463 
4612.000000	65.168166 
4611.000000	65.185475 
4610.000000	65.190720 
4609.000000	65.184187 
4608.000000	65.169191 
4607.000000	65.151429 
4606.000000	65.136933 
4605.000000	65.130662 
4604.000000	65.134692 
4603.000000	65.148067 
4602.000000	65.167021 
4601.000000	65.186452 
4600.000000	65.201497 
4599.000000	65.209078 
4598.000000	65.208649 
4597.000000	65.202426 
4596.000000	65.194058 
4595.000000	65.187954 
4594.000000	65.188097 
4593.000000	65.196990 
4592.000000	65.215063 
4591.000000	65.240573 
4590.000000	65.270280 
4589.000000	65.300035 
4588.000000	65.325975 
4587.000000	65.345144 
4586.000000	65.355873 
4585.000000	65.358519 
4584.000000	65.354681 
4583.000000	65.347528 
4582.000000	65.340948 
4581.000000	65.338802 
4580.000000	65.343952 
4579.000000	65.357875 
4578.000000	65.380048 
4577.000000	65.407943 
4576.000000	65.437579 
4575.000000	65.464472 
4574.000000	65.484571 
4573.000000	65.495419 
4572.000000	65.496492 
4571.000000	65.488862 
4570.000000	65.474748 
4569.000000	65.456962 
4568.000000	65.438246 
4567.000000	65.420866 
4566.000000	65.406441 
4565.000000	65.396165 
4564.000000	65.390682 
4563.000000	65.390396 
4562.000000	65.395355 
4561.000000	65.405678 
4560.000000	65.421009 
4559.000000	65.440201 
4558.000000	65.461301 
4557.000000	65.481400 
4556.000000	65.497231 
4555.000000	65.505766 
4554.000000	65.504527 
4553.000000	65.492153 
4552.000000	65.468859 
4551.000000	65.436530 
4550.000000	65.398502 
4549.000000	65.359401 
4548.000000	65.324735 
4547.000000	65.300202 
4546.000000	65.290594 
4545.000000	65.298938 
4544.000000	65.325689 
4543.000000	65.368604 
4542.000000	65.422344 
4541.000000	65.480470 
4540.000000	65.536427 
4539.000000	65.585756 
4538.000000	65.626621 
4537.000000	65.660381 
4536.000000	65.690422 
4535.000000	65.720868 
4534.000000	65.755558 
4533.000000	65.795588 
4532.000000	65.839147 
4531.000000	65.881037 
4530.000000	65.914702 
4529.000000	65.933394 
4528.000000	65.932464 
4527.000000	65.910530 
4526.000000	65.870404 
4525.000000	65.818238 
4524.000000	65.762162 
4523.000000	65.710449 
4522.000000	65.669631 
4521.000000	65.643119 
4520.000000	65.630531 
4519.000000	65.628504 
4518.000000	65.631890 
4517.000000	65.634822 
4516.000000	65.632963 
4515.000000	65.623784 
4514.000000	65.608239 
4513.000000	65.589714 
4512.000000	65.574240 
4511.000000	65.568137 
4510.000000	65.577340 
4509.000000	65.605926 
4508.000000	65.654945 
4507.000000	65.721797 
4506.000000	65.800356 
4505.000000	65.882253 
4504.000000	65.957903 
4503.000000	66.018176 
4502.000000	66.056513 
4501.000000	66.070318 
4500.000000	66.061639 
4499.000000	66.036367 
4498.000000	66.003632 
4497.000000	65.973520 
4496.000000	65.954995 
4495.000000	65.953707 
4494.000000	65.971112 
4493.000000	66.004252 
4492.000000	66.046357 
4491.000000	66.088771 
4490.000000	66.123557 
4489.000000	66.145205 
4488.000000	66.151142 
4487.000000	66.142511 
4486.000000	66.123890 
4485.000000	66.101264 
4484.000000	66.080880 
4483.000000	66.066622 
4482.000000	66.059565 
4481.000000	66.057109 
4480.000000	66.054725 
4479.000000	66.046428 
4478.000000	66.028022 
4477.000000	65.996551 
4476.000000	65.950250 
4475.000000	65.891432 
4474.000000	65.828585 
4473.000000	65.767669 
4472.000000	65.708780 
4471.000000	65.654563 
4470.000000	65.609955 
4469.000000	65.577888 
4468.000000	65.558457 
4467.000000	65.544152 
4466.000000	65.521693 
4465.000000	65.478754 
4464.000000	65.406036 
4463.000000	65.298485 
4462.000000	65.158486 
4461.000000	64.990663 
4460.000000	64.806580 
4459.000000	64.628911 
4458.000000	64.483642 
4457.000000	64.389801 
4456.000000	64.358973 
4455.000000	64.394426 
4454.000000	64.486670 
4453.000000	64.624452 
4452.000000	64.778304 
4451.000000	64.916896 
4450.000000	64.982604 
4449.000000	64.914560 
4448.000000	64.622473 
4447.000000	64.004874 
4446.000000	62.977266 
4445.000000	61.501431 
4444.000000	59.630107 
4443.000000	57.516479 
4442.000000	55.423927 
4441.000000	53.675770 
4440.000000	52.595806 
4439.000000	52.415060 
4438.000000	53.211975 
4437.000000	54.860019 
4436.000000	57.025361 
4435.000000	59.235215 
4434.000000	60.965919 
4433.000000	61.786365 
4432.000000	61.452603 
4431.000000	59.985136 
4430.000000	57.657003 
4429.000000	54.929018 
4428.000000	52.314305 
4427.000000	50.275516 
4426.000000	49.101138 
4425.000000	48.880791 
4424.000000	49.515247 
4423.000000	50.772166 
4422.000000	52.385473 
4421.000000	54.104161 
4420.000000	55.750727 
4419.000000	57.230257 
4418.000000	58.511924 
4417.000000	59.621000 
4416.000000	60.595846 
4415.000000	61.479163 
4414.000000	62.292408 
4413.000000	63.038349 
4412.000000	63.697624 
4411.000000	64.256072 
4410.000000	64.702939 
4409.000000	65.040373 
4408.000000	65.278244 
4407.000000	65.440559 
4406.000000	65.552830 
4405.000000	65.637612 
4404.000000	65.710210 
4403.000000	65.779590 
4402.000000	65.849208 
4401.000000	65.930700 
4400.000000	66.032719 
4399.000000	66.165876 
4398.000000	66.332268 
4397.000000	66.522502 
4396.000000	66.718173 
4395.000000	66.899466 
4394.000000	67.042016 
4393.000000	67.121958 
4392.000000	67.122817 
4391.000000	67.039537 
4390.000000	66.881084 
4389.000000	66.670441 
4388.000000	66.430521 
4387.000000	66.180062 
4386.000000	65.937972 
4385.000000	65.720486 
4384.000000	65.537500 
4383.000000	65.393400 
4382.000000	65.291833 
4381.000000	65.234589 
4380.000000	65.217113 
4379.000000	65.232253 
4378.000000	65.272164 
4377.000000	65.329194 
4376.000000	65.392756 
4375.000000	65.454220 
4374.000000	65.505886 
4373.000000	65.544438 
4372.000000	65.567779 
4371.000000	65.579700 
4370.000000	65.587925 
4369.000000	65.603709 
4368.000000	65.638589 
4367.000000	65.702128 
4366.000000	65.799021 
4365.000000	65.927076 
4364.000000	66.077184 
4363.000000	66.234803 
4362.000000	66.382932 
4361.000000	66.505312 
4360.000000	66.589140 
4359.000000	66.626524 
4358.000000	66.615104 
4357.000000	66.558670 
4356.000000	66.465115 
4355.000000	66.344380 
4354.000000	66.206264 
4353.000000	66.061234 
4352.000000	65.917778 
4351.000000	65.782856 
4350.000000	65.661025 
4349.000000	65.555620 
4348.000000	65.468502 
4347.000000	65.400385 
4346.000000	65.351676 
4345.000000	65.320968 
4344.000000	65.307331 
4343.000000	65.309214 
4342.000000	65.325546 
4341.000000	65.354037 
4340.000000	65.392494 
4339.000000	65.438127 
4338.000000	65.487718 
4337.000000	65.537285 
4336.000000	65.583682 
4335.000000	65.624547 
4334.000000	65.659189 
4333.000000	65.688014 
4332.000000	65.712881 
4331.000000	65.735864 
4330.000000	65.758252 
4329.000000	65.779590 
4328.000000	65.797924 
4327.000000	65.809702 
4326.000000	65.811014 
4325.000000	65.798449 
4324.000000	65.770339 
4323.000000	65.727663 
4322.000000	65.674734 
4321.000000	65.618133 
4320.000000	65.565109 
4319.000000	65.522408 
4318.000000	65.495109 
4317.000000	65.485382 
4316.000000	65.492248 
4315.000000	65.512108 
4314.000000	65.539884 
4313.000000	65.570044 
4312.000000	65.597915 
4311.000000	65.620279 
4310.000000	65.635538 
4309.000000	65.644335 
4308.000000	65.648531 
4307.000000	65.650606 
4306.000000	65.652322 
4305.000000	65.654778 
4304.000000	65.657544 
4303.000000	65.658879 
4302.000000	65.656185 
4301.000000	65.646767 
4300.000000	65.628337 
4299.000000	65.600180 
4298.000000	65.563297 
4297.000000	65.520215 
4296.000000	65.474534 
4295.000000	65.430331 
4294.000000	65.391182 
4293.000000	65.359544 
4292.000000	65.336179 
4291.000000	65.320301 
4290.000000	65.309858 
4289.000000	65.302228 
4288.000000	65.294694 
4287.000000	65.285110 
4286.000000	65.272068 
4285.000000	65.254688 
4284.000000	65.232658 
4283.000000	65.205931 
4282.000000	65.175080 
4281.000000	65.141081 
4280.000000	65.105795 
4279.000000	65.071868 
4278.000000	65.042877 
4277.000000	65.022826 
4276.000000	65.015697 
4275.000000	65.024304 
4274.000000	65.049743 
4273.000000	65.090847 
4272.000000	65.144062 
4271.000000	65.203833 
4270.000000	65.263557 
4269.000000	65.316605 
4268.000000	65.357589 
4267.000000	65.382909 
4266.000000	65.391039 
4265.000000	65.382432 
4264.000000	65.359520 
4263.000000	65.325570 
4262.000000	65.284252 
4261.000000	65.238976 
4260.000000	65.193057 
4259.000000	65.149211 
4258.000000	65.109872 
4257.000000	65.077233 
4256.000000	65.053248 
4255.000000	65.039658 
4254.000000	65.037679 
4253.000000	65.047645 
4252.000000	65.068602 
4251.000000	65.098261 
4250.000000	65.133094 
4249.000000	65.168428 
4248.000000	65.199565 
4247.000000	65.222287 
4246.000000	65.233850 
4245.000000	65.233397 
4244.000000	65.221953 
4243.000000	65.202713 
4242.000000	65.179944 
4241.000000	65.158271 
4240.000000	65.141415 
4239.000000	65.132045 
4238.000000	65.130472 
4237.000000	65.135288 
4236.000000	65.143489 
4235.000000	65.151596 
4234.000000	65.156316 
4233.000000	65.155267 
4232.000000	65.147399 
4231.000000	65.132761 
4230.000000	65.112638 
4229.000000	65.088772 
4228.000000	65.063238 
4227.000000	65.037846 
4226.000000	65.014076 
4225.000000	64.992737 
4224.000000	64.973688 
4223.000000	64.956212 
4222.000000	64.938879 
4221.000000	64.920473 
4220.000000	64.900183 
4219.000000	64.878201 
4218.000000	64.855742 
4217.000000	64.835047 
4216.000000	64.818739 
4215.000000	64.809489 
4214.000000	64.809226 
4213.000000	64.818692 
4212.000000	64.837241 
4211.000000	64.863038 
4210.000000	64.893317 
4209.000000	64.925122 
4208.000000	64.955782 
4207.000000	64.983129 
4206.000000	65.006017 
4205.000000	65.023636 
4204.000000	65.035510 
4203.000000	65.041184 
4202.000000	65.040206 
4201.000000	65.032672 
4200.000000	65.019369 
4199.000000	65.001749 
4198.000000	64.982104 
4197.000000	64.962744 
4196.000000	64.945769 
4195.000000	64.932465 
4194.000000	64.923667 
4193.000000	64.919805 
4192.000000	64.921522 
4191.000000	64.929819 
4190.000000	64.946103 
4189.000000	64.971423 
4188.000000	65.005660 
4187.000000	65.047264 
4186.000000	65.092539 
4185.000000	65.136146 
4184.000000	65.171766 
4183.000000	65.193414 
4182.000000	65.197062 
4181.000000	65.182185 
4180.000000	65.151333 
4179.000000	65.110087 
4178.000000	65.064883 
4177.000000	65.021872 
4176.000000	64.984679 
4175.000000	64.954042 
4174.000000	64.927935 
4173.000000	64.903140 
4172.000000	64.876532 
4171.000000	64.846587 
4170.000000	64.813899 
4169.000000	64.781355 
4168.000000	64.752960 
4167.000000	64.733147 
4166.000000	64.725375 
4165.000000	64.731812 
4164.000000	64.752650 
4163.000000	64.786171 
4162.000000	64.829063 
4161.000000	64.876723 
4160.000000	64.924216 
4159.000000	64.966249 
