PE IR       SPECTRUM    SPECTRUM    ASCII       PEDS        1.60        
  -1
BZ61B6~1.ASC
17/04/07
19:44:05.00
17/04/07
19:44:05.00
tln
$BZ1503107-1_t0079$<tbV0>[10.4,5.2,8.0,0.0,27,1,0]
370.000000
64









2002,4.07    
MIRTGS : RIGHTBACK : INTERNAL 2
MIR : ON : INTERNAL 2
OPTKBR

0.200000
8
8.000000
FILLER
RATIO
SPECTRUM
UNLOCKED 256

DOUBLE
64
COMBINED
1
0
0


1.000000
RATIO


1
0
TRUE
51149
0
LEFT NOT FITTED RIGHT NOT FITTED 0
NONE
NONE
15600
12.000000
4.427000
51148
TRUE
1 0 8 72 0 0 0 0 

15798.010000






#HDR
-1
-1
#GR
CM-1
%T
0.00002384185791015625
0.0
5000.000000
-1.000000
4631
8
78.064227
44.358062
#DATA
5000.000000	64.575648 
4999.000000	64.754962 
4998.000000	64.948606 
4997.000000	65.141034 
4996.000000	65.314054 
4995.000000	65.449070 
4994.000000	65.530395 
4993.000000	65.549373 
4992.000000	65.505886 
4991.000000	65.409088 
4990.000000	65.276074 
4989.000000	65.129470 
4988.000000	64.992284 
4987.000000	64.883828 
4986.000000	64.816713 
4985.000000	64.795827 
4984.000000	64.818453 
4983.000000	64.877080 
4982.000000	64.961147 
4981.000000	65.061283 
4980.000000	65.173506 
4979.000000	65.299701 
4978.000000	65.445470 
4977.000000	65.615868 
4976.000000	65.812158 
4975.000000	66.026377 
4974.000000	66.241121 
4973.000000	66.429352 
4972.000000	66.561126 
4971.000000	66.608572 
4970.000000	66.554665 
4969.000000	66.397094 
4968.000000	66.151404 
4967.000000	65.848278 
4966.000000	65.528368 
4965.000000	65.234446 
4964.000000	65.002989 
4963.000000	64.858174 
4962.000000	64.807629 
4961.000000	64.844870 
4960.000000	64.953136 
4959.000000	65.109610 
4958.000000	65.290713 
4957.000000	65.473651 
4956.000000	65.638446 
4955.000000	65.767335 
4954.000000	65.844941 
4953.000000	65.857553 
4952.000000	65.794610 
4951.000000	65.651392 
4950.000000	65.431308 
4949.000000	65.147495 
4948.000000	64.822793 
4947.000000	64.487743 
4946.000000	64.176821 
4945.000000	63.923239 
4944.000000	63.753819 
4943.000000	63.684082 
4942.000000	63.716173 
4941.000000	63.839483 
4940.000000	64.031505 
4939.000000	64.262056 
4938.000000	64.497113 
4937.000000	64.702844 
4936.000000	64.851832 
4935.000000	64.924883 
4934.000000	64.915752 
4933.000000	64.829659 
4932.000000	64.685320 
4931.000000	64.510393 
4930.000000	64.337420 
4929.000000	64.197349 
4928.000000	64.114260 
4927.000000	64.101052 
4926.000000	64.158296 
4925.000000	64.274835 
4924.000000	64.430809 
4923.000000	64.602875 
4922.000000	64.768910 
4921.000000	64.913010 
4920.000000	65.026831 
4919.000000	65.110516 
4918.000000	65.168786 
4917.000000	65.209579 
4916.000000	65.240669 
4915.000000	65.267586 
4914.000000	65.292501 
4913.000000	65.314936 
4912.000000	65.335297 
4911.000000	65.353274 
4910.000000	65.370368 
4909.000000	65.387701 
4908.000000	65.406680 
4907.000000	65.426874 
4906.000000	65.446209 
4905.000000	65.460157 
4904.000000	65.462708 
4903.000000	65.448617 
4902.000000	65.415143 
4901.000000	65.363788 
4900.000000	65.300631 
4899.000000	65.235424 
4898.000000	65.179395 
4897.000000	65.142846 
4896.000000	65.132665 
4895.000000	65.150737 
4894.000000	65.193414 
4893.000000	65.251874 
4892.000000	65.314745 
4891.000000	65.371346 
4890.000000	65.413641 
4889.000000	65.436625 
4888.000000	65.439796 
4887.000000	65.426778 
4886.000000	65.403819 
4885.000000	65.377116 
4884.000000	65.352201 
4883.000000	65.332818 
4882.000000	65.320944 
4881.000000	65.317106 
4880.000000	65.321373 
4879.000000	65.334296 
4878.000000	65.356922 
4877.000000	65.390634 
4876.000000	65.436053 
4875.000000	65.492320 
4874.000000	65.555930 
4873.000000	65.620565 
4872.000000	65.677785 
4871.000000	65.718054 
4870.000000	65.733075 
4869.000000	65.717053 
4868.000000	65.668320 
4867.000000	65.589427 
4866.000000	65.487575 
4865.000000	65.372514 
4864.000000	65.254783 
4863.000000	65.143609 
4862.000000	65.045595 
4861.000000	64.963936 
4860.000000	64.899063 
4859.000000	64.849042 
4858.000000	64.810466 
4857.000000	64.780354 
4856.000000	64.756536 
4855.000000	64.738702 
4854.000000	64.727354 
4853.000000	64.723896 
4852.000000	64.728856 
4851.000000	64.742016 
4850.000000	64.761543 
4849.000000	64.784383 
4848.000000	64.806604 
4847.000000	64.824223 
4846.000000	64.834237 
4845.000000	64.835453 
4844.000000	64.828824 
4843.000000	64.817070 
4842.000000	64.804053 
4841.000000	64.794492 
4840.000000	64.792108 
4839.000000	64.799022 
4838.000000	64.814090 
4837.000000	64.833259 
4836.000000	64.849853 
4835.000000	64.856123 
4834.000000	64.845943 
4833.000000	64.815640 
4832.000000	64.766645 
4831.000000	64.705371 
4830.000000	64.642333 
4829.000000	64.589285 
4828.000000	64.557218 
4827.000000	64.553523 
4826.000000	64.580535 
4825.000000	64.634799 
4824.000000	64.708423 
4823.000000	64.790964 
4822.000000	64.871120 
4821.000000	64.938950 
4820.000000	64.987277 
4819.000000	65.012478 
4818.000000	65.013790 
4817.000000	64.992761 
4816.000000	64.952206 
4815.000000	64.895606 
4814.000000	64.827346 
4813.000000	64.751887 
4812.000000	64.674782 
4811.000000	64.601540 
4810.000000	64.537882 
4809.000000	64.488387 
4808.000000	64.456009 
4807.000000	64.441418 
4806.000000	64.442563 
4805.000000	64.455747 
4804.000000	64.475631 
4803.000000	64.497184 
4802.000000	64.515709 
4801.000000	64.529109 
4800.000000	64.537429 
4799.000000	64.543604 
4798.000000	64.551830 
4797.000000	64.567542 
4796.000000	64.595603 
4795.000000	64.638853 
4794.000000	64.697098 
4793.000000	64.766812 
4792.000000	64.841461 
4791.000000	64.912915 
4790.000000	64.972877 
4789.000000	65.013933 
4788.000000	65.030980 
4787.000000	65.022397 
4786.000000	64.989972 
4785.000000	64.938497 
4784.000000	64.874672 
4783.000000	64.805746 
4782.000000	64.738821 
4781.000000	64.679884 
4780.000000	64.633727 
4779.000000	64.603710 
4778.000000	64.592289 
4777.000000	64.600849 
4776.000000	64.630007 
4775.000000	64.679074 
4774.000000	64.746284 
4773.000000	64.827919 
4772.000000	64.919471 
4771.000000	65.015435 
4770.000000	65.109992 
4769.000000	65.196990 
4768.000000	65.270447 
4767.000000	65.325140 
4766.000000	65.356469 
4765.000000	65.361118 
4764.000000	65.337657 
4763.000000	65.286898 
4762.000000	65.212488 
4761.000000	65.120434 
4760.000000	65.018963 
4759.000000	64.917182 
4758.000000	64.824175 
4757.000000	64.747262 
4756.000000	64.690804 
4755.000000	64.655637 
4754.000000	64.639329 
4753.000000	64.637303 
4752.000000	64.643573 
4751.000000	64.652681 
4750.000000	64.660406 
4749.000000	64.664459 
4748.000000	64.663815 
4747.000000	64.658641 
4746.000000	64.649128 
4745.000000	64.635562 
4744.000000	64.618062 
4743.000000	64.596509 
4742.000000	64.570760 
4741.000000	64.540958 
4740.000000	64.508008 
4739.000000	64.473104 
4738.000000	64.438056 
4737.000000	64.405703 
4736.000000	64.380049 
4735.000000	64.365315 
4734.000000	64.366149 
4733.000000	64.386558 
4732.000000	64.429569 
4731.000000	64.496016 
4730.000000	64.584231 
4729.000000	64.689207 
4728.000000	64.803266 
4727.000000	64.917302 
4726.000000	65.021967 
4725.000000	65.109014 
4724.000000	65.172719 
4723.000000	65.211367 
4722.000000	65.226221 
4721.000000	65.221095 
4720.000000	65.201020 
4719.000000	65.171313 
4718.000000	65.136337 
4717.000000	65.099430 
4716.000000	65.062451 
4715.000000	65.026593 
4714.000000	64.992070 
4713.000000	64.958977 
4712.000000	64.927053 
4711.000000	64.896273 
4710.000000	64.867281 
4709.000000	64.841580 
4708.000000	64.820933 
4707.000000	64.807224 
4706.000000	64.801621 
4705.000000	64.804482 
4704.000000	64.814901 
4703.000000	64.831137 
4702.000000	64.850640 
4701.000000	64.870810 
4700.000000	64.889621 
4699.000000	64.905786 
4698.000000	64.919018 
4697.000000	64.929604 
4696.000000	64.937996 
4695.000000	64.944219 
4694.000000	64.948034 
4693.000000	64.948558 
4692.000000	64.944434 
4691.000000	64.934444 
4690.000000	64.918184 
4689.000000	64.895653 
4688.000000	64.867639 
4687.000000	64.834523 
4686.000000	64.796352 
4685.000000	64.752340 
4684.000000	64.701676 
4683.000000	64.644265 
4682.000000	64.581799 
4681.000000	64.518380 
4680.000000	64.460778 
4679.000000	64.417052 
4678.000000	64.395499 
4677.000000	64.402151 
4676.000000	64.439821 
4675.000000	64.506363 
4674.000000	64.595556 
4673.000000	64.697766 
4672.000000	64.802098 
4671.000000	64.898252 
4670.000000	64.978480 
4669.000000	65.038442 
4668.000000	65.077376 
4667.000000	65.097427 
4666.000000	65.102314 
4665.000000	65.096211 
4664.000000	65.081977 
4663.000000	65.061068 
4662.000000	65.033650 
4661.000000	64.999914 
4660.000000	64.959859 
4659.000000	64.914274 
4658.000000	64.864945 
4657.000000	64.814877 
4656.000000	64.767026 
4655.000000	64.724183 
4654.000000	64.688444 
4653.000000	64.661574 
4652.000000	64.644694 
4651.000000	64.639019 
4650.000000	64.645934 
4649.000000	64.666485 
4648.000000	64.701032 
4647.000000	64.748334 
4646.000000	64.804697 
4645.000000	64.864230 
4644.000000	64.919042 
4643.000000	64.961338 
4642.000000	64.983987 
4641.000000	64.983892 
4640.000000	64.962768 
4639.000000	64.927601 
4638.000000	64.888954 
4637.000000	64.859056 
4636.000000	64.849066 
4635.000000	64.866042 
4634.000000	64.911508 
4633.000000	64.981269 
4632.000000	65.066719 
4631.000000	65.157175 
4630.000000	65.242290 
4629.000000	65.314197 
4628.000000	65.368580 
4627.000000	65.405011 
4626.000000	65.426015 
4625.000000	65.435290 
4624.000000	65.436267 
4623.000000	65.431666 
4622.000000	65.422272 
4621.000000	65.407729 
4620.000000	65.386605 
4619.000000	65.358448 
4618.000000	65.323758 
4617.000000	65.284967 
4616.000000	65.245842 
4615.000000	65.210938 
4614.000000	65.184783 
4613.000000	65.170741 
4612.000000	65.170383 
4611.000000	65.183019 
4610.000000	65.205597 
4609.000000	65.233302 
4608.000000	65.260195 
4607.000000	65.280413 
4606.000000	65.288901 
4605.000000	65.282416 
4604.000000	65.260076 
4603.000000	65.223789 
4602.000000	65.178585 
4601.000000	65.131711 
4600.000000	65.091252 
4599.000000	65.064764 
4598.000000	65.058541 
4597.000000	65.075635 
4596.000000	65.115118 
4595.000000	65.171909 
4594.000000	65.237617 
4593.000000	65.302276 
4592.000000	65.355944 
4591.000000	65.391135 
4590.000000	65.403866 
4589.000000	65.395116 
4588.000000	65.369868 
4587.000000	65.336847 
4586.000000	65.306091 
4585.000000	65.287232 
4584.000000	65.287256 
4583.000000	65.309548 
4582.000000	65.353560 
4581.000000	65.414810 
4580.000000	65.486454 
4579.000000	65.559744 
4578.000000	65.625715 
4577.000000	65.676450 
4576.000000	65.706133 
4575.000000	65.711402 
4574.000000	65.691709 
4573.000000	65.649390 
4572.000000	65.589380 
4571.000000	65.518498 
4570.000000	65.444517 
4569.000000	65.375638 
4568.000000	65.319013 
4567.000000	65.280103 
4566.000000	65.261650 
4565.000000	65.263915 
4564.000000	65.283751 
4563.000000	65.315961 
4562.000000	65.353345 
4561.000000	65.387630 
4560.000000	65.411138 
4559.000000	65.417814 
4558.000000	65.404391 
4557.000000	65.370345 
4556.000000	65.318799 
4555.000000	65.255331 
4554.000000	65.188384 
4553.000000	65.127229 
4552.000000	65.081524 
4551.000000	65.059137 
4550.000000	65.065336 
4549.000000	65.101265 
4548.000000	65.163445 
4547.000000	65.244102 
4546.000000	65.331935 
4545.000000	65.414619 
4544.000000	65.481042 
4543.000000	65.524005 
4542.000000	65.541410 
4541.000000	65.536451 
4540.000000	65.516161 
4539.000000	65.489292 
4538.000000	65.464472 
4537.000000	65.447402 
4536.000000	65.439701 
4535.000000	65.438866 
4534.000000	65.440082 
4533.000000	65.437650 
4532.000000	65.427827 
4531.000000	65.409731 
4530.000000	65.386104 
4529.000000	65.362644 
4528.000000	65.346121 
4527.000000	65.342497 
4526.000000	65.354871 
4525.000000	65.383005 
4524.000000	65.423083 
4523.000000	65.468978 
4522.000000	65.513610 
4521.000000	65.550637 
4520.000000	65.575814 
4519.000000	65.587401 
4518.000000	65.586829 
4517.000000	65.578079 
4516.000000	65.566945 
4515.000000	65.559530 
4514.000000	65.560770 
4513.000000	65.574336 
4512.000000	65.600395 
4511.000000	65.636467 
4510.000000	65.676641 
4509.000000	65.713167 
4508.000000	65.737891 
4507.000000	65.743803 
4506.000000	65.727281 
4505.000000	65.689015 
4504.000000	65.634632 
4503.000000	65.573072 
4502.000000	65.515661 
4501.000000	65.473628 
4500.000000	65.455007 
4499.000000	65.462875 
4498.000000	65.494060 
4497.000000	65.540099 
4496.000000	65.588617 
4495.000000	65.626525 
4494.000000	65.644121 
4493.000000	65.637254 
4492.000000	65.608143 
4491.000000	65.564060 
4490.000000	65.513515 
4489.000000	65.464639 
4488.000000	65.422010 
4487.000000	65.387439 
4486.000000	65.361452 
4485.000000	65.343618 
4484.000000	65.334916 
4483.000000	65.335893 
4482.000000	65.348505 
4481.000000	65.371751 
4480.000000	65.398144 
4479.000000	65.417981 
4478.000000	65.423274 
4477.000000	65.406727 
4476.000000	65.362429 
4475.000000	65.290522 
4474.000000	65.199685 
4473.000000	65.098762 
4472.000000	64.992666 
4471.000000	64.888024 
4470.000000	64.793348 
4469.000000	64.708328 
4468.000000	64.626908 
4467.000000	64.545702 
4466.000000	64.466071 
4465.000000	64.403724 
4464.000000	64.382219 
4463.000000	64.410400 
4462.000000	64.484715 
4461.000000	64.602589 
4460.000000	64.750671 
4459.000000	64.905214 
4458.000000	65.030050 
4457.000000	65.093851 
4456.000000	65.059232 
4455.000000	64.891624 
4454.000000	64.560699 
4453.000000	64.048361 
4452.000000	63.354468 
4451.000000	62.509560 
4450.000000	61.558246 
4449.000000	60.570335 
4448.000000	59.588265 
4447.000000	58.625936 
4446.000000	57.636880 
4445.000000	56.533765 
4444.000000	55.200624 
4443.000000	53.545999 
4442.000000	51.550722 
4441.000000	49.319505 
4440.000000	47.107720 
4439.000000	45.304203 
4438.000000	44.358062 
4437.000000	44.682598 
4436.000000	46.553587 
4435.000000	50.010299 
4434.000000	54.811859 
4433.000000	60.450863 
4432.000000	66.232681 
4431.000000	71.414065 
4430.000000	75.339293 
4429.000000	77.590894 
4428.000000	78.064227 
4427.000000	76.976394 
4426.000000	74.809265 
4425.000000	72.164392 
4424.000000	69.620561 
4423.000000	67.607307 
4422.000000	66.346216 
4421.000000	65.842223 
4420.000000	65.960025 
4419.000000	66.485524 
4418.000000	67.237138 
4417.000000	68.056249 
4416.000000	68.843388 
4415.000000	69.520807 
4414.000000	70.027327 
4413.000000	70.315480 
4412.000000	70.350193 
4411.000000	70.136785 
4410.000000	69.709372 
4409.000000	69.128775 
4408.000000	68.463850 
4407.000000	67.777419 
4406.000000	67.115569 
4405.000000	66.511797 
4404.000000	65.981841 
4403.000000	65.533089 
4402.000000	65.164637 
4401.000000	64.882922 
4400.000000	64.690160 
4399.000000	64.565062 
4398.000000	64.488458 
4397.000000	64.448523 
4396.000000	64.436960 
4395.000000	64.443588 
4394.000000	64.461088 
4393.000000	64.477372 
4392.000000	64.488029 
4391.000000	64.496350 
4390.000000	64.507246 
4389.000000	64.524531 
4388.000000	64.552855 
4387.000000	64.595961 
4386.000000	64.657831 
4385.000000	64.741063 
4384.000000	64.844584 
4383.000000	64.963054 
4382.000000	65.088462 
4381.000000	65.210533 
4380.000000	65.317678 
4379.000000	65.399694 
4378.000000	65.449142 
4377.000000	65.463972 
4376.000000	65.451073 
4375.000000	65.421652 
4374.000000	65.386939 
4373.000000	65.356993 
4372.000000	65.339946 
4371.000000	65.339517 
4370.000000	65.354490 
4369.000000	65.381598 
4368.000000	65.418434 
4367.000000	65.462756 
4366.000000	65.513372 
4365.000000	65.568804 
4364.000000	65.626645 
4363.000000	65.682554 
4362.000000	65.730094 
4361.000000	65.761232 
4360.000000	65.768098 
4359.000000	65.745639 
4358.000000	65.693259 
4357.000000	65.616059 
4356.000000	65.524148 
4355.000000	65.431308 
4354.000000	65.351581 
4353.000000	65.296149 
4352.000000	65.270519 
4351.000000	65.274071 
4350.000000	65.299963 
4349.000000	65.337300 
4348.000000	65.374398 
4347.000000	65.402173 
4346.000000	65.416216 
4345.000000	65.416908 
4344.000000	65.409135 
4343.000000	65.399861 
4342.000000	65.395593 
4341.000000	65.399765 
4340.000000	65.411400 
4339.000000	65.425205 
4338.000000	65.433120 
4337.000000	65.426850 
4336.000000	65.400266 
4335.000000	65.351700 
4334.000000	65.284109 
4333.000000	65.204715 
4332.000000	65.123152 
4331.000000	65.049505 
4330.000000	64.991569 
4329.000000	64.953660 
4328.000000	64.936709 
4327.000000	64.938354 
4326.000000	64.954590 
4325.000000	64.980506 
4324.000000	65.011262 
4323.000000	65.042829 
4322.000000	65.071845 
4321.000000	65.096259 
4320.000000	65.113949 
4319.000000	65.123605 
4318.000000	65.124368 
4317.000000	65.116333 
4316.000000	65.100836 
4315.000000	65.080332 
4314.000000	65.057921 
4313.000000	65.037059 
4312.000000	65.021157 
4311.000000	65.012574 
4310.000000	65.012502 
4309.000000	65.020346 
4308.000000	65.033960 
4307.000000	65.050148 
4306.000000	65.065503 
4305.000000	65.076494 
4304.000000	65.080308 
4303.000000	65.075135 
4302.000000	65.060830 
4301.000000	65.038418 
4300.000000	65.010428 
4299.000000	64.980769 
4298.000000	64.953875 
4297.000000	64.934325 
4296.000000	64.925289 
4295.000000	64.928698 
4294.000000	64.943504 
4293.000000	64.966559 
4292.000000	64.992141 
4291.000000	65.013051 
4290.000000	65.022039 
4289.000000	65.013098 
4288.000000	64.983487 
4287.000000	64.933872 
4286.000000	64.869427 
4285.000000	64.798378 
4284.000000	64.731144 
4283.000000	64.677906 
4282.000000	64.647054 
4281.000000	64.643430 
4280.000000	64.667606 
4279.000000	64.715647 
4278.000000	64.780163 
4277.000000	64.851856 
4276.000000	64.921402 
4275.000000	64.981198 
4274.000000	65.026354 
4273.000000	65.055227 
4272.000000	65.069007 
4271.000000	65.070629 
4270.000000	65.063166 
4269.000000	65.049195 
4268.000000	65.030097 
4267.000000	65.006256 
4266.000000	64.977836 
4265.000000	64.945435 
4264.000000	64.911222 
4263.000000	64.878439 
4262.000000	64.851379 
4261.000000	64.834141 
4260.000000	64.829468 
4259.000000	64.837837 
4258.000000	64.856839 
4257.000000	64.881706 
4256.000000	64.906501 
4255.000000	64.925384 
4254.000000	64.933991 
4253.000000	64.930748 
4252.000000	64.917635 
4251.000000	64.899086 
4250.000000	64.881205 
4249.000000	64.869999 
4248.000000	64.869952 
4247.000000	64.883422 
4246.000000	64.909863 
4245.000000	64.945793 
4244.000000	64.985585 
4243.000000	65.023255 
4242.000000	65.053081 
4241.000000	65.070676 
4240.000000	65.073585 
4239.000000	65.061759 
4238.000000	65.037584 
4237.000000	65.004897 
4236.000000	64.968895 
4235.000000	64.934754 
4234.000000	64.907479 
4233.000000	64.891242 
4232.000000	64.889144 
4231.000000	64.903092 
4230.000000	64.933514 
4229.000000	64.979529 
4228.000000	65.038681 
4227.000000	65.107035 
4226.000000	65.179061 
4225.000000	65.247988 
4224.000000	65.306353 
4223.000000	65.346670 
4222.000000	65.362715 
4221.000000	65.350556 
4220.000000	65.309786 
4219.000000	65.243506 
4218.000000	65.158700 
4217.000000	65.064692 
4216.000000	64.971733 
4215.000000	64.889144 
4214.000000	64.824128 
4213.000000	64.780616 
4212.000000	64.759588 
4211.000000	64.759349 
4210.000000	64.776206 
4209.000000	64.805674 
4208.000000	64.843058 
4207.000000	64.884138 
4206.000000	64.924812 
4205.000000	64.961910 
4204.000000	64.992547 
4203.000000	65.014767 
4202.000000	65.027070 
4201.000000	65.029120 
4200.000000	65.021538 
4199.000000	65.006279 
4198.000000	64.986276 
4197.000000	64.964914 
4196.000000	64.945554 
4195.000000	64.930748 
4194.000000	64.921784 
4193.000000	64.919066 
4192.000000	64.921998 
4191.000000	64.929223 
4190.000000	64.939117 
4189.000000	64.950203 
4188.000000	64.961481 
4187.000000	64.972424 
4186.000000	64.983010 
4185.000000	64.992976 
4184.000000	65.002083 
4183.000000	65.010094 
4182.000000	65.016412 
4181.000000	65.019679 
4180.000000	65.018343 
4179.000000	65.011191 
4178.000000	64.997625 
4177.000000	64.978098 
4176.000000	64.954400 
4175.000000	64.929461 
4174.000000	64.907312 
4173.000000	64.892387 
4172.000000	64.888501 
4171.000000	64.897823 
4170.000000	64.920186 
4169.000000	64.952731 
4168.000000	64.990115 
4167.000000	65.025615 
4166.000000	65.052366 
4165.000000	65.064978 
4164.000000	65.060567 
4163.000000	65.039682 
4162.000000	65.005707 
4161.000000	64.964532 
4160.000000	64.923214 
4159.000000	64.888715 
