PE IR       SPECTRUM    SPECTRUM    ASCII       PEDS        1.60        
  -1
BZ6C21~1.ASC
17/04/07
18:27:27.00
17/04/07
18:27:27.00
tln
$BZ1503107-1_t0064$<tbV0>[-7.8,0.0,8.0,0.0,27,1,0]
370.000000
64









2002,4.07    
MIRTGS : RIGHTBACK : INTERNAL 2
MIR : ON : INTERNAL 2
OPTKBR

0.200000
8
8.000000
FILLER
RATIO
SPECTRUM
UNLOCKED 256

DOUBLE
64
COMBINED
1
0
0


1.000000
RATIO


1
0
TRUE
51149
0
LEFT NOT FITTED RIGHT NOT FITTED 0
NONE
NONE
15600
12.000000
4.427000
51148
TRUE
1 0 8 72 0 0 0 0 

15798.010000






#HDR
-1
-1
#GR
CM-1
%T
0.00002384185791015625
0.0
5000.000000
-1.000000
4631
8
70.624256
47.536826
#DATA
5000.000000	65.002560 
4999.000000	65.080928 
4998.000000	65.146994 
4997.000000	65.196061 
4996.000000	65.225720 
4995.000000	65.235567 
4994.000000	65.228080 
4993.000000	65.208911 
4992.000000	65.185141 
4991.000000	65.164899 
4990.000000	65.154170 
4989.000000	65.155625 
4988.000000	65.168499 
4987.000000	65.189957 
4986.000000	65.215134 
4985.000000	65.238714 
4984.000000	65.256881 
4983.000000	65.268278 
4982.000000	65.272903 
4981.000000	65.271329 
4980.000000	65.262460 
4979.000000	65.243387 
4978.000000	65.209770 
4977.000000	65.157699 
4976.000000	65.085983 
4975.000000	64.997506 
4974.000000	64.901041 
4973.000000	64.808583 
4972.000000	64.732623 
4971.000000	64.682817 
4970.000000	64.663076 
4969.000000	64.670968 
4968.000000	64.698457 
4967.000000	64.734292 
4966.000000	64.767789 
4965.000000	64.790129 
4964.000000	64.796185 
4963.000000	64.784145 
4962.000000	64.754843 
4961.000000	64.710688 
4960.000000	64.653921 
4959.000000	64.587211 
4958.000000	64.513301 
4957.000000	64.436793 
4956.000000	64.364099 
4955.000000	64.303207 
4954.000000	64.261937 
4953.000000	64.245438 
4952.000000	64.254665 
4951.000000	64.283823 
4950.000000	64.323043 
4949.000000	64.360141 
4948.000000	64.385676 
4947.000000	64.395427 
4946.000000	64.393210 
4945.000000	64.388775 
4944.000000	64.396786 
4943.000000	64.431405 
4942.000000	64.503407 
4941.000000	64.616131 
4940.000000	64.764404 
4939.000000	64.935898 
4938.000000	65.112566 
4937.000000	65.275526 
4936.000000	65.407586 
4935.000000	65.497541 
4934.000000	65.540456 
4933.000000	65.538334 
4932.000000	65.497994 
4931.000000	65.429067 
4930.000000	65.341305 
4929.000000	65.243101 
4928.000000	65.140891 
4927.000000	65.039205 
4926.000000	64.940404 
4925.000000	64.846324 
4924.000000	64.758896 
4923.000000	64.682030 
4922.000000	64.621448 
4921.000000	64.584445 
4920.000000	64.577865 
4919.000000	64.606165 
4918.000000	64.669203 
4917.000000	64.761161 
4916.000000	64.869856 
4915.000000	64.979410 
4914.000000	65.073204 
4913.000000	65.137314 
4912.000000	65.163421 
4911.000000	65.150547 
4910.000000	65.104889 
4909.000000	65.037894 
4908.000000	64.962959 
4907.000000	64.892673 
4906.000000	64.836192 
4905.000000	64.797806 
4904.000000	64.776968 
4903.000000	64.770793 
4902.000000	64.776110 
4901.000000	64.790892 
4900.000000	64.814829 
4899.000000	64.847874 
4898.000000	64.889240 
4897.000000	64.935541 
4896.000000	64.980912 
4895.000000	65.017628 
4894.000000	65.038061 
4893.000000	65.037322 
4892.000000	65.014410 
4891.000000	64.972448 
4890.000000	64.918518 
4889.000000	64.861750 
4888.000000	64.811658 
4887.000000	64.775776 
4886.000000	64.758157 
4885.000000	64.759302 
4884.000000	64.775753 
4883.000000	64.801931 
4882.000000	64.831113 
4881.000000	64.857244 
4880.000000	64.876103 
4879.000000	64.885687 
4878.000000	64.886641 
4877.000000	64.881229 
4876.000000	64.872431 
4875.000000	64.862513 
4874.000000	64.852571 
4873.000000	64.841961 
4872.000000	64.827942 
4871.000000	64.806747 
4870.000000	64.774322 
4869.000000	64.728498 
4868.000000	64.670419 
4867.000000	64.605259 
4866.000000	64.541554 
4865.000000	64.489626 
4864.000000	64.458942 
4863.000000	64.455962 
4862.000000	64.481639 
4861.000000	64.531707 
4860.000000	64.597034 
4859.000000	64.666676 
4858.000000	64.729690 
4857.000000	64.779138 
4856.000000	64.812755 
4855.000000	64.833736 
4854.000000	64.848899 
4853.000000	64.866566 
4852.000000	64.893865 
4851.000000	64.933991 
4850.000000	64.985084 
4849.000000	65.040850 
4848.000000	65.092229 
4847.000000	65.129637 
4846.000000	65.145444 
4845.000000	65.135717 
4844.000000	65.100955 
4843.000000	65.045475 
4842.000000	64.976692 
4841.000000	64.903187 
4840.000000	64.833426 
4839.000000	64.774703 
4838.000000	64.732098 
4837.000000	64.708614 
4836.000000	64.704489 
4835.000000	64.718317 
4834.000000	64.746141 
4833.000000	64.782428 
4832.000000	64.819884 
4831.000000	64.850664 
4830.000000	64.867258 
4829.000000	64.863300 
4828.000000	64.835238 
4827.000000	64.782977 
4826.000000	64.710164 
4825.000000	64.623522 
4824.000000	64.531588 
4823.000000	64.443302 
4822.000000	64.365983 
4821.000000	64.304351 
4820.000000	64.259719 
4819.000000	64.230656 
4818.000000	64.213681 
4817.000000	64.204931 
4816.000000	64.200901 
4815.000000	64.199757 
4814.000000	64.200878 
4813.000000	64.205074 
4812.000000	64.213156 
4811.000000	64.225935 
4810.000000	64.242315 
4809.000000	64.260697 
4808.000000	64.278793 
4807.000000	64.294958 
4806.000000	64.308309 
4805.000000	64.320063 
4804.000000	64.332890 
4803.000000	64.351224 
4802.000000	64.379763 
4801.000000	64.422440 
4800.000000	64.480900 
4799.000000	64.554262 
4798.000000	64.638924 
4797.000000	64.728832 
4796.000000	64.816546 
4795.000000	64.894223 
4794.000000	64.954924 
4793.000000	64.993953 
4792.000000	65.009737 
4791.000000	65.003752 
4790.000000	64.980649 
4789.000000	64.947891 
4788.000000	64.914274 
4787.000000	64.888572 
4786.000000	64.877796 
4785.000000	64.886498 
4784.000000	64.915704 
4783.000000	64.963388 
4782.000000	65.024375 
4781.000000	65.091609 
4780.000000	65.156984 
4779.000000	65.213346 
4778.000000	65.254664 
4777.000000	65.277314 
4776.000000	65.279626 
4775.000000	65.262103 
4774.000000	65.226888 
4773.000000	65.177512 
4772.000000	65.118050 
4771.000000	65.052890 
4770.000000	64.986324 
4769.000000	64.922523 
4768.000000	64.864945 
4767.000000	64.816427 
4766.000000	64.778709 
4765.000000	64.752674 
4764.000000	64.738941 
4763.000000	64.737987 
4762.000000	64.749836 
4761.000000	64.773559 
4760.000000	64.807415 
4759.000000	64.848113 
4758.000000	64.890646 
4757.000000	64.928627 
4756.000000	64.955115 
4755.000000	64.964318 
4754.000000	64.952278 
4753.000000	64.919042 
4752.000000	64.868664 
4751.000000	64.809608 
4750.000000	64.752745 
4749.000000	64.709877 
4748.000000	64.691352 
4747.000000	64.703416 
4746.000000	64.746975 
4745.000000	64.817118 
4744.000000	64.904260 
4743.000000	64.995861 
4742.000000	65.079212 
4741.000000	65.143561 
4740.000000	65.181851 
4739.000000	65.192008 
4738.000000	65.176701 
4737.000000	65.142250 
4736.000000	65.096449 
4735.000000	65.047574 
4734.000000	65.001893 
4733.000000	64.963006 
4732.000000	64.931106 
4731.000000	64.904189 
4730.000000	64.878916 
4729.000000	64.852046 
4728.000000	64.821434 
4727.000000	64.786958 
4726.000000	64.750504 
4725.000000	64.715147 
4724.000000	64.684486 
4723.000000	64.661288 
4722.000000	64.647102 
4721.000000	64.641380 
4720.000000	64.642095 
4719.000000	64.646387 
4718.000000	64.651560 
4717.000000	64.655637 
4716.000000	64.658045 
4715.000000	64.659380 
4714.000000	64.661026 
4713.000000	64.664387 
4712.000000	64.670062 
4711.000000	64.677500 
4710.000000	64.685487 
4709.000000	64.692473 
4708.000000	64.697122 
4707.000000	64.698934 
4706.000000	64.698815 
4705.000000	64.699077 
4704.000000	64.702439 
4703.000000	64.711952 
4702.000000	64.729428 
4701.000000	64.756107 
4700.000000	64.791560 
4699.000000	64.834856 
4698.000000	64.884495 
4697.000000	64.938926 
4696.000000	64.996862 
4695.000000	65.056777 
4694.000000	65.116572 
4693.000000	65.173292 
4692.000000	65.223312 
4691.000000	65.262556 
4690.000000	65.287232 
4689.000000	65.295410 
4688.000000	65.287566 
4687.000000	65.266919 
4686.000000	65.238785 
4685.000000	65.209388 
4684.000000	65.184402 
4683.000000	65.167069 
4682.000000	65.157389 
4681.000000	65.151977 
4680.000000	65.144896 
4679.000000	65.129685 
4678.000000	65.101265 
4677.000000	65.057682 
4676.000000	65.000867 
4675.000000	64.936304 
4674.000000	64.871764 
4673.000000	64.815044 
4672.000000	64.772295 
4671.000000	64.746260 
4670.000000	64.736390 
4669.000000	64.738512 
4668.000000	64.747309 
4667.000000	64.757800 
4666.000000	64.767241 
4665.000000	64.775228 
4664.000000	64.784479 
4663.000000	64.799284 
4662.000000	64.824128 
4661.000000	64.861512 
4660.000000	64.910769 
4659.000000	64.967203 
4658.000000	65.023279 
4657.000000	65.070033 
4656.000000	65.099120 
4655.000000	65.104746 
4654.000000	65.085124 
4653.000000	65.042948 
4652.000000	64.984488 
4651.000000	64.918637 
4650.000000	64.854574 
4649.000000	64.800214 
4648.000000	64.761495 
4647.000000	64.740848 
4646.000000	64.737987 
4645.000000	64.749526 
4644.000000	64.770269 
4643.000000	64.793896 
4642.000000	64.814043 
4641.000000	64.825868 
4640.000000	64.825844 
4639.000000	64.813828 
4638.000000	64.792227 
4637.000000	64.766955 
4636.000000	64.745593 
4635.000000	64.736461 
4634.000000	64.746546 
4633.000000	64.779353 
4632.000000	64.833641 
4631.000000	64.903020 
4630.000000	64.977025 
4629.000000	65.043044 
4628.000000	65.088844 
4627.000000	65.105438 
4626.000000	65.088701 
4625.000000	65.040326 
4624.000000	64.966726 
4623.000000	64.877748 
4622.000000	64.784073 
4621.000000	64.695215 
4620.000000	64.617705 
4619.000000	64.555406 
4618.000000	64.509129 
4617.000000	64.477658 
4616.000000	64.459085 
4615.000000	64.451813 
4614.000000	64.455318 
4613.000000	64.469265 
4612.000000	64.494037 
4611.000000	64.528751 
4610.000000	64.572525 
4609.000000	64.623308 
4608.000000	64.678859 
4607.000000	64.736580 
4606.000000	64.793896 
4605.000000	64.848279 
4604.000000	64.897298 
4603.000000	64.938735 
4602.000000	64.970755 
4601.000000	64.991903 
4600.000000	65.001630 
4599.000000	65.000200 
4598.000000	64.989256 
4597.000000	64.971446 
4596.000000	64.950561 
4595.000000	64.930653 
4594.000000	64.915871 
4593.000000	64.909243 
4592.000000	64.912986 
4591.000000	64.927291 
4590.000000	64.950370 
4589.000000	64.978885 
4588.000000	65.008854 
4587.000000	65.036249 
4586.000000	65.057373 
4585.000000	65.070152 
4584.000000	65.074324 
4583.000000	65.071892 
4582.000000	65.066576 
4581.000000	65.062856 
4580.000000	65.064811 
4579.000000	65.074753 
4578.000000	65.092587 
4577.000000	65.115094 
4576.000000	65.136885 
4575.000000	65.152287 
4574.000000	65.156984 
4573.000000	65.148901 
4572.000000	65.129113 
4571.000000	65.101599 
4570.000000	65.072393 
4569.000000	65.047121 
4568.000000	65.030360 
4567.000000	65.024542 
4566.000000	65.029740 
4565.000000	65.044116 
4564.000000	65.064811 
4563.000000	65.088891 
4562.000000	65.114450 
4561.000000	65.140748 
4560.000000	65.168428 
4559.000000	65.198612 
4558.000000	65.232253 
4557.000000	65.269207 
4556.000000	65.307688 
4555.000000	65.344500 
4554.000000	65.375375 
4553.000000	65.396165 
4552.000000	65.403199 
4551.000000	65.394353 
4550.000000	65.369510 
4549.000000	65.330815 
4548.000000	65.281891 
4547.000000	65.227079 
4546.000000	65.170860 
4545.000000	65.116953 
4544.000000	65.067672 
4543.000000	65.023922 
4542.000000	64.985275 
4541.000000	64.950966 
4540.000000	64.920210 
4539.000000	64.893054 
4538.000000	64.870214 
4537.000000	64.853429 
4536.000000	64.844107 
4535.000000	64.843583 
4534.000000	64.851737 
4533.000000	64.867544 
4532.000000	64.888238 
4531.000000	64.910960 
4530.000000	64.932775 
4529.000000	64.952206 
4528.000000	64.969134 
4527.000000	64.985179 
4526.000000	65.002942 
4525.000000	65.025424 
4524.000000	65.054988 
4523.000000	65.092062 
4522.000000	65.134763 
4521.000000	65.179347 
4520.000000	65.220904 
4519.000000	65.254306 
4518.000000	65.275382 
4517.000000	65.282249 
4516.000000	65.275478 
4515.000000	65.258336 
4514.000000	65.235662 
4513.000000	65.212345 
4512.000000	65.192866 
4511.000000	65.180230 
4510.000000	65.176653 
4509.000000	65.183329 
4508.000000	65.201401 
4507.000000	65.232419 
4506.000000	65.277647 
4505.000000	65.337657 
4504.000000	65.411210 
4503.000000	65.494728 
4502.000000	65.582132 
4501.000000	65.665531 
4500.000000	65.735721 
4499.000000	65.783858 
4498.000000	65.802001 
4497.000000	65.784740 
4496.000000	65.729641 
4495.000000	65.638208 
4494.000000	65.516066 
4493.000000	65.372419 
4492.000000	65.218901 
4491.000000	65.068197 
4490.000000	64.933085 
4489.000000	64.824318 
4488.000000	64.749002 
4487.000000	64.710068 
4486.000000	64.705586 
4485.000000	64.730501 
4484.000000	64.776992 
4483.000000	64.837265 
4482.000000	64.903521 
4481.000000	64.970326 
4480.000000	65.033912 
4479.000000	65.092134 
4478.000000	65.142655 
4477.000000	65.183210 
4476.000000	65.210390 
4475.000000	65.221881 
4474.000000	65.216851 
4473.000000	65.197777 
4472.000000	65.170693 
4471.000000	65.143108 
4470.000000	65.122437 
4469.000000	65.111255 
4468.000000	65.105652 
4467.000000	65.100288 
4466.000000	65.088963 
4465.000000	65.060591 
4464.000000	65.005040 
4463.000000	64.918756 
4462.000000	64.807105 
4461.000000	64.683246 
4460.000000	64.567685 
4459.000000	64.480233 
4458.000000	64.439129 
4457.000000	64.462804 
4456.000000	64.558601 
4455.000000	64.716482 
4454.000000	64.913344 
4453.000000	65.118336 
4452.000000	65.299558 
4451.000000	65.428590 
4450.000000	65.492415 
4449.000000	65.494513 
4448.000000	65.457296 
4447.000000	65.416550 
4446.000000	65.406608 
4445.000000	65.449523 
4444.000000	65.536141 
4443.000000	65.622782 
4442.000000	65.630888 
4441.000000	65.464019 
4440.000000	65.020465 
4439.000000	64.228916 
4438.000000	63.064408 
4437.000000	61.581325 
4436.000000	59.910535 
4435.000000	58.259034 
4434.000000	56.866884 
4433.000000	55.973672 
4432.000000	55.760335 
4431.000000	56.318640 
4430.000000	57.618904 
4429.000000	59.522604 
4428.000000	61.810588 
4427.000000	64.217257 
4426.000000	66.481685 
4425.000000	68.379282 
4424.000000	69.745373 
4423.000000	70.497488 
4422.000000	70.624256 
4421.000000	70.198273 
4420.000000	69.353842 
4419.000000	68.269944 
4418.000000	67.144036 
4417.000000	66.147089 
4416.000000	65.401053 
4415.000000	64.957666 
4414.000000	64.802074 
4413.000000	64.867877 
4412.000000	65.063381 
4411.000000	65.301203 
4410.000000	65.519499 
4409.000000	65.683412 
4408.000000	65.791392 
4407.000000	65.853762 
4406.000000	65.891814 
4405.000000	65.918517 
4404.000000	65.939021 
4403.000000	65.953111 
4402.000000	65.952134 
4401.000000	65.926051 
4400.000000	65.864729 
4399.000000	65.765905 
4398.000000	65.633273 
4397.000000	65.480542 
4396.000000	65.322637 
4395.000000	65.168118 
4394.000000	65.025472 
4393.000000	64.904284 
4392.000000	64.809703 
4391.000000	64.742040 
4390.000000	64.699578 
4389.000000	64.679265 
4388.000000	64.676856 
4387.000000	64.688372 
4386.000000	64.707565 
4385.000000	64.728450 
4384.000000	64.749360 
4383.000000	64.772844 
4382.000000	64.803171 
4381.000000	64.845395 
4380.000000	64.902400 
4379.000000	64.973807 
4378.000000	65.056157 
4377.000000	65.142631 
4376.000000	65.223646 
4375.000000	65.289592 
4374.000000	65.333199 
4373.000000	65.351390 
4372.000000	65.346384 
4371.000000	65.325021 
4370.000000	65.296983 
4369.000000	65.272688 
4368.000000	65.260982 
4367.000000	65.267395 
4366.000000	65.292954 
4365.000000	65.335035 
4364.000000	65.389060 
4363.000000	65.448141 
4362.000000	65.504503 
4361.000000	65.550899 
4360.000000	65.581178 
4359.000000	65.589809 
4358.000000	65.572237 
4357.000000	65.525674 
4356.000000	65.449762 
4355.000000	65.347290 
4354.000000	65.224671 
4353.000000	65.091609 
4352.000000	64.959836 
4351.000000	64.842081 
4350.000000	64.749312 
4349.000000	64.688539 
4348.000000	64.661788 
4347.000000	64.666080 
4346.000000	64.694356 
4345.000000	64.736390 
4344.000000	64.782547 
4343.000000	64.825129 
4342.000000	64.860415 
4341.000000	64.887738 
4340.000000	64.909958 
4339.000000	64.931249 
4338.000000	64.955997 
4337.000000	64.986801 
4336.000000	65.024185 
4335.000000	65.066528 
4334.000000	65.110754 
4333.000000	65.153312 
4332.000000	65.190958 
4331.000000	65.221071 
4330.000000	65.241909 
4329.000000	65.252423 
4328.000000	65.252089 
4327.000000	65.240836 
4326.000000	65.219092 
4325.000000	65.187954 
4324.000000	65.149593 
4323.000000	65.107154 
4322.000000	65.065073 
4321.000000	65.027666 
4320.000000	64.998292 
4319.000000	64.978718 
4318.000000	64.968967 
4317.000000	64.967083 
4316.000000	64.969563 
4315.000000	64.972543 
4314.000000	64.972782 
4313.000000	64.968490 
4312.000000	64.959454 
4311.000000	64.946889 
4310.000000	64.932799 
4309.000000	64.919471 
4308.000000	64.908766 
4307.000000	64.901781 
4306.000000	64.898443 
4305.000000	64.897656 
4304.000000	64.897418 
4303.000000	64.895391 
4302.000000	64.889192 
4301.000000	64.876794 
4300.000000	64.857006 
4299.000000	64.829063 
4298.000000	64.793729 
4297.000000	64.752411 
4296.000000	64.707994 
4295.000000	64.664053 
4294.000000	64.625024 
4293.000000	64.595293 
4292.000000	64.579033 
4291.000000	64.579153 
4290.000000	64.596962 
4289.000000	64.631485 
4288.000000	64.679837 
4287.000000	64.737153 
4286.000000	64.797735 
4285.000000	64.855790 
4284.000000	64.906549 
4283.000000	64.946627 
4282.000000	64.975047 
4281.000000	64.992833 
4280.000000	65.002870 
4279.000000	65.008759 
4278.000000	65.014219 
4277.000000	65.021848 
4276.000000	65.033054 
4275.000000	65.047526 
4274.000000	65.063786 
4273.000000	65.079331 
4272.000000	65.091753 
4271.000000	65.099287 
4270.000000	65.101194 
4269.000000	65.097880 
4268.000000	65.091109 
4267.000000	65.083217 
4266.000000	65.076184 
4265.000000	65.071177 
4264.000000	65.068745 
4263.000000	65.067768 
4262.000000	65.065979 
4261.000000	65.060162 
4260.000000	65.047430 
4259.000000	65.025663 
4258.000000	64.994263 
4257.000000	64.954543 
4256.000000	64.909291 
4255.000000	64.862895 
4254.000000	64.820480 
4253.000000	64.786577 
4252.000000	64.764165 
4251.000000	64.754271 
4250.000000	64.755725 
4249.000000	64.765024 
4248.000000	64.777588 
4247.000000	64.788818 
4246.000000	64.795875 
4245.000000	64.797234 
4244.000000	64.794349 
4243.000000	64.790606 
4242.000000	64.791059 
4241.000000	64.800715 
4240.000000	64.823770 
4239.000000	64.862394 
4238.000000	64.915943 
4237.000000	64.981293 
4236.000000	65.052771 
4235.000000	65.123438 
4234.000000	65.185737 
4233.000000	65.233111 
4232.000000	65.260767 
4231.000000	65.266418 
4230.000000	65.250849 
4229.000000	65.217518 
4228.000000	65.172290 
4227.000000	65.122127 
4226.000000	65.074157 
4225.000000	65.034294 
4224.000000	65.005588 
4223.000000	64.987635 
4222.000000	64.977145 
4221.000000	64.968919 
4220.000000	64.956784 
4219.000000	64.935994 
4218.000000	64.904546 
4217.000000	64.864134 
4216.000000	64.819622 
4215.000000	64.777994 
4214.000000	64.746451 
4213.000000	64.730548 
4212.000000	64.732527 
4211.000000	64.750647 
4210.000000	64.779520 
4209.000000	64.811348 
4208.000000	64.837980 
4207.000000	64.852809 
4206.000000	64.852046 
4205.000000	64.835906 
4204.000000	64.808034 
4203.000000	64.774441 
4202.000000	64.741492 
4201.000000	64.715480 
4200.000000	64.701199 
4199.000000	64.701342 
4198.000000	64.716196 
4197.000000	64.744448 
4196.000000	64.783883 
4195.000000	64.831924 
4194.000000	64.886498 
4193.000000	64.945554 
4192.000000	65.007686 
4191.000000	65.071511 
4190.000000	65.135407 
4189.000000	65.197014 
4188.000000	65.253138 
4187.000000	65.300583 
4186.000000	65.336227 
4185.000000	65.357732 
4184.000000	65.364003 
4183.000000	65.356326 
4182.000000	65.337228 
4181.000000	65.310883 
4180.000000	65.281128 
4179.000000	65.251708 
4178.000000	65.223789 
4177.000000	65.196490 
4176.000000	65.166139 
4175.000000	65.128040 
4174.000000	65.077424 
4173.000000	65.011596 
4172.000000	64.930844 
4171.000000	64.839220 
4170.000000	64.743661 
4169.000000	64.653086 
4168.000000	64.576101 
4167.000000	64.519715 
4166.000000	64.487671 
4165.000000	64.480590 
4164.000000	64.495348 
4163.000000	64.526772 
4162.000000	64.568829 
4161.000000	64.615941 
4160.000000	64.663124 
4159.000000	64.707159 
