PE IR       SPECTRUM    SPECTRUM    ASCII       PEDS        1.60        
  -1
BZ6AA3~1.ASC
17/04/07
17:31:23.00
17/04/07
17:31:23.00
tln
$BZ1503107-1_t0052$<tbV0>[-5.2,-2.6,8.0,0.0,27,1,0]
370.000000
64









2002,4.07    
MIRTGS : RIGHTBACK : INTERNAL 2
MIR : ON : INTERNAL 2
OPTKBR

0.200000
8
8.000000
FILLER
RATIO
SPECTRUM
UNLOCKED 256

DOUBLE
64
COMBINED
1
0
0


1.000000
RATIO


1
0
TRUE
51149
0
LEFT NOT FITTED RIGHT NOT FITTED 0
NONE
NONE
15600
12.000000
4.427000
51148
TRUE
1 0 8 72 0 0 0 0 

15798.010000






#HDR
-1
-1
#GR
CM-1
%T
0.00002384185791015625
0.0
5000.000000
-1.000000
4631
8
73.136854
54.122018
#DATA
5000.000000	66.481018 
4999.000000	66.950726 
4998.000000	67.247962 
4997.000000	67.351484 
4996.000000	67.265152 
4995.000000	67.016315 
4994.000000	66.650676 
4993.000000	66.227674 
4992.000000	65.806412 
4991.000000	65.440940 
4990.000000	65.167331 
4989.000000	65.005660 
4988.000000	64.950990 
4987.000000	64.980268 
4986.000000	65.055751 
4985.000000	65.135693 
4984.000000	65.184426 
4983.000000	65.180969 
4982.000000	65.124130 
4981.000000	65.032100 
4980.000000	64.935708 
4979.000000	64.870429 
4978.000000	64.867019 
4977.000000	64.943814 
4976.000000	65.103030 
4975.000000	65.329623 
4974.000000	65.597319 
4973.000000	65.872287 
4972.000000	66.122889 
4971.000000	66.323113 
4970.000000	66.455483 
4969.000000	66.513371 
4968.000000	66.501021 
4967.000000	66.430139 
4966.000000	66.316056 
4965.000000	66.174840 
4964.000000	66.022253 
4963.000000	65.869951 
4962.000000	65.728759 
4961.000000	65.602278 
4960.000000	65.488982 
4959.000000	65.382909 
4958.000000	65.277147 
4957.000000	65.165495 
4956.000000	65.045595 
4955.000000	64.920043 
4954.000000	64.796638 
4953.000000	64.687156 
4952.000000	64.604759 
4951.000000	64.558506 
4950.000000	64.552211 
4949.000000	64.583802 
4948.000000	64.646482 
4947.000000	64.729475 
4946.000000	64.821410 
4945.000000	64.911818 
4944.000000	64.993643 
4943.000000	65.062403 
4942.000000	65.117692 
4941.000000	65.161252 
4940.000000	65.196847 
4939.000000	65.227723 
4938.000000	65.257143 
4937.000000	65.288424 
4936.000000	65.323472 
4935.000000	65.364336 
4934.000000	65.409731 
4933.000000	65.455555 
4932.000000	65.494155 
4931.000000	65.516257 
4930.000000	65.511226 
4929.000000	65.469479 
4928.000000	65.385341 
4927.000000	65.258836 
4926.000000	65.094828 
4925.000000	64.903116 
4924.000000	64.696907 
4923.000000	64.491653 
4922.000000	64.302015 
4921.000000	64.141488 
4920.000000	64.020514 
4919.000000	63.946628 
4918.000000	63.923001 
4917.000000	63.949441 
4916.000000	64.020490 
4915.000000	64.128017 
4914.000000	64.260458 
4913.000000	64.405560 
4912.000000	64.549016 
4911.000000	64.678978 
4910.000000	64.786410 
4909.000000	64.866542 
4908.000000	64.918112 
4907.000000	64.943313 
4906.000000	64.946460 
4905.000000	64.932250 
4904.000000	64.904928 
4903.000000	64.868640 
4902.000000	64.827823 
4901.000000	64.787507 
4900.000000	64.753651 
4899.000000	64.732432 
4898.000000	64.729404 
4897.000000	64.748215 
4896.000000	64.789772 
4895.000000	64.851284 
4894.000000	64.926552 
4893.000000	65.007567 
4892.000000	65.085315 
4891.000000	65.150570 
4890.000000	65.196061 
4889.000000	65.218329 
4888.000000	65.217328 
4887.000000	65.196537 
4886.000000	65.161061 
4885.000000	65.117383 
4884.000000	65.070152 
4883.000000	65.022706 
4882.000000	64.974498 
4881.000000	64.922523 
4880.000000	64.861702 
4879.000000	64.787364 
4878.000000	64.696621 
4877.000000	64.589929 
4876.000000	64.472508 
4875.000000	64.353895 
4874.000000	64.246129 
4873.000000	64.160990 
4872.000000	64.106512 
4871.000000	64.085364 
4870.000000	64.093494 
4869.000000	64.122366 
4868.000000	64.161038 
4867.000000	64.199995 
4866.000000	64.233589 
4865.000000	64.261388 
4864.000000	64.286828 
4863.000000	64.315724 
4862.000000	64.352512 
4861.000000	64.398694 
4860.000000	64.451122 
4859.000000	64.502716 
4858.000000	64.544296 
4857.000000	64.567399 
4856.000000	64.567494 
4855.000000	64.545035 
4854.000000	64.506173 
4853.000000	64.460515 
4852.000000	64.418530 
4851.000000	64.389014 
4850.000000	64.376854 
4849.000000	64.382839 
4848.000000	64.403724 
4847.000000	64.434599 
4846.000000	64.470505 
4845.000000	64.507341 
4844.000000	64.542746 
4843.000000	64.575862 
4842.000000	64.607167 
4841.000000	64.637184 
4840.000000	64.666438 
4839.000000	64.695405 
4838.000000	64.723968 
4837.000000	64.752340 
4836.000000	64.779877 
4835.000000	64.806151 
4834.000000	64.829611 
4833.000000	64.848518 
4832.000000	64.860010 
4831.000000	64.861178 
4830.000000	64.849257 
4829.000000	64.822840 
4828.000000	64.782595 
4827.000000	64.731860 
4826.000000	64.676284 
4825.000000	64.623045 
4824.000000	64.579081 
4823.000000	64.549922 
4822.000000	64.537858 
4821.000000	64.541578 
4820.000000	64.556670 
4819.000000	64.576840 
4818.000000	64.595437 
4817.000000	64.607191 
4816.000000	64.609456 
4815.000000	64.602637 
4814.000000	64.589333 
4813.000000	64.573574 
4812.000000	64.559125 
4811.000000	64.548897 
4810.000000	64.543986 
4809.000000	64.544105 
4808.000000	64.547991 
4807.000000	64.554500 
4806.000000	64.563274 
4805.000000	64.574956 
4804.000000	64.590430 
4803.000000	64.611077 
4802.000000	64.637684 
4801.000000	64.670205 
4800.000000	64.706897 
4799.000000	64.745283 
4798.000000	64.782500 
4797.000000	64.815998 
4796.000000	64.844226 
4795.000000	64.866566 
4794.000000	64.883375 
4793.000000	64.895653 
4792.000000	64.904880 
4791.000000	64.912819 
4790.000000	64.921283 
4789.000000	64.932346 
4788.000000	64.948081 
4787.000000	64.970588 
4786.000000	65.001058 
4785.000000	65.039730 
4784.000000	65.084695 
4783.000000	65.132737 
4782.000000	65.178442 
4781.000000	65.215778 
4780.000000	65.238213 
4779.000000	65.240406 
4778.000000	65.218853 
4777.000000	65.173459 
4776.000000	65.107321 
4775.000000	65.026760 
4774.000000	64.940118 
4773.000000	64.856767 
4772.000000	64.785361 
4771.000000	64.732432 
4770.000000	64.701509 
4769.000000	64.692878 
4768.000000	64.703583 
4767.000000	64.728593 
4766.000000	64.761352 
4765.000000	64.795160 
4764.000000	64.824175 
4763.000000	64.844131 
4762.000000	64.852237 
4761.000000	64.847421 
4760.000000	64.829969 
4759.000000	64.801621 
4758.000000	64.764571 
4757.000000	64.721941 
4756.000000	64.677476 
4755.000000	64.635634 
4754.000000	64.600872 
4753.000000	64.577388 
4752.000000	64.568471 
4751.000000	64.576363 
4750.000000	64.601135 
4749.000000	64.641571 
4748.000000	64.695096 
4747.000000	64.758348 
4746.000000	64.827275 
4745.000000	64.897656 
4744.000000	64.965248 
4743.000000	65.026068 
4742.000000	65.076589 
4741.000000	65.113711 
4740.000000	65.134859 
4739.000000	65.138888 
4738.000000	65.126228 
4737.000000	65.098762 
4736.000000	65.059304 
4735.000000	65.011835 
4734.000000	64.960289 
4733.000000	64.908432 
4732.000000	64.859151 
4731.000000	64.814400 
4730.000000	64.775204 
4729.000000	64.742016 
4728.000000	64.715075 
4727.000000	64.694976 
4726.000000	64.682006 
4725.000000	64.675927 
4724.000000	64.675474 
4723.000000	64.678430 
4722.000000	64.681696 
4721.000000	64.681100 
4720.000000	64.673018 
4719.000000	64.654970 
4718.000000	64.627218 
4717.000000	64.592838 
4716.000000	64.557456 
4715.000000	64.527869 
4714.000000	64.510464 
4713.000000	64.509439 
4712.000000	64.525365 
4711.000000	64.554810 
4710.000000	64.590859 
4709.000000	64.624929 
4708.000000	64.648747 
4707.000000	64.656805 
4706.000000	64.647364 
4705.000000	64.623498 
4704.000000	64.591717 
4703.000000	64.561295 
4702.000000	64.541459 
4701.000000	64.540290 
4700.000000	64.562559 
4699.000000	64.609479 
4698.000000	64.679002 
4697.000000	64.765858 
4696.000000	64.863228 
4695.000000	64.962935 
4694.000000	65.056872 
4693.000000	65.137267 
4692.000000	65.197563 
4691.000000	65.233445 
4690.000000	65.243148 
4689.000000	65.228652 
4688.000000	65.195393 
4687.000000	65.151906 
4686.000000	65.108180 
4685.000000	65.074443 
4684.000000	65.059065 
4683.000000	65.066623 
4682.000000	65.096569 
4681.000000	65.143632 
4680.000000	65.198326 
4679.000000	65.249276 
4678.000000	65.285372 
4677.000000	65.297961 
4676.000000	65.282630 
4675.000000	65.240359 
4674.000000	65.176558 
4673.000000	65.099763 
4672.000000	65.019178 
4671.000000	64.942789 
4670.000000	64.875555 
4669.000000	64.819169 
4668.000000	64.772343 
4667.000000	64.732360 
4666.000000	64.696431 
4665.000000	64.662885 
4664.000000	64.632606 
4663.000000	64.608979 
4662.000000	64.596700 
4661.000000	64.599776 
4660.000000	64.620685 
4659.000000	64.658975 
4658.000000	64.710736 
4657.000000	64.768981 
4656.000000	64.825201 
4655.000000	64.870524 
4654.000000	64.897942 
4653.000000	64.903402 
4652.000000	64.885950 
4651.000000	64.848256 
4650.000000	64.795422 
4649.000000	64.734888 
4648.000000	64.675140 
4647.000000	64.624238 
4646.000000	64.589357 
4645.000000	64.574694 
4644.000000	64.581465 
4643.000000	64.606833 
4642.000000	64.645051 
4641.000000	64.687752 
4640.000000	64.725589 
4639.000000	64.750337 
4638.000000	64.756417 
4637.000000	64.742279 
4636.000000	64.710307 
4635.000000	64.666581 
4634.000000	64.619278 
4633.000000	64.576911 
4632.000000	64.546298 
4631.000000	64.531588 
4630.000000	64.533495 
4629.000000	64.549851 
4628.000000	64.576506 
4627.000000	64.608502 
4626.000000	64.641046 
4625.000000	64.670109 
4624.000000	64.693117 
4623.000000	64.708042 
4622.000000	64.714479 
4621.000000	64.713072 
4620.000000	64.705848 
4619.000000	64.695954 
4618.000000	64.686989 
4617.000000	64.682555 
4616.000000	64.685130 
4615.000000	64.695954 
4614.000000	64.714097 
4613.000000	64.736652 
4612.000000	64.759349 
4611.000000	64.777541 
4610.000000	64.787673 
4609.000000	64.788317 
4608.000000	64.780497 
4607.000000	64.767622 
4606.000000	64.754390 
4605.000000	64.745306 
4604.000000	64.743447 
4603.000000	64.749646 
4602.000000	64.762473 
4601.000000	64.778804 
4600.000000	64.795041 
4599.000000	64.808082 
4598.000000	64.815974 
4597.000000	64.818406 
4596.000000	64.816117 
4595.000000	64.810895 
4594.000000	64.805102 
4593.000000	64.800691 
4592.000000	64.798903 
4591.000000	64.799571 
4590.000000	64.801597 
4589.000000	64.802742 
4588.000000	64.800620 
4587.000000	64.793348 
4586.000000	64.779829 
4585.000000	64.760446 
4584.000000	64.737296 
4583.000000	64.713835 
4582.000000	64.693784 
4581.000000	64.680862 
4580.000000	64.677786 
4579.000000	64.685511 
4578.000000	64.703059 
4577.000000	64.727568 
4576.000000	64.754867 
4575.000000	64.780664 
4574.000000	64.801430 
4573.000000	64.814615 
4572.000000	64.819073 
4571.000000	64.814543 
4570.000000	64.801716 
4569.000000	64.781141 
4568.000000	64.753961 
4567.000000	64.721870 
4566.000000	64.687609 
4565.000000	64.654636 
4564.000000	64.627289 
4563.000000	64.609575 
4562.000000	64.605331 
4561.000000	64.616847 
4560.000000	64.645290 
4559.000000	64.689874 
4558.000000	64.748954 
4557.000000	64.819931 
4556.000000	64.899468 
4555.000000	64.983367 
4554.000000	65.066528 
4553.000000	65.143346 
4552.000000	65.207290 
4551.000000	65.251827 
4550.000000	65.271186 
4549.000000	65.261650 
4548.000000	65.222311 
4547.000000	65.155625 
4546.000000	65.068006 
4545.000000	64.968204 
4544.000000	64.866566 
4543.000000	64.772582 
4542.000000	64.693641 
4541.000000	64.633893 
4540.000000	64.594101 
4539.000000	64.572811 
4538.000000	64.566636 
4537.000000	64.572620 
4536.000000	64.588165 
4535.000000	64.612603 
4534.000000	64.645838 
4533.000000	64.689016 
4532.000000	64.742612 
4531.000000	64.806127 
4530.000000	64.876794 
4529.000000	64.949965 
4528.000000	65.019488 
4527.000000	65.078854 
4526.000000	65.122365 
4525.000000	65.146851 
4524.000000	65.152478 
4523.000000	65.142369 
4522.000000	65.121555 
4521.000000	65.096020 
4520.000000	65.070819 
4519.000000	65.048670 
4518.000000	65.029692 
4517.000000	65.012049 
4516.000000	64.993000 
4515.000000	64.970612 
4514.000000	64.944839 
4513.000000	64.918017 
4512.000000	64.894604 
4511.000000	64.880084 
4510.000000	64.879488 
4509.000000	64.895462 
4508.000000	64.927506 
4507.000000	64.971208 
4506.000000	65.019583 
4505.000000	65.064525 
4504.000000	65.098452 
4503.000000	65.116214 
4502.000000	65.116000 
4501.000000	65.099620 
4500.000000	65.071725 
4499.000000	65.038275 
4498.000000	65.004420 
4497.000000	64.973020 
4496.000000	64.944195 
4495.000000	64.915609 
4494.000000	64.883613 
4493.000000	64.844584 
4492.000000	64.796757 
4491.000000	64.740967 
4490.000000	64.679956 
4489.000000	64.618110 
4488.000000	64.560961 
4487.000000	64.513492 
4486.000000	64.478015 
4485.000000	64.453983 
4484.000000	64.438390 
4483.000000	64.426183 
4482.000000	64.411687 
4481.000000	64.389944 
4480.000000	64.358019 
4479.000000	64.315915 
4478.000000	64.264106 
4477.000000	64.207363 
4476.000000	64.153623 
4475.000000	64.112973 
4474.000000	64.093971 
4473.000000	64.106178 
4472.000000	64.158749 
4471.000000	64.252829 
4470.000000	64.380741 
4469.000000	64.525938 
4468.000000	64.666891 
4467.000000	64.787006 
4466.000000	64.879226 
4465.000000	64.942789 
4464.000000	64.985060 
4463.000000	65.023851 
4462.000000	65.079498 
4461.000000	65.167284 
4460.000000	65.292453 
4459.000000	65.447592 
4458.000000	65.614843 
4457.000000	65.770173 
4456.000000	65.892171 
4455.000000	65.967655 
4454.000000	65.999627 
4453.000000	66.001081 
4452.000000	66.004180 
4451.000000	66.046190 
4450.000000	66.175341 
4449.000000	66.433286 
4448.000000	66.860938 
4447.000000	67.488312 
4446.000000	68.322205 
4445.000000	69.339847 
4444.000000	70.466613 
4443.000000	71.579647 
4442.000000	72.513175 
4441.000000	73.087596 
4440.000000	73.136854 
4439.000000	72.552800 
4438.000000	71.318006 
4437.000000	69.524979 
4436.000000	67.375111 
4435.000000	65.140700 
4434.000000	63.123393 
4433.000000	61.580467 
4432.000000	60.674548 
4431.000000	60.437464 
4430.000000	60.768580 
4429.000000	61.470890 
4428.000000	62.308120 
4427.000000	63.060903 
4426.000000	63.575053 
4425.000000	63.786077 
4424.000000	63.703322 
4423.000000	63.403058 
4422.000000	62.970757 
4421.000000	62.504363 
4420.000000	62.080359 
4419.000000	61.758732 
4418.000000	61.579513 
4417.000000	61.560750 
4416.000000	61.704134 
4415.000000	61.988902 
4414.000000	62.378501 
4413.000000	62.824392 
4412.000000	63.275623 
4411.000000	63.682699 
4410.000000	64.008522 
4409.000000	64.233374 
4408.000000	64.357805 
4407.000000	64.401531 
4406.000000	64.395546 
4405.000000	64.370226 
4404.000000	64.349246 
4403.000000	64.350438 
4402.000000	64.378976 
4401.000000	64.427208 
4400.000000	64.482641 
4399.000000	64.541387 
4398.000000	64.602589 
4397.000000	64.671754 
4396.000000	64.754104 
4395.000000	64.849138 
4394.000000	64.951872 
4393.000000	65.052533 
4392.000000	65.138196 
4391.000000	65.196442 
4390.000000	65.216588 
4389.000000	65.192675 
4388.000000	65.126180 
4387.000000	65.026307 
4386.000000	64.907073 
4385.000000	64.784598 
4384.000000	64.674329 
4383.000000	64.587521 
4382.000000	64.530897 
4381.000000	64.504957 
4380.000000	64.503455 
4379.000000	64.516115 
4378.000000	64.532732 
4377.000000	64.544653 
4376.000000	64.544916 
4375.000000	64.531183 
4374.000000	64.504647 
4373.000000	64.470934 
4372.000000	64.436411 
4371.000000	64.408969 
4370.000000	64.395236 
4369.000000	64.400911 
4368.000000	64.428639 
4367.000000	64.480233 
4366.000000	64.556264 
4365.000000	64.656758 
4364.000000	64.780306 
4363.000000	64.924430 
4362.000000	65.084791 
4361.000000	65.254473 
4360.000000	65.423727 
4359.000000	65.581130 
4358.000000	65.714383 
4357.000000	65.812873 
4356.000000	65.868806 
4355.000000	65.878725 
4354.000000	65.843820 
4353.000000	65.771389 
4352.000000	65.671992 
4351.000000	65.558862 
4350.000000	65.444111 
4349.000000	65.338945 
4348.000000	65.249919 
4347.000000	65.179610 
4346.000000	65.125894 
4345.000000	65.083765 
4344.000000	65.047073 
4343.000000	65.010714 
4342.000000	64.971828 
4341.000000	64.930176 
4340.000000	64.887905 
4339.000000	64.847922 
4338.000000	64.812946 
4337.000000	64.783716 
4336.000000	64.759850 
4335.000000	64.739656 
4334.000000	64.721107 
4333.000000	64.702773 
4332.000000	64.684867 
4331.000000	64.669632 
4330.000000	64.659976 
4329.000000	64.658904 
4328.000000	64.668917 
4327.000000	64.690947 
4326.000000	64.723467 
4325.000000	64.762687 
4324.000000	64.803338 
4323.000000	64.839816 
4322.000000	64.867329 
4321.000000	64.883351 
4320.000000	64.887213 
4319.000000	64.880943 
4318.000000	64.868807 
4317.000000	64.856052 
4316.000000	64.847159 
4315.000000	64.845442 
4314.000000	64.852476 
4313.000000	64.867544 
4312.000000	64.888191 
4311.000000	64.910650 
4310.000000	64.931154 
4309.000000	64.946460 
4308.000000	64.954304 
4307.000000	64.953851 
4306.000000	64.945673 
4305.000000	64.930772 
4304.000000	64.910531 
4303.000000	64.886331 
4302.000000	64.859843 
4301.000000	64.833021 
4300.000000	64.808440 
4299.000000	64.789128 
4298.000000	64.778494 
4297.000000	64.779448 
4296.000000	64.793801 
4295.000000	64.821410 
4294.000000	64.860033 
4293.000000	64.905929 
4292.000000	64.953804 
4291.000000	64.998102 
4290.000000	65.033388 
4289.000000	65.055584 
4288.000000	65.062117 
4287.000000	65.052342 
4286.000000	65.027785 
4285.000000	64.991736 
4284.000000	64.948916 
4283.000000	64.904761 
4282.000000	64.864730 
4281.000000	64.833736 
4280.000000	64.815330 
4279.000000	64.811348 
4278.000000	64.821696 
4277.000000	64.844512 
4276.000000	64.876365 
4275.000000	64.913058 
4274.000000	64.950275 
4273.000000	64.984369 
4272.000000	65.012645 
4271.000000	65.033626 
4270.000000	65.046477 
4269.000000	65.051388 
4268.000000	65.049052 
4267.000000	65.040731 
4266.000000	65.028166 
4265.000000	65.013384 
4264.000000	64.999055 
4263.000000	64.987087 
4262.000000	64.978909 
4261.000000	64.974308 
4260.000000	64.971852 
4259.000000	64.968919 
4258.000000	64.962530 
4257.000000	64.950227 
4256.000000	64.930629 
4255.000000	64.904308 
4254.000000	64.873647 
4253.000000	64.842510 
4252.000000	64.815282 
4251.000000	64.795756 
4250.000000	64.786362 
4249.000000	64.787435 
4248.000000	64.797616 
4247.000000	64.814400 
4246.000000	64.834690 
4245.000000	64.855694 
4244.000000	64.875364 
4243.000000	64.892864 
4242.000000	64.908266 
4241.000000	64.921927 
4240.000000	64.934587 
4239.000000	64.946842 
4238.000000	64.959430 
4237.000000	64.972972 
4236.000000	64.987921 
4235.000000	65.004539 
4234.000000	65.022611 
4233.000000	65.041518 
4232.000000	65.060043 
4231.000000	65.076613 
4230.000000	65.089416 
4229.000000	65.096926 
4228.000000	65.098357 
4227.000000	65.093874 
4226.000000	65.084719 
4225.000000	65.072965 
4224.000000	65.060830 
4223.000000	65.050125 
4222.000000	65.041804 
4221.000000	65.035605 
4220.000000	65.030121 
4219.000000	65.023374 
4218.000000	65.013527 
4217.000000	64.999794 
4216.000000	64.982771 
4215.000000	64.964580 
4214.000000	64.948248 
4213.000000	64.936923 
4212.000000	64.933347 
4211.000000	64.938664 
4210.000000	64.951944 
4209.000000	64.970421 
4208.000000	64.990282 
4207.000000	65.007281 
4206.000000	65.017962 
4205.000000	65.020322 
4204.000000	65.014100 
4203.000000	65.000772 
4202.000000	64.983057 
4201.000000	64.964222 
4200.000000	64.947104 
4199.000000	64.933824 
4198.000000	64.925575 
4197.000000	64.922499 
4196.000000	64.924049 
4195.000000	64.929437 
4194.000000	64.937996 
4193.000000	64.949297 
4192.000000	64.962911 
4191.000000	64.978408 
4190.000000	64.994525 
4189.000000	65.009498 
4188.000000	65.020775 
4187.000000	65.025281 
4186.000000	65.020227 
4185.000000	65.003538 
4184.000000	64.974927 
4183.000000	64.936137 
4182.000000	64.891386 
4181.000000	64.846849 
4180.000000	64.809799 
4179.000000	64.787292 
4178.000000	64.784789 
4177.000000	64.804887 
4176.000000	64.846754 
4175.000000	64.906072 
4174.000000	64.976119 
4173.000000	65.048813 
4172.000000	65.116381 
4171.000000	65.172600 
4170.000000	65.213298 
4169.000000	65.236854 
4168.000000	65.243649 
4167.000000	65.235543 
4166.000000	65.215253 
4165.000000	65.185356 
4164.000000	65.148544 
4163.000000	65.107035 
4162.000000	65.063524 
4161.000000	65.020465 
4160.000000	64.980936 
4159.000000	64.947366 
