PE IR       SPECTRUM    SPECTRUM    ASCII       PEDS        1.60        
  -1
BZ1503~3.ASC
17/04/07
13:20:30.00
17/04/07
13:20:30.00
tln
$BZ1503107-1_t0001$<tbV0>[13.0,-13.0,8.0,0.0,27,1,0]
370.000000
64









2002,4.07    
MIRTGS : RIGHTBACK : INTERNAL 2
MIR : ON : INTERNAL 2
OPTKBR

0.200000
8
8.000000
FILLER
RATIO
SPECTRUM
UNLOCKED 256

DOUBLE
64
COMBINED
1
0
0


1.000000
RATIO


1
0
TRUE
51149
0
LEFT NOT FITTED RIGHT NOT FITTED 0
NONE
NONE
15600
12.000000
4.427000
51148
TRUE
1 0 8 72 0 0 0 0 

15798.010000






#HDR
-1
-1
#GR
CM-1
%T
0.00002384185791015625
0.0
5000.000000
-1.000000
4631
8
109.599995
41.867899
#DATA
5000.000000	65.336561  
4999.000000	65.295314  
4998.000000	65.231561  
4997.000000	65.150427  
4996.000000	65.057492  
4995.000000	64.958453  
4994.000000	64.858651  
4993.000000	64.763879  
4992.000000	64.679312  
4991.000000	64.609360  
4990.000000	64.557361  
4989.000000	64.525508  
4988.000000	64.513969  
4987.000000	64.520549  
4986.000000	64.540863  
4985.000000	64.568805  
4984.000000	64.597916  
4983.000000	64.622378  
4982.000000	64.638423  
4981.000000	64.644718  
4980.000000	64.642596  
4979.000000	64.634966  
4978.000000	64.625453  
4977.000000	64.616608  
4976.000000	64.608407  
4975.000000	64.598441  
4974.000000	64.581751  
4973.000000	64.553904  
4972.000000	64.512515  
4971.000000	64.460182  
4970.000000	64.403748  
4969.000000	64.355230  
4968.000000	64.328742  
4967.000000	64.337897  
4966.000000	64.391970  
4965.000000	64.493203  
4964.000000	64.635252  
4963.000000	64.803838  
4962.000000	64.979696  
4961.000000	65.141510  
4960.000000	65.270209  
4959.000000	65.352773  
4958.000000	65.384459  
4957.000000	65.368723  
4956.000000	65.315675  
4955.000000	65.240216  
4954.000000	65.158629  
4953.000000	65.086126  
4952.000000	65.033769  
4951.000000	65.008425  
4950.000000	65.010714  
4949.000000	65.036320  
4948.000000	65.076398  
4947.000000	65.119647  
4946.000000	65.154933  
4945.000000	65.173196  
4944.000000	65.169787  
4943.000000	65.144371  
4942.000000	65.101552  
4941.000000	65.048336  
4940.000000	64.993047  
4939.000000	64.942741  
4938.000000	64.902186  
4937.000000	64.873075  
4936.000000	64.854598  
4935.000000	64.844155  
4934.000000	64.839816  
4933.000000	64.841389  
4932.000000	64.850831  
4931.000000	64.871215  
4930.000000	64.906191  
4929.000000	64.958310  
4928.000000	65.026950  
4927.000000	65.107274  
4926.000000	65.191745  
4925.000000	65.271043  
4924.000000	65.336298  
4923.000000	65.380454  
4922.000000	65.399384  
4921.000000	65.392589  
4920.000000	65.362906  
4919.000000	65.316438  
4918.000000	65.261578  
4917.000000	65.207409  
4916.000000	65.163397  
4915.000000	65.136265  
4914.000000	65.129470  
4913.000000	65.141558  
4912.000000	65.167903  
4911.000000	65.200209  
4910.000000	65.228796  
4909.000000	65.244364  
4908.000000	65.240192  
4907.000000	65.213322  
4906.000000	65.165281  
4905.000000	65.101242  
4904.000000	65.028285  
4903.000000	64.954662  
4902.000000	64.887785  
4901.000000	64.832592  
4900.000000	64.790749  
4899.000000	64.761686  
4898.000000	64.742875  
4897.000000	64.730715  
4896.000000	64.721274  
4895.000000	64.709424  
4894.000000	64.691376  
4893.000000	64.663648  
4892.000000	64.627003  
4891.000000	64.585542  
4890.000000	64.548587  
4889.000000	64.528226  
4888.000000	64.537501  
4887.000000	64.587712  
4886.000000	64.683532  
4885.000000	64.820694  
4884.000000	64.985060  
4883.000000	65.155959  
4882.000000	65.308046  
4881.000000	65.416979  
4880.000000	65.463376  
4879.000000	65.437269  
4878.000000	65.338873  
4877.000000	65.179014  
4876.000000	64.975070  
4875.000000	64.748120  
4874.000000	64.520239  
4873.000000	64.312529  
4872.000000	64.143109  
4871.000000	64.026618  
4870.000000	63.975811  
4869.000000	63.999509  
4868.000000	64.100694  
4867.000000	64.274024  
4866.000000	64.505386  
4865.000000	64.770603  
4864.000000	65.038657  
4863.000000	65.273785  
4862.000000	65.440869  
4861.000000	65.510320  
4860.000000	65.464806  
4859.000000	65.300941  
4858.000000	65.030717  
4857.000000	64.679598  
4856.000000	64.282608  
4855.000000	63.879728  
4854.000000	63.509893  
4853.000000	63.206982  
4852.000000	62.996435  
4851.000000	62.892508  
4850.000000	62.897849  
4849.000000	63.004899  
4848.000000	63.198447  
4847.000000	63.457870  
4846.000000	63.760709  
4845.000000	64.085221  
4844.000000	64.412546  
4843.000000	64.729309  
4842.000000	65.025019  
4841.000000	65.290307  
4840.000000	65.512776  
4839.000000	65.679454  
4838.000000	65.773653  
4837.000000	65.779280  
4836.000000	65.683245  
4835.000000	65.482997  
4834.000000	65.188074  
4833.000000	64.823341  
4832.000000	64.425563  
4831.000000	64.041018  
4830.000000	63.714289  
4829.000000	63.481783  
4828.000000	63.361954  
4827.000000	63.352417  
4826.000000	63.431024  
4825.000000	63.561463  
4824.000000	63.703632  
4823.000000	63.822746  
4822.000000	63.899636  
4821.000000	63.933992  
4820.000000	63.944172  
4819.000000	63.960170  
4818.000000	64.014887  
4817.000000	64.133024  
4816.000000	64.322876  
4815.000000	64.572048  
4814.000000	64.850807  
4813.000000	65.119051  
4812.000000	65.336155  
4811.000000	65.473270  
4810.000000	65.521430  
4809.000000	65.494322  
4808.000000	65.424537  
4807.000000	65.354156  
4806.000000	65.324187  
4805.000000	65.360689  
4804.000000	65.471053  
4803.000000	65.636897  
4802.000000	65.822005  
4801.000000	65.978312  
4800.000000	66.062307  
4799.000000	66.042280  
4798.000000	65.907573  
4797.000000	65.670347  
4796.000000	65.362477  
4795.000000	65.026950  
4794.000000	64.707946  
4793.000000	64.442038  
4792.000000	64.251637  
4791.000000	64.144968  
4790.000000	64.117264  
4789.000000	64.155435  
4788.000000	64.242696  
4787.000000	64.362382  
4786.000000	64.501571  
4785.000000	64.647793  
4784.000000	64.792895  
4783.000000	64.930272  
4782.000000	65.055918  
4781.000000	65.165710  
4780.000000	65.256047  
4779.000000	65.325522  
4778.000000	65.371823  
4777.000000	65.394139  
4776.000000	65.390133  
4775.000000	65.358376  
4774.000000	65.296840  
4773.000000	65.205907  
4772.000000	65.087532  
4771.000000	64.946413  
4770.000000	64.791202  
4769.000000	64.634442  
4768.000000	64.492249  
4767.000000	64.381957  
4766.000000	64.319348  
4765.000000	64.315152  
4764.000000	64.371252  
4763.000000	64.479470  
4762.000000	64.622807  
4761.000000	64.778566  
4760.000000	64.921283  
4759.000000	65.028548  
4758.000000	65.084385  
4757.000000	65.083074  
4756.000000	65.029072  
4755.000000	64.935708  
4754.000000	64.820265  
4753.000000	64.701032  
4752.000000	64.593887  
4751.000000	64.509844  
4750.000000	64.453721  
4749.000000	64.425945  
4748.000000	64.425063  
4747.000000	64.448308  
4746.000000	64.493656  
4745.000000	64.558482  
4744.000000	64.639091  
4743.000000	64.730167  
4742.000000	64.823913  
4741.000000	64.912343  
4740.000000	64.987659  
4739.000000	65.045237  
4738.000000	65.083813  
4737.000000	65.104413  
4736.000000	65.109038  
4735.000000	65.100193  
4734.000000	65.079140  
4733.000000	65.045285  
4732.000000	64.996027  
4731.000000	64.929437  
4730.000000	64.844274  
4729.000000	64.742779  
4728.000000	64.629292  
4727.000000	64.510416  
4726.000000	64.393353  
4725.000000	64.284515  
4724.000000	64.189243  
4723.000000	64.109802  
4722.000000	64.047741  
4721.000000	64.003658  
4720.000000	63.978552  
4719.000000	63.974070  
4718.000000	63.990688  
4717.000000	64.026331  
4716.000000	64.075803  
4715.000000	64.130377  
4714.000000	64.180827  
4713.000000	64.219284  
4712.000000	64.242339  
4711.000000	64.252138  
4710.000000	64.256381  
4709.000000	64.266085  
4708.000000	64.292573  
4707.000000	64.343333  
4706.000000	64.419603  
4705.000000	64.514589  
4704.000000	64.615821  
4703.000000	64.707183  
4702.000000	64.773106  
4701.000000	64.802050  
4700.000000	64.790177  
4699.000000	64.741182  
4698.000000	64.664649  
4697.000000	64.574098  
4696.000000	64.483380  
4695.000000	64.404368  
4694.000000	64.345026  
4693.000000	64.308977  
4692.000000	64.296817  
4691.000000	64.306163  
4690.000000	64.332938  
4689.000000	64.372324  
4688.000000	64.419364  
4687.000000	64.470100  
4686.000000	64.521813  
4685.000000	64.573049  
4684.000000	64.623498  
4683.000000	64.674496  
4682.000000	64.728260  
4681.000000	64.787149  
4680.000000	64.852666  
4679.000000	64.925003  
4678.000000	65.002059  
4677.000000	65.079998  
4676.000000	65.153002  
4675.000000	65.214896  
4674.000000	65.259671  
4673.000000	65.283656  
4672.000000	65.285205  
4671.000000	65.266132  
4670.000000	65.230321  
4669.000000	65.183639  
4668.000000	65.132355  
4667.000000	65.082693  
4666.000000	65.039181  
4665.000000	65.005159  
4664.000000	64.981269  
4663.000000	64.966082  
4662.000000	64.956259  
4661.000000	64.947628  
4660.000000	64.935898  
4659.000000	64.917969  
4658.000000	64.892148  
4657.000000	64.858889  
4656.000000	64.821386  
4655.000000	64.785337  
4654.000000	64.757227  
4653.000000	64.743185  
4652.000000	64.747858  
4651.000000	64.773273  
4650.000000	64.817643  
4649.000000	64.876008  
4648.000000	64.941358  
4647.000000	65.005993  
4646.000000	65.062832  
4645.000000	65.106773  
4644.000000	65.135622  
4643.000000	65.149855  
4642.000000	65.151858  
4641.000000	65.144944  
4640.000000	65.132594  
4639.000000	65.117144  
4638.000000	65.100312  
4637.000000	65.081954  
4636.000000	65.061068  
4635.000000	65.036177  
4634.000000	65.006828  
4633.000000	64.972519  
4632.000000	64.933252  
4631.000000	64.889717  
4630.000000	64.843201  
4629.000000	64.795184  
4628.000000	64.747357  
4627.000000	64.701652  
4626.000000	64.660191  
4625.000000	64.624810  
4624.000000	64.597225  
4623.000000	64.578509  
4622.000000	64.569425  
4621.000000	64.569640  
4620.000000	64.578199  
4619.000000	64.593291  
4618.000000	64.612698  
4617.000000	64.633393  
4616.000000	64.652800  
4615.000000	64.668297  
4614.000000	64.679050  
4613.000000	64.685487  
4612.000000	64.690232  
4611.000000	64.697098  
4610.000000	64.710855  
4609.000000	64.736080  
4608.000000	64.776372  
4607.000000	64.833140  
4606.000000	64.904999  
4605.000000	64.987874  
4604.000000	65.075373  
4603.000000	65.160274  
4602.000000	65.235710  
4601.000000	65.296530  
4600.000000	65.340137  
4599.000000	65.366554  
4598.000000	65.377807  
4597.000000	65.377712  
4596.000000	65.370583  
4595.000000	65.361046  
4594.000000	65.353918  
4593.000000	65.353131  
4592.000000	65.362429  
4591.000000	65.383553  
4590.000000	65.416812  
4589.000000	65.460205  
4588.000000	65.509247  
4587.000000	65.558314  
4586.000000	65.601491  
4585.000000	65.634155  
4584.000000	65.653657  
4583.000000	65.660119  
4582.000000	65.656590  
4581.000000	65.647459  
4580.000000	65.637183  
4579.000000	65.628385  
4578.000000	65.621304  
4577.000000	65.613269  
4576.000000	65.599846  
4575.000000	65.576744  
4574.000000	65.541291  
4573.000000	65.494012  
4572.000000	65.438294  
4571.000000	65.379881  
4570.000000	65.324950  
4569.000000	65.278029  
4568.000000	65.240955  
4567.000000	65.212726  
4566.000000	65.189957  
4565.000000	65.168571  
4564.000000	65.144848  
4563.000000	65.116667  
4562.000000	65.083909  
4561.000000	65.047979  
4560.000000	65.011382  
4559.000000	64.976382  
4558.000000	64.944648  
4557.000000	64.916014  
4556.000000	64.889597  
4555.000000	64.864015  
4554.000000	64.838504  
4553.000000	64.813208  
4552.000000	64.790081  
4551.000000	64.772272  
4550.000000	64.763212  
4549.000000	64.765620  
4548.000000	64.779901  
4547.000000	64.804267  
4546.000000	64.834833  
4545.000000	64.867091  
4544.000000	64.896965  
4543.000000	64.921998  
4542.000000	64.942908  
4541.000000	64.962363  
4540.000000	64.983487  
4539.000000	65.008449  
4538.000000	65.037775  
4537.000000	65.069174  
4536.000000	65.098333  
4535.000000	65.119647  
4534.000000	65.128898  
4533.000000	65.123343  
4532.000000	65.103220  
4531.000000	65.071272  
4530.000000	65.032672  
4529.000000	64.993214  
4528.000000	64.958214  
4527.000000	64.931273  
4526.000000	64.914107  
4525.000000	64.905905  
4524.000000	64.904022  
4523.000000	64.906287  
4522.000000	64.912247  
4521.000000	64.921951  
4520.000000	64.936900  
4519.000000	64.959597  
4518.000000	64.993596  
4517.000000	65.042281  
4516.000000	65.107822  
4515.000000	65.191864  
4514.000000	65.292763  
4513.000000	65.402626  
4512.000000	65.510177  
4511.000000	65.602684  
4510.000000	65.669870  
4509.000000	65.708398  
4508.000000	65.720725  
4507.000000	65.714287  
4506.000000	65.698647  
4505.000000	65.684580  
4504.000000	65.677881  
4503.000000	65.674805  
4502.000000	65.670084  
4501.000000	65.659856  
4500.000000	65.646052  
4499.000000	65.636587  
4498.000000	65.650439  
4497.000000	65.713834  
4496.000000	65.844655  
4495.000000	66.046166  
4494.000000	66.308903  
4493.000000	66.612339  
4492.000000	66.920256  
4491.000000	67.196893  
4490.000000	67.420411  
4489.000000	67.590498  
4488.000000	67.737913  
4487.000000	67.906069  
4486.000000	68.137049  
4485.000000	68.446850  
4484.000000	68.827557  
4483.000000	69.226074  
4482.000000	69.556450  
4481.000000	69.713377  
4480.000000	69.607043  
4479.000000	69.181084  
4478.000000	68.435072  
4477.000000	67.427110  
4476.000000	66.271138  
4475.000000	65.100455  
4474.000000	64.041829  
4473.000000	63.173103  
4472.000000	62.510299  
4471.000000	61.984205  
4470.000000	61.463809  
4469.000000	60.782146  
4468.000000	59.792661  
4467.000000	58.407115  
4466.000000	56.645107  
4465.000000	54.629468  
4464.000000	52.591323  
4463.000000	50.820517  
4462.000000	49.620270  
4461.000000	49.227476  
4460.000000	49.769353  
4459.000000	51.225519  
4458.000000	53.432869  
4457.000000	56.106615  
4456.000000	58.908271  
4455.000000	61.503291  
4454.000000	63.632297  
4453.000000	65.140700  
4452.000000	66.005158  
4451.000000	66.303825  
4450.000000	66.194033  
4449.000000	65.858268  
4448.000000	65.466022  
4447.000000	65.142703  
4446.000000	64.956593  
4445.000000	64.931726  
4444.000000	65.040779  
4443.000000	65.231871  
4442.000000	65.445065  
4441.000000	65.633606  
4440.000000	65.760397  
4439.000000	65.806865  
4438.000000	65.770125  
4437.000000	65.662813  
4436.000000	65.503573  
4435.000000	65.315628  
4434.000000	65.126371  
4433.000000	64.960789  
4432.000000	64.838099  
4431.000000	64.768886  
4430.000000	64.757657  
4429.000000	64.800262  
4428.000000	64.886355  
4427.000000	65.001296  
4426.000000	65.124464  
4425.000000	65.239500  
4424.000000	65.341401  
4423.000000	65.429639  
4422.000000	65.500164  
4421.000000	65.554976  
4420.000000	65.601491  
4419.000000	65.646529  
4418.000000	65.694284  
4417.000000	65.745592  
4416.000000	65.797567  
4415.000000	65.845990  
4414.000000	65.886640  
4413.000000	65.916275  
4412.000000	65.933322  
4411.000000	65.938305  
4410.000000	65.933012  
4409.000000	65.919995  
4408.000000	65.900897  
4407.000000	65.875768  
4406.000000	65.842866  
4405.000000	65.800094  
4404.000000	65.745544  
4403.000000	65.680003  
4402.000000	65.606307  
4401.000000	65.529179  
4400.000000	65.454530  
4399.000000	65.388488  
4398.000000	65.335798  
4397.000000	65.298652  
4396.000000	65.276718  
4395.000000	65.266942  
4394.000000	65.265178  
4393.000000	65.267634  
4392.000000	65.270924  
4391.000000	65.272498  
4390.000000	65.270781  
4389.000000	65.264868  
4388.000000	65.254020  
4387.000000	65.237641  
4386.000000	65.215849  
4385.000000	65.189385  
4384.000000	65.160512  
4383.000000	65.132141  
4382.000000	65.107202  
4381.000000	65.087819  
4380.000000	65.074133  
4379.000000	65.064620  
4378.000000	65.056443  
4377.000000	65.046930  
4376.000000	65.034508  
4375.000000	65.019655  
4374.000000	65.004754  
4373.000000	64.993619  
4372.000000	64.990544  
4371.000000	64.998269  
4370.000000	65.016722  
4369.000000	65.042734  
4368.000000	65.070128  
4367.000000	65.091967  
4366.000000	65.101766  
4365.000000	65.096569  
4364.000000	65.077710  
4363.000000	65.051364  
4362.000000	65.027165  
4361.000000	65.015673  
4360.000000	65.025496  
4359.000000	65.061163  
4358.000000	65.121555  
4357.000000	65.199756  
4356.000000	65.284514  
4355.000000	65.362501  
4354.000000	65.421724  
4353.000000	65.454077  
4352.000000	65.457558  
4351.000000	65.436553  
4350.000000	65.400624  
4349.000000	65.362286  
4348.000000	65.333056  
4347.000000	65.320372  
4346.000000	65.325617  
4345.000000	65.344858  
4344.000000	65.369629  
4343.000000	65.390396  
4342.000000	65.398931  
4341.000000	65.391635  
4340.000000	65.369319  
4339.000000	65.337014  
4338.000000	65.301489  
4337.000000	65.268921  
4336.000000	65.242862  
4335.000000	65.223193  
4334.000000	65.206480  
4333.000000	65.187573  
4332.000000	65.161776  
4331.000000	65.126585  
4330.000000	65.082883  
4329.000000	65.034675  
4328.000000	64.987659  
4327.000000	64.948105  
4326.000000	64.919686  
4325.000000	64.904022  
4324.000000	64.900302  
4323.000000	64.906907  
4322.000000	64.921784  
4321.000000	64.943814  
4320.000000	64.973330  
4319.000000	65.011596  
4318.000000	65.059518  
4317.000000	65.116810  
4316.000000	65.180444  
4315.000000	65.245318  
4314.000000	65.304470  
4313.000000	65.350961  
4312.000000	65.379428  
4311.000000	65.387868  
4310.000000	65.378117  
4309.000000	65.355825  
4308.000000	65.328955  
4307.000000	65.305781  
4306.000000	65.292453  
4305.000000	65.291166  
4304.000000	65.299224  
4303.000000	65.310096  
4302.000000	65.315198  
4301.000000	65.306043  
4300.000000	65.277051  
4299.000000	65.227103  
4298.000000	65.160727  
4297.000000	65.086722  
4296.000000	65.016865  
4295.000000	64.962840  
4294.000000	64.933943  
4293.000000	64.934825  
4292.000000	64.964556  
4291.000000	65.017175  
4290.000000	65.082716  
4289.000000	65.150022  
4288.000000	65.208315  
4287.000000	65.249276  
4286.000000	65.268301  
4285.000000	65.264797  
4284.000000	65.241622  
4283.000000	65.203595  
4282.000000	65.156698  
4281.000000	65.106844  
4280.000000	65.059137  
4279.000000	65.017199  
4278.000000	64.983272  
4277.000000	64.958286  
4276.000000	64.942145  
4275.000000	64.934158  
4274.000000	64.932847  
4273.000000	64.936447  
4272.000000	64.942979  
4271.000000	64.950942  
4270.000000	64.959311  
4269.000000	64.967894  
4268.000000	64.977216  
4267.000000	64.988064  
4266.000000	65.000891  
4265.000000	65.015387  
4264.000000	65.030622  
4263.000000	65.044522  
4262.000000	65.054345  
4261.000000	65.057373  
4260.000000	65.051674  
4259.000000	65.036869  
4258.000000	65.014433  
4257.000000	64.987349  
4256.000000	64.959502  
4255.000000	64.935326  
4254.000000	64.918899  
4253.000000	64.913153  
4252.000000	64.919328  
4251.000000	64.936923  
4250.000000	64.963769  
4249.000000	64.996767  
4248.000000	65.032172  
4247.000000	65.066099  
4246.000000	65.095305  
4245.000000	65.117287  
4244.000000	65.131068  
4243.000000	65.137028  
4242.000000	65.137171  
4241.000000	65.134835  
4240.000000	65.133762  
4239.000000	65.137505  
4238.000000	65.148353  
4237.000000	65.167188  
4236.000000	65.192341  
4235.000000	65.220236  
4234.000000	65.245532  
4233.000000	65.262675  
4232.000000	65.266704  
4231.000000	65.254664  
4230.000000	65.226221  
4229.000000	65.183854  
4228.000000	65.132856  
4227.000000	65.080022  
4226.000000	65.032529  
4225.000000	64.996123  
4224.000000	64.974260  
4223.000000	64.967107  
4222.000000	64.971899  
4221.000000	64.983606  
4220.000000	64.996027  
4219.000000	65.003895  
4218.000000	65.003442  
4217.000000	64.994049  
4216.000000	64.977884  
4215.000000	64.959979  
4214.000000	64.946007  
4213.000000	64.941883  
4212.000000	64.951896  
4211.000000	64.978003  
4210.000000	65.019106  
4209.000000	65.071129  
4208.000000	65.128135  
4207.000000	65.182971  
4206.000000	65.229010  
4205.000000	65.260767  
4204.000000	65.274715  
4203.000000	65.269422  
4202.000000	65.245580  
4201.000000	65.205550  
4200.000000	65.153121  
4199.000000	65.092802  
4198.000000	65.029716  
4197.000000	64.969086  
4196.000000	64.916133  
4195.000000	64.875936  
4194.000000	64.852690  
