PE IR       SPECTRUM    SPECTRUM    ASCII       PEDS        1.60        
  -1
BZ6134~1.ASC
17/04/07
17:17:31.00
17/04/07
17:17:31.00
tln
$BZ1503107-1_t0049$<tbV0>[2.6,-2.6,8.0,0.0,27,1,0]
370.000000
64









2002,4.07    
MIRTGS : RIGHTBACK : INTERNAL 2
MIR : ON : INTERNAL 2
OPTKBR

0.200000
8
8.000000
FILLER
RATIO
SPECTRUM
UNLOCKED 256

DOUBLE
64
COMBINED
1
0
0


1.000000
RATIO


1
0
TRUE
51149
0
LEFT NOT FITTED RIGHT NOT FITTED 0
NONE
NONE
15600
12.000000
4.427000
51148
TRUE
1 0 8 72 0 0 0 0 

15798.010000






#HDR
-1
-1
#GR
CM-1
%T
0.00002384185791015625
0.0
5000.000000
-1.000000
4631
8
83.060145
55.719113
#DATA
5000.000000	67.533540 
4999.000000	67.873120 
4998.000000	67.980337 
4997.000000	67.830061 
4996.000000	67.440128 
4995.000000	66.867280 
4994.000000	66.194653 
4993.000000	65.516734 
4992.000000	64.916753 
4991.000000	64.453887 
4990.000000	64.151644 
4989.000000	64.002275 
4988.000000	63.970017 
4987.000000	64.006209 
4986.000000	64.062476 
4985.000000	64.103531 
4984.000000	64.112567 
4983.000000	64.091968 
4982.000000	64.057135 
4981.000000	64.028716 
4980.000000	64.025521 
4979.000000	64.057970 
4978.000000	64.124917 
4977.000000	64.214181 
4976.000000	64.308476 
4975.000000	64.390301 
4974.000000	64.446616 
4973.000000	64.473700 
4972.000000	64.477229 
4971.000000	64.472341 
4970.000000	64.476656 
4969.000000	64.507651 
4968.000000	64.578247 
4967.000000	64.691901 
4966.000000	64.843392 
4965.000000	65.016269 
4964.000000	65.186929 
4963.000000	65.329217 
4962.000000	65.422344 
4961.000000	65.452980 
4960.000000	65.417313 
4959.000000	65.325021 
4958.000000	65.197205 
4957.000000	65.060162 
4956.000000	64.939117 
4955.000000	64.852643 
4954.000000	64.807915 
4953.000000	64.799952 
4952.000000	64.812660 
4951.000000	64.823794 
4950.000000	64.810943 
4949.000000	64.756679 
4948.000000	64.654803 
4947.000000	64.510226 
4946.000000	64.340829 
4945.000000	64.171123 
4944.000000	64.030170 
4943.000000	63.941884 
4942.000000	63.924050 
4941.000000	63.984346 
4940.000000	64.119935 
4939.000000	64.318227 
4938.000000	64.559698 
4937.000000	64.821743 
4936.000000	65.081071 
4935.000000	65.316152 
4934.000000	65.509462 
4933.000000	65.648674 
4932.000000	65.726852 
4931.000000	65.742182 
4930.000000	65.698933 
4929.000000	65.606546 
4928.000000	65.479373 
4927.000000	65.334916 
4926.000000	65.191674 
4925.000000	65.066719 
4924.000000	64.974617 
4923.000000	64.924979 
4922.000000	64.921259 
4921.000000	64.960646 
4920.000000	65.035033 
4919.000000	65.132331 
4918.000000	65.238595 
4917.000000	65.339994 
4916.000000	65.424132 
4915.000000	65.482044 
4914.000000	65.507888 
4913.000000	65.500140 
4912.000000	65.461301 
4911.000000	65.396928 
4910.000000	65.315079 
4909.000000	65.224409 
4908.000000	65.133738 
4907.000000	65.050363 
4906.000000	64.980173 
4905.000000	64.925932 
4904.000000	64.887452 
4903.000000	64.863657 
4902.000000	64.853620 
4901.000000	64.856314 
4900.000000	64.870786 
4899.000000	64.896130 
4898.000000	64.931201 
4897.000000	64.973258 
4896.000000	65.018177 
4895.000000	65.060114 
4894.000000	65.093064 
4893.000000	65.112209 
4892.000000	65.115237 
4891.000000	65.102434 
4890.000000	65.077209 
4889.000000	65.045881 
4888.000000	65.015721 
4887.000000	64.993762 
4886.000000	64.984726 
4885.000000	64.990448 
4884.000000	65.008831 
4883.000000	65.035319 
4882.000000	65.062832 
4881.000000	65.084314 
4880.000000	65.092706 
4879.000000	65.082430 
4878.000000	65.050125 
4877.000000	64.995217 
4876.000000	64.919710 
4875.000000	64.827728 
4874.000000	64.725589 
4873.000000	64.620995 
4872.000000	64.521646 
4871.000000	64.434814 
4870.000000	64.366149 
4869.000000	64.319729 
4868.000000	64.297890 
4867.000000	64.301729 
4866.000000	64.330029 
4865.000000	64.380693 
4864.000000	64.450287 
4863.000000	64.534974 
4862.000000	64.628982 
4861.000000	64.726471 
4860.000000	64.821195 
4859.000000	64.907836 
4858.000000	64.981698 
4857.000000	65.040183 
4856.000000	65.082740 
4855.000000	65.110802 
4854.000000	65.127778 
4853.000000	65.137076 
4852.000000	65.141510 
4851.000000	65.142560 
4850.000000	65.140771 
4849.000000	65.135645 
4848.000000	65.126371 
4847.000000	65.112900 
4846.000000	65.096163 
4845.000000	65.077400 
4844.000000	65.057849 
4843.000000	65.038084 
4842.000000	65.017843 
4841.000000	64.995360 
4840.000000	64.968037 
4839.000000	64.933753 
4838.000000	64.891338 
4837.000000	64.841413 
4836.000000	64.786219 
4835.000000	64.729309 
4834.000000	64.674735 
4833.000000	64.625811 
4832.000000	64.585041 
4831.000000	64.552712 
4830.000000	64.528751 
4829.000000	64.512872 
4828.000000	64.505815 
4827.000000	64.508724 
4826.000000	64.523863 
4825.000000	64.553403 
4824.000000	64.598035 
4823.000000	64.655637 
4822.000000	64.721655 
4821.000000	64.789533 
4820.000000	64.851760 
4819.000000	64.901423 
4818.000000	64.934158 
4817.000000	64.948797 
4816.000000	64.947724 
4815.000000	64.935708 
4814.000000	64.918398 
4813.000000	64.900541 
4812.000000	64.885282 
4811.000000	64.873409 
4810.000000	64.863371 
4809.000000	64.852666 
4808.000000	64.839792 
4807.000000	64.824867 
4806.000000	64.810228 
4805.000000	64.799737 
4804.000000	64.798116 
4803.000000	64.808726 
4802.000000	64.832043 
4801.000000	64.864945 
4800.000000	64.901447 
4799.000000	64.933109 
4798.000000	64.950847 
4797.000000	64.947104 
4796.000000	64.917778 
4795.000000	64.862799 
4794.000000	64.786672 
4793.000000	64.696836 
4792.000000	64.602494 
4791.000000	64.512968 
4790.000000	64.436769 
4789.000000	64.380002 
4788.000000	64.346623 
4787.000000	64.338803 
4786.000000	64.357161 
4785.000000	64.400577 
4784.000000	64.466142 
4783.000000	64.548563 
4782.000000	64.640998 
4781.000000	64.734029 
4780.000000	64.818978 
4779.000000	64.887928 
4778.000000	64.937043 
4777.000000	64.966440 
4776.000000	64.981150 
4775.000000	64.989590 
4774.000000	65.001344 
4773.000000	65.025115 
4772.000000	65.065193 
4771.000000	65.120720 
4770.000000	65.185189 
4769.000000	65.248489 
4768.000000	65.298771 
4767.000000	65.325522 
4766.000000	65.322327 
4765.000000	65.288662 
4764.000000	65.229344 
4763.000000	65.153455 
4762.000000	65.072226 
4761.000000	64.996314 
4760.000000	64.933562 
4759.000000	64.887714 
4758.000000	64.858818 
4757.000000	64.843368 
4756.000000	64.836215 
4755.000000	64.831972 
4754.000000	64.825916 
4753.000000	64.815711 
4752.000000	64.801478 
4751.000000	64.785647 
4750.000000	64.770960 
4749.000000	64.760708 
4748.000000	64.757370 
4747.000000	64.762663 
4746.000000	64.776539 
4745.000000	64.798712 
4744.000000	64.829087 
4743.000000	64.867830 
4742.000000	64.914846 
4741.000000	64.969539 
4740.000000	65.030241 
4739.000000	65.093469 
4738.000000	65.154170 
4737.000000	65.206789 
4736.000000	65.246152 
4735.000000	65.268921 
4734.000000	65.273785 
4733.000000	65.262365 
4732.000000	65.237784 
4731.000000	65.204739 
4730.000000	65.167474 
4729.000000	65.128612 
4728.000000	65.088820 
4727.000000	65.047812 
4726.000000	65.004730 
4725.000000	64.959359 
4724.000000	64.912843 
4723.000000	64.868593 
4722.000000	64.830780 
4721.000000	64.803028 
4720.000000	64.787364 
4719.000000	64.782977 
4718.000000	64.786553 
4717.000000	64.793062 
4716.000000	64.796829 
4715.000000	64.792990 
4714.000000	64.778590 
4713.000000	64.753198 
4712.000000	64.718389 
4711.000000	64.677357 
4710.000000	64.634108 
4709.000000	64.592623 
4708.000000	64.556217 
4707.000000	64.527058 
4706.000000	64.506340 
4705.000000	64.494824 
4704.000000	64.492344 
4703.000000	64.499115 
4702.000000	64.515113 
4701.000000	64.541602 
4700.000000	64.579272 
4699.000000	64.629817 
4698.000000	64.694857 
4697.000000	64.775252 
4696.000000	64.870691 
4695.000000	64.977717 
4694.000000	65.089702 
4693.000000	65.196800 
4692.000000	65.287613 
4691.000000	65.351176 
4690.000000	65.379452 
4689.000000	65.369939 
4688.000000	65.326738 
4687.000000	65.259599 
4686.000000	65.182137 
4685.000000	65.108895 
4684.000000	65.052318 
4683.000000	65.020489 
4682.000000	65.015530 
4681.000000	65.034151 
4680.000000	65.068769 
4679.000000	65.109992 
4678.000000	65.148639 
4677.000000	65.177655 
4676.000000	65.193080 
4675.000000	65.193676 
4674.000000	65.180516 
4673.000000	65.155291 
4672.000000	65.120029 
4671.000000	65.076279 
4670.000000	65.025639 
4669.000000	64.970111 
4668.000000	64.912700 
4667.000000	64.857792 
4666.000000	64.810466 
4665.000000	64.775919 
4664.000000	64.758372 
4663.000000	64.760255 
4662.000000	64.780998 
4661.000000	64.816856 
4660.000000	64.861464 
4659.000000	64.907073 
4658.000000	64.945840 
4657.000000	64.971351 
4656.000000	64.980006 
4655.000000	64.971494 
4654.000000	64.948534 
4653.000000	64.915871 
4652.000000	64.878606 
4651.000000	64.841413 
4650.000000	64.807367 
4649.000000	64.778184 
4648.000000	64.754962 
4647.000000	64.738631 
4646.000000	64.730477 
4645.000000	64.732170 
4644.000000	64.745473 
4643.000000	64.771437 
4642.000000	64.809393 
4641.000000	64.856719 
4640.000000	64.908599 
4639.000000	64.959430 
4638.000000	65.003800 
4637.000000	65.037703 
4636.000000	65.059256 
4635.000000	65.069437 
4634.000000	65.071678 
4633.000000	65.070056 
4632.000000	65.067958 
4631.000000	65.067076 
4630.000000	65.066719 
4629.000000	65.064096 
4628.000000	65.055036 
4627.000000	65.035629 
4626.000000	65.003228 
4625.000000	64.957785 
4624.000000	64.901852 
4623.000000	64.839649 
4622.000000	64.776825 
4621.000000	64.718842 
4620.000000	64.670276 
4619.000000	64.634013 
4618.000000	64.611124 
4617.000000	64.600539 
4616.000000	64.600586 
4615.000000	64.608836 
4614.000000	64.624071 
4613.000000	64.645791 
4612.000000	64.675164 
4611.000000	64.713501 
4610.000000	64.762401 
4609.000000	64.822030 
4608.000000	64.891076 
4607.000000	64.965891 
4606.000000	65.041327 
4605.000000	65.111303 
4604.000000	65.169763 
4603.000000	65.211677 
4602.000000	65.233635 
4601.000000	65.234088 
4600.000000	65.213680 
4599.000000	65.174794 
4598.000000	65.121293 
4597.000000	65.057897 
4596.000000	64.990019 
4595.000000	64.923644 
4594.000000	64.864540 
4593.000000	64.818120 
4592.000000	64.788913 
4591.000000	64.779973 
4590.000000	64.791774 
4589.000000	64.822673 
4588.000000	64.868617 
4587.000000	64.924287 
4586.000000	64.983558 
4585.000000	65.040874 
4584.000000	65.091943 
4583.000000	65.134263 
4582.000000	65.166878 
4581.000000	65.190029 
4580.000000	65.204501 
4579.000000	65.211224 
4578.000000	65.210723 
4577.000000	65.203285 
4576.000000	65.188741 
4575.000000	65.166974 
4574.000000	65.138244 
4573.000000	65.103435 
4572.000000	65.064191 
4571.000000	65.022969 
4570.000000	64.982867 
4569.000000	64.947128 
4568.000000	64.918971 
4567.000000	64.901161 
4566.000000	64.895606 
4565.000000	64.903163 
4564.000000	64.923477 
4563.000000	64.954447 
4562.000000	64.992809 
4561.000000	65.034365 
4560.000000	65.075016 
4559.000000	65.110921 
4558.000000	65.139770 
4557.000000	65.160441 
4556.000000	65.173459 
4555.000000	65.180587 
4554.000000	65.183973 
4553.000000	65.185308 
4552.000000	65.185976 
4551.000000	65.186643 
4550.000000	65.187335 
4549.000000	65.187788 
4548.000000	65.187740 
4547.000000	65.187168 
4546.000000	65.186429 
4545.000000	65.186023 
4544.000000	65.186452 
4543.000000	65.188026 
4542.000000	65.190482 
4541.000000	65.193319 
4540.000000	65.195703 
4539.000000	65.197372 
4538.000000	65.198183 
4537.000000	65.199136 
4536.000000	65.202116 
4535.000000	65.209174 
4534.000000	65.222287 
4533.000000	65.241932 
4532.000000	65.266895 
4531.000000	65.293931 
4530.000000	65.318512 
4529.000000	65.335655 
4528.000000	65.341520 
4527.000000	65.333867 
4526.000000	65.312981 
4525.000000	65.281724 
4524.000000	65.245008 
4523.000000	65.208220 
4522.000000	65.175938 
4521.000000	65.150594 
4520.000000	65.132164 
4519.000000	65.118503 
4518.000000	65.106225 
4517.000000	65.092515 
4516.000000	65.075445 
4515.000000	65.055131 
4514.000000	65.032529 
4513.000000	65.008163 
4512.000000	64.982295 
4511.000000	64.953184 
4510.000000	64.919590 
4509.000000	64.881086 
4508.000000	64.839839 
4507.000000	64.801168 
4506.000000	64.772176 
4505.000000	64.760231 
4504.000000	64.770054 
4503.000000	64.801383 
4502.000000	64.848542 
4501.000000	64.901328 
4500.000000	64.947056 
4499.000000	64.973926 
4498.000000	64.973711 
4497.000000	64.944028 
4496.000000	64.889049 
4495.000000	64.818382 
4494.000000	64.745020 
4493.000000	64.681696 
4492.000000	64.638304 
4491.000000	64.619541 
4490.000000	64.623308 
4489.000000	64.642548 
4488.000000	64.667892 
4487.000000	64.691042 
4486.000000	64.706897 
4485.000000	64.715218 
4484.000000	64.720988 
4483.000000	64.731121 
4482.000000	64.750909 
4481.000000	64.781618 
4480.000000	64.818596 
4479.000000	64.852738 
4478.000000	64.872670 
4477.000000	64.868450 
4476.000000	64.835548 
4475.000000	64.776015 
4474.000000	64.699244 
4473.000000	64.617872 
4472.000000	64.544034 
4471.000000	64.488697 
4470.000000	64.458751 
4469.000000	64.456629 
4468.000000	64.481306 
4467.000000	64.520978 
4466.000000	64.558672 
4465.000000	64.589762 
4464.000000	64.620447 
4463.000000	64.655756 
4462.000000	64.703655 
4461.000000	64.767789 
4460.000000	64.850401 
4459.000000	64.963483 
4458.000000	65.114974 
4457.000000	65.298700 
4456.000000	65.498542 
4455.000000	65.691471 
4454.000000	65.852975 
4453.000000	65.959167 
4452.000000	65.998959 
4451.000000	65.987920 
4450.000000	65.945959 
4449.000000	65.899991 
4448.000000	65.849614 
4447.000000	65.764045 
4446.000000	65.585517 
4445.000000	65.247106 
4444.000000	64.723873 
4443.000000	64.061117 
4442.000000	63.412332 
4441.000000	63.018751 
4440.000000	63.194918 
4439.000000	64.224052 
4438.000000	66.293644 
4437.000000	69.373559 
4436.000000	73.166561 
4435.000000	77.123689 
4434.000000	80.531835 
4433.000000	82.682895 
4432.000000	83.060145 
4431.000000	81.465458 
4430.000000	78.112959 
4429.000000	73.544883 
4428.000000	68.503022 
4427.000000	63.752508 
4426.000000	59.891939 
4425.000000	57.265067 
4424.000000	55.935573 
4423.000000	55.719113 
4422.000000	56.311655 
4421.000000	57.352089 
4420.000000	58.533740 
4419.000000	59.637975 
4418.000000	60.544300 
4417.000000	61.240887 
4416.000000	61.776781 
4415.000000	62.235260 
4414.000000	62.685108 
4413.000000	63.169002 
4412.000000	63.685226 
4411.000000	64.206409 
4410.000000	64.682984 
4409.000000	65.074682 
4408.000000	65.351438 
4407.000000	65.507054 
4406.000000	65.551757 
4405.000000	65.507769 
4404.000000	65.401673 
4403.000000	65.253520 
4402.000000	65.079164 
4401.000000	64.900636 
4400.000000	64.734840 
4399.000000	64.601325 
4398.000000	64.510893 
4397.000000	64.460515 
4396.000000	64.442300 
4395.000000	64.452791 
4394.000000	64.482760 
4393.000000	64.513993 
4392.000000	64.536762 
4391.000000	64.552497 
4390.000000	64.568901 
4389.000000	64.597344 
4388.000000	64.643120 
4387.000000	64.702558 
4386.000000	64.769864 
4385.000000	64.837431 
4384.000000	64.897656 
4383.000000	64.944577 
4382.000000	64.976668 
4381.000000	64.995837 
4380.000000	65.003442 
4379.000000	65.001845 
4378.000000	64.995431 
4377.000000	64.988994 
4376.000000	64.987325 
4375.000000	64.993977 
4374.000000	65.011453 
4373.000000	65.039539 
4372.000000	65.075492 
4371.000000	65.114498 
4370.000000	65.150547 
4369.000000	65.178775 
4368.000000	65.196681 
4367.000000	65.205240 
4366.000000	65.208172 
4365.000000	65.212035 
4364.000000	65.224170 
4363.000000	65.251445 
4362.000000	65.298175 
4361.000000	65.364432 
4360.000000	65.445423 
4359.000000	65.532112 
4358.000000	65.612578 
4357.000000	65.674662 
4356.000000	65.708112 
4355.000000	65.707111 
4354.000000	65.671348 
4353.000000	65.606045 
4352.000000	65.520763 
4351.000000	65.427708 
4350.000000	65.338683 
4349.000000	65.263414 
4348.000000	65.207195 
4347.000000	65.171313 
4346.000000	65.152668 
4345.000000	65.145897 
4344.000000	65.144610 
4343.000000	65.143489 
4342.000000	65.138936 
4341.000000	65.129208 
4340.000000	65.114402 
4339.000000	65.095233 
4338.000000	65.072631 
4337.000000	65.046739 
4336.000000	65.017938 
4335.000000	64.987039 
4334.000000	64.955949 
4333.000000	64.927840 
4332.000000	64.907097 
4331.000000	64.898300 
4330.000000	64.904713 
4329.000000	64.927649 
4328.000000	64.965653 
4327.000000	65.014719 
4326.000000	65.068507 
4325.000000	65.120220 
4324.000000	65.164208 
4323.000000	65.197157 
4322.000000	65.218448 
4321.000000	65.229868 
4320.000000	65.234231 
4319.000000	65.234589 
4318.000000	65.233230 
4317.000000	65.231013 
4316.000000	65.227484 
4315.000000	65.221476 
4314.000000	65.212631 
4313.000000	65.201258 
4312.000000	65.188813 
4311.000000	65.177536 
4310.000000	65.170025 
4309.000000	65.168261 
4308.000000	65.173196 
4307.000000	65.184259 
4306.000000	65.199565 
4305.000000	65.216135 
4304.000000	65.230679 
4303.000000	65.240192 
4302.000000	65.242576 
4301.000000	65.237188 
4300.000000	65.224575 
4299.000000	65.206241 
4298.000000	65.184235 
4297.000000	65.160846 
4296.000000	65.137791 
4295.000000	65.116286 
4294.000000	65.096831 
4293.000000	65.079474 
4292.000000	65.064072 
4291.000000	65.050506 
4290.000000	65.039229 
4289.000000	65.031433 
4288.000000	65.029025 
4287.000000	65.033793 
4286.000000	65.047097 
4285.000000	65.069031 
4284.000000	65.098071 
4283.000000	65.130853 
4282.000000	65.162682 
4281.000000	65.188598 
4280.000000	65.204167 
4279.000000	65.206265 
4278.000000	65.193915 
4277.000000	65.168404 
4276.000000	65.132832 
4275.000000	65.091514 
4274.000000	65.049147 
4273.000000	65.009999 
4272.000000	64.977407 
4271.000000	64.953756 
4270.000000	64.940214 
4269.000000	64.937305 
4268.000000	64.945101 
4267.000000	64.963150 
4266.000000	64.990115 
4265.000000	65.023851 
4264.000000	65.061378 
4263.000000	65.098810 
4262.000000	65.131735 
4261.000000	65.155839 
4260.000000	65.167570 
4259.000000	65.164709 
4258.000000	65.146636 
4257.000000	65.114617 
4256.000000	65.071535 
4255.000000	65.021181 
4254.000000	64.967703 
4253.000000	64.914941 
4252.000000	64.866113 
4251.000000	64.823818 
4250.000000	64.790034 
4249.000000	64.766073 
4248.000000	64.752769 
4247.000000	64.750337 
4246.000000	64.758992 
4245.000000	64.777994 
4244.000000	64.806461 
4243.000000	64.842891 
4242.000000	64.885401 
4241.000000	64.931988 
4240.000000	64.980220 
4239.000000	65.027236 
4238.000000	65.069890 
4237.000000	65.104985 
4236.000000	65.130066 
4235.000000	65.143918 
4234.000000	65.147066 
4233.000000	65.141820 
4232.000000	65.132021 
4231.000000	65.122413 
4230.000000	65.117335 
4229.000000	65.119934 
4228.000000	65.130758 
4227.000000	65.147995 
4226.000000	65.167355 
4225.000000	65.183472 
4224.000000	65.190911 
4223.000000	65.185856 
4222.000000	65.167236 
4221.000000	65.137362 
4220.000000	65.101003 
4219.000000	65.064644 
4218.000000	65.035057 
4217.000000	65.017676 
4216.000000	65.015649 
4215.000000	65.028882 
4214.000000	65.054798 
4213.000000	65.088129 
4212.000000	65.122628 
4211.000000	65.151858 
4210.000000	65.170311 
4209.000000	65.174508 
4208.000000	65.163612 
4207.000000	65.139150 
4206.000000	65.104341 
4205.000000	65.063261 
4204.000000	65.019869 
4203.000000	64.977431 
4202.000000	64.937925 
4201.000000	64.902472 
4200.000000	64.871573 
4199.000000	64.845514 
4198.000000	64.825010 
4197.000000	64.811110 
4196.000000	64.805459 
4195.000000	64.809226 
4194.000000	64.823174 
4193.000000	64.847016 
4192.000000	64.879488 
4191.000000	64.918041 
4190.000000	64.959406 
4189.000000	65.000391 
4188.000000	65.037751 
4187.000000	65.069007 
4186.000000	65.092206 
4185.000000	65.105748 
4184.000000	65.108704 
4183.000000	65.100383 
4182.000000	65.081405 
4181.000000	65.053963 
4180.000000	65.021705 
4179.000000	64.989829 
4178.000000	64.963865 
4177.000000	64.948725 
4176.000000	64.947533 
4175.000000	64.960861 
4174.000000	64.986133 
4173.000000	65.018129 
4172.000000	65.050315 
4171.000000	65.076589 
4170.000000	65.092325 
4169.000000	65.095591 
4168.000000	65.087461 
4167.000000	65.071630 
4166.000000	65.053081 
4165.000000	65.036654 
4164.000000	65.025877 
4163.000000	65.021967 
4162.000000	65.023899 
4161.000000	65.028429 
4160.000000	65.031719 
4159.000000	65.029573 
