PE IR       SPECTRUM    SPECTRUM    ASCII       PEDS        1.60        
  -1
BZCB79~1.ASC
17/04/07
21:55:55.00
17/04/07
21:55:55.00
tln
$BZ1503107-1_t0106$<tbV0>[-2.6,10.4,8.0,0.0,27,1,0]
370.000000
64









2002,4.07    
MIRTGS : RIGHTBACK : INTERNAL 2
MIR : ON : INTERNAL 2
OPTKBR

0.200000
8
8.000000
FILLER
RATIO
SPECTRUM
UNLOCKED 256

DOUBLE
64
COMBINED
1
0
0


1.000000
RATIO


1
0
TRUE
51149
0
LEFT NOT FITTED RIGHT NOT FITTED 0
NONE
NONE
15600
12.000000
4.427000
51148
TRUE
1 0 8 72 0 0 0 0 

15798.010000






#HDR
-1
-1
#GR
CM-1
%T
0.00002384185791015625
0.0
5000.000000
-1.000000
4631
8
85.037374
52.639174
#DATA
5000.000000	63.983964 
4999.000000	64.281892 
4998.000000	64.539003 
4997.000000	64.743995 
4996.000000	64.888381 
4995.000000	64.967989 
4994.000000	64.984583 
4993.000000	64.950227 
4992.000000	64.881753 
4991.000000	64.800143 
4990.000000	64.724636 
4989.000000	64.671897 
4988.000000	64.649677 
4987.000000	64.657497 
4986.000000	64.686298 
4985.000000	64.722776 
4984.000000	64.750146 
4983.000000	64.752626 
4982.000000	64.720416 
4981.000000	64.652061 
4980.000000	64.552879 
4979.000000	64.433932 
4978.000000	64.309644 
4977.000000	64.193916 
4976.000000	64.097404 
4975.000000	64.025497 
4974.000000	63.975191 
4973.000000	63.939857 
4972.000000	63.912963 
4971.000000	63.891792 
4970.000000	63.876152 
4969.000000	63.872075 
4968.000000	63.889837 
4967.000000	63.940834 
4966.000000	64.031171 
4965.000000	64.161229 
4964.000000	64.323234 
4963.000000	64.503574 
4962.000000	64.683890 
4961.000000	64.849162 
4960.000000	64.990425 
4959.000000	65.110230 
4958.000000	65.221190 
4957.000000	65.343809 
4956.000000	65.499043 
4955.000000	65.702724 
4954.000000	65.957283 
4953.000000	66.247105 
4952.000000	66.537737 
4951.000000	66.783237 
4950.000000	66.934180 
4949.000000	66.950273 
4948.000000	66.809558 
4947.000000	66.516542 
4946.000000	66.101765 
4945.000000	65.616655 
4944.000000	65.123224 
4943.000000	64.682245 
4942.000000	64.340949 
4941.000000	64.126777 
4940.000000	64.042305 
4939.000000	64.069843 
4938.000000	64.175605 
4937.000000	64.319062 
4936.000000	64.462399 
4935.000000	64.575195 
4934.000000	64.643621 
4933.000000	64.668655 
4932.000000	64.665365 
4931.000000	64.653897 
4930.000000	64.656758 
4929.000000	64.690971 
4928.000000	64.764904 
4927.000000	64.875602 
4926.000000	65.011882 
4925.000000	65.155720 
4924.000000	65.287590 
4923.000000	65.388560 
4922.000000	65.443563 
4921.000000	65.443515 
4920.000000	65.384769 
4919.000000	65.271973 
4918.000000	65.116930 
4917.000000	64.938688 
4916.000000	64.761686 
4915.000000	64.611268 
4914.000000	64.510440 
4913.000000	64.473748 
4912.000000	64.507222 
4911.000000	64.602613 
4910.000000	64.738726 
4909.000000	64.885520 
4908.000000	65.010428 
4907.000000	65.086388 
4906.000000	65.097427 
4905.000000	65.043020 
4904.000000	64.936971 
4903.000000	64.804887 
4902.000000	64.677166 
4901.000000	64.581227 
4900.000000	64.534664 
4899.000000	64.542627 
4898.000000	64.596939 
4897.000000	64.680528 
4896.000000	64.771890 
4895.000000	64.850854 
4894.000000	64.903497 
4893.000000	64.923524 
4892.000000	64.913821 
4891.000000	64.883375 
4890.000000	64.844775 
4889.000000	64.809823 
4888.000000	64.786767 
4887.000000	64.778828 
4886.000000	64.783358 
4885.000000	64.795231 
4884.000000	64.806222 
4883.000000	64.808583 
4882.000000	64.796018 
4881.000000	64.765715 
4880.000000	64.718389 
4879.000000	64.657902 
4878.000000	64.590620 
4877.000000	64.523625 
4876.000000	64.464020 
4875.000000	64.417433 
4874.000000	64.387297 
4873.000000	64.374518 
4872.000000	64.377808 
4871.000000	64.394545 
4870.000000	64.421510 
4869.000000	64.455938 
4868.000000	64.495205 
4867.000000	64.537763 
4866.000000	64.582037 
4865.000000	64.626955 
4864.000000	64.671730 
4863.000000	64.715170 
4862.000000	64.755630 
4861.000000	64.791083 
4860.000000	64.819455 
4859.000000	64.838695 
4858.000000	64.847970 
4857.000000	64.846944 
4856.000000	64.835906 
4855.000000	64.816021 
4854.000000	64.789533 
4853.000000	64.759469 
4852.000000	64.729571 
4851.000000	64.703965 
4850.000000	64.686679 
4849.000000	64.680576 
4848.000000	64.686608 
4847.000000	64.703917 
4846.000000	64.729833 
4845.000000	64.760088 
4844.000000	64.789724 
4843.000000	64.814186 
4842.000000	64.829969 
4841.000000	64.834785 
4840.000000	64.828205 
4839.000000	64.810919 
4838.000000	64.785504 
4837.000000	64.755654 
4836.000000	64.726424 
4835.000000	64.703035 
4834.000000	64.690518 
4833.000000	64.693140 
4832.000000	64.713263 
4831.000000	64.750790 
4830.000000	64.802789 
4829.000000	64.863777 
4828.000000	64.926838 
4827.000000	64.984631 
4826.000000	65.031743 
4825.000000	65.065813 
4824.000000	65.088009 
4823.000000	65.102553 
4822.000000	65.115284 
4821.000000	65.131902 
4820.000000	65.155959 
4819.000000	65.187692 
4818.000000	65.224218 
4817.000000	65.260076 
4816.000000	65.289258 
4815.000000	65.306329 
4814.000000	65.308308 
4813.000000	65.295219 
4812.000000	65.269517 
4811.000000	65.235853 
4810.000000	65.199518 
4809.000000	65.165805 
4808.000000	65.138649 
4807.000000	65.120720 
4806.000000	65.113687 
4805.000000	65.117955 
4804.000000	65.133547 
4803.000000	65.159010 
4802.000000	65.191864 
4801.000000	65.228080 
4800.000000	65.262365 
4799.000000	65.288972 
4798.000000	65.302538 
4797.000000	65.299391 
4796.000000	65.278339 
4795.000000	65.241098 
4794.000000	65.191864 
4793.000000	65.136432 
4792.000000	65.080595 
4791.000000	65.029287 
4790.000000	64.985585 
4789.000000	64.950323 
4788.000000	64.922618 
4787.000000	64.901065 
4786.000000	64.884424 
4785.000000	64.871668 
4784.000000	64.862680 
4783.000000	64.857745 
4782.000000	64.857316 
4781.000000	64.860534 
4780.000000	64.866185 
4779.000000	64.872050 
4778.000000	64.876627 
4777.000000	64.878964 
4776.000000	64.879941 
4775.000000	64.881873 
4774.000000	64.888167 
4773.000000	64.902019 
4772.000000	64.925742 
4771.000000	64.959859 
4770.000000	65.002727 
4769.000000	65.050745 
4768.000000	65.099167 
4767.000000	65.143060 
4766.000000	65.178561 
4765.000000	65.203261 
4764.000000	65.215945 
4763.000000	65.215992 
4762.000000	65.203166 
4761.000000	65.177059 
4760.000000	65.136837 
4759.000000	65.081810 
4758.000000	65.012574 
4757.000000	64.931821 
4756.000000	64.844894 
4755.000000	64.759159 
4754.000000	64.683532 
4753.000000	64.626002 
4752.000000	64.592146 
4751.000000	64.583349 
4750.000000	64.596271 
4749.000000	64.623546 
4748.000000	64.654850 
4747.000000	64.680385 
4746.000000	64.692521 
4745.000000	64.688563 
4744.000000	64.670825 
4743.000000	64.646577 
4742.000000	64.625525 
4741.000000	64.617586 
4740.000000	64.629864 
4739.000000	64.665031 
4738.000000	64.720416 
4737.000000	64.789009 
4736.000000	64.860987 
4735.000000	64.926242 
4734.000000	64.976143 
4733.000000	65.004992 
4732.000000	65.011024 
4731.000000	64.995670 
4730.000000	64.963293 
4729.000000	64.919185 
4728.000000	64.869546 
4727.000000	64.820361 
4726.000000	64.777326 
4725.000000	64.745354 
4724.000000	64.728569 
4723.000000	64.730381 
4722.000000	64.752578 
4721.000000	64.794802 
4720.000000	64.854454 
4719.000000	64.926552 
4718.000000	65.004539 
4717.000000	65.081024 
4716.000000	65.149044 
4715.000000	65.202999 
4714.000000	65.239334 
4713.000000	65.256953 
4712.000000	65.256953 
4711.000000	65.242171 
4710.000000	65.216398 
4709.000000	65.183877 
4708.000000	65.149021 
4707.000000	65.115809 
4706.000000	65.088105 
4705.000000	65.068840 
4704.000000	65.060186 
4703.000000	65.062808 
4702.000000	65.075993 
4701.000000	65.097570 
4700.000000	65.124011 
4699.000000	65.151548 
4698.000000	65.176534 
4697.000000	65.196561 
4696.000000	65.210795 
4695.000000	65.219879 
4694.000000	65.225410 
4693.000000	65.229415 
4692.000000	65.233111 
4691.000000	65.237379 
4690.000000	65.242505 
4689.000000	65.248274 
4688.000000	65.254330 
4687.000000	65.260577 
4686.000000	65.267467 
4685.000000	65.275430 
4684.000000	65.284657 
4683.000000	65.294718 
4682.000000	65.304636 
4681.000000	65.312671 
4680.000000	65.317106 
4679.000000	65.316987 
4678.000000	65.312743 
4677.000000	65.306591 
4676.000000	65.302062 
4675.000000	65.303111 
4674.000000	65.313029 
4673.000000	65.333604 
4672.000000	65.363907 
4671.000000	65.400862 
4670.000000	65.438961 
4669.000000	65.471816 
4668.000000	65.492582 
4667.000000	65.495920 
4666.000000	65.478324 
4665.000000	65.439033 
4664.000000	65.380382 
4663.000000	65.307354 
4662.000000	65.227246 
4661.000000	65.148591 
4660.000000	65.079641 
4659.000000	65.027022 
4658.000000	64.995098 
4657.000000	64.985227 
4656.000000	64.995861 
4655.000000	65.022873 
4654.000000	65.060257 
4653.000000	65.101599 
4652.000000	65.141105 
4651.000000	65.174674 
4650.000000	65.199804 
4649.000000	65.215897 
4648.000000	65.223813 
4647.000000	65.225005 
4646.000000	65.220832 
4645.000000	65.211820 
4644.000000	65.198183 
4643.000000	65.179491 
4642.000000	65.155220 
4641.000000	65.125608 
4640.000000	65.092039 
4639.000000	65.057587 
4638.000000	65.026092 
4637.000000	65.002751 
4636.000000	64.992904 
4635.000000	65.001177 
4634.000000	65.030050 
4633.000000	65.079236 
4632.000000	65.145111 
4631.000000	65.220952 
4630.000000	65.297818 
4629.000000	65.365934 
4628.000000	65.416073 
4627.000000	65.441608 
4626.000000	65.439319 
4625.000000	65.409994 
4624.000000	65.357828 
4623.000000	65.289950 
4622.000000	65.214228 
4621.000000	65.138506 
4620.000000	65.068483 
4619.000000	65.007662 
4618.000000	64.956474 
4617.000000	64.913296 
4616.000000	64.874911 
4615.000000	64.838171 
4614.000000	64.800858 
4613.000000	64.762163 
4612.000000	64.723157 
4611.000000	64.685869 
4610.000000	64.653110 
4609.000000	64.626979 
4608.000000	64.608407 
4607.000000	64.596605 
4606.000000	64.589190 
4605.000000	64.582777 
4604.000000	64.573812 
4603.000000	64.559626 
4602.000000	64.539313 
4601.000000	64.513945 
4600.000000	64.486241 
4599.000000	64.459776 
4598.000000	64.438176 
4597.000000	64.424300 
4596.000000	64.419007 
4595.000000	64.421701 
4594.000000	64.430594 
4593.000000	64.443731 
4592.000000	64.459633 
4591.000000	64.477539 
4590.000000	64.497160 
4589.000000	64.518785 
4588.000000	64.542722 
4587.000000	64.568877 
4586.000000	64.596223 
4585.000000	64.622974 
4584.000000	64.647197 
4583.000000	64.666676 
4582.000000	64.679765 
4581.000000	64.685583 
4580.000000	64.684462 
4579.000000	64.677643 
4578.000000	64.667034 
4577.000000	64.654898 
4576.000000	64.643406 
4575.000000	64.634442 
4574.000000	64.629054 
4573.000000	64.627647 
4572.000000	64.629769 
4571.000000	64.634132 
4570.000000	64.639019 
4569.000000	64.642643 
4568.000000	64.643740 
4567.000000	64.642119 
4566.000000	64.638638 
4565.000000	64.635419 
4564.000000	64.634418 
4563.000000	64.636945 
4562.000000	64.642643 
4561.000000	64.649701 
4560.000000	64.654946 
4559.000000	64.654994 
4558.000000	64.647245 
4557.000000	64.630746 
4556.000000	64.606618 
4555.000000	64.577865 
4554.000000	64.548420 
4553.000000	64.521956 
4552.000000	64.501070 
4551.000000	64.486622 
4550.000000	64.477515 
4549.000000	64.471197 
4548.000000	64.464306 
4547.000000	64.453840 
4546.000000	64.437770 
4545.000000	64.415764 
4544.000000	64.388847 
4543.000000	64.359784 
4542.000000	64.331483 
4541.000000	64.307665 
4540.000000	64.291501 
4539.000000	64.286160 
4538.000000	64.294075 
4537.000000	64.316439 
4536.000000	64.352989 
4535.000000	64.401483 
4534.000000	64.457941 
4533.000000	64.516758 
4532.000000	64.571022 
4531.000000	64.613866 
4530.000000	64.639353 
4529.000000	64.643812 
4528.000000	64.626741 
4527.000000	64.591002 
4526.000000	64.542531 
4525.000000	64.489388 
4524.000000	64.440298 
4523.000000	64.402866 
4522.000000	64.382052 
4521.000000	64.379167 
4520.000000	64.391684 
4519.000000	64.413881 
4518.000000	64.438223 
4517.000000	64.457082 
4516.000000	64.465117 
4515.000000	64.459705 
4514.000000	64.442896 
4513.000000	64.420413 
4512.000000	64.400815 
4511.000000	64.393329 
4510.000000	64.405322 
4509.000000	64.440155 
4508.000000	64.496064 
4507.000000	64.566564 
4506.000000	64.641380 
4505.000000	64.709353 
4504.000000	64.760375 
4503.000000	64.787960 
4502.000000	64.789891 
4501.000000	64.768385 
4500.000000	64.728736 
4499.000000	64.677596 
4498.000000	64.621186 
4497.000000	64.564061 
4496.000000	64.508366 
4495.000000	64.454245 
4494.000000	64.400911 
4493.000000	64.347577 
4492.000000	64.295387 
4491.000000	64.247322 
4490.000000	64.205861 
4489.000000	64.173579 
4488.000000	64.151930 
4487.000000	64.141774 
4486.000000	64.142656 
4485.000000	64.153432 
4484.000000	64.173674 
4483.000000	64.202141 
4482.000000	64.234089 
4481.000000	64.264559 
4480.000000	64.291143 
4479.000000	64.312100 
4478.000000	64.321374 
4477.000000	64.318084 
4476.000000	64.312624 
4475.000000	64.312863 
4474.000000	64.319109 
4473.000000	64.329099 
4472.000000	64.338278 
4471.000000	64.341473 
4470.000000	64.337015 
4469.000000	64.318442 
4468.000000	64.278316 
4467.000000	64.225435 
4466.000000	64.182209 
4465.000000	64.176750 
4464.000000	64.234614 
4463.000000	64.370608 
4462.000000	64.585113 
4461.000000	64.846920 
4460.000000	65.116429 
4459.000000	65.362620 
4458.000000	65.574932 
4457.000000	65.763473 
4456.000000	65.966320 
4455.000000	66.214632 
4454.000000	66.565942 
4453.000000	67.044830 
4452.000000	67.717790 
4451.000000	68.687772 
4450.000000	70.069074 
4449.000000	71.984314 
4448.000000	74.438571 
4447.000000	77.293610 
4446.000000	80.231976 
4445.000000	82.804083 
4444.000000	84.535264 
4443.000000	85.037374 
4442.000000	84.130859 
4441.000000	81.892156 
4440.000000	78.604412 
4439.000000	74.696731 
4438.000000	70.628619 
4437.000000	66.807746 
4436.000000	63.550162 
4435.000000	61.026144 
4434.000000	59.315443 
4433.000000	58.367347 
4432.000000	58.044075 
4431.000000	58.137011 
4430.000000	58.375191 
4429.000000	58.515477 
4428.000000	58.345651 
4427.000000	57.776308 
4426.000000	56.806421 
4425.000000	55.575728 
4424.000000	54.298543 
4423.000000	53.241610 
4422.000000	52.639174 
4421.000000	52.658271 
4420.000000	53.355216 
4419.000000	54.663014 
4418.000000	56.406188 
4417.000000	58.349704 
4416.000000	60.253262 
4415.000000	61.918020 
4414.000000	63.222408 
4413.000000	64.132308 
4412.000000	64.691662 
4411.000000	64.985609 
4410.000000	65.112257 
4409.000000	65.155673 
4408.000000	65.165567 
4407.000000	65.185236 
4406.000000	65.226888 
4405.000000	65.284919 
4404.000000	65.336322 
4403.000000	65.374994 
4402.000000	65.395593 
4401.000000	65.394973 
4400.000000	65.373659 
4399.000000	65.334796 
4398.000000	65.283346 
4397.000000	65.224194 
4396.000000	65.162658 
4395.000000	65.104651 
4394.000000	65.055251 
4393.000000	65.018558 
4392.000000	64.996743 
4391.000000	64.990091 
4390.000000	64.995765 
4389.000000	65.008568 
4388.000000	65.022802 
4387.000000	65.032768 
4386.000000	65.037226 
4385.000000	65.038633 
4384.000000	65.034151 
4383.000000	65.018105 
4382.000000	64.988851 
4381.000000	64.947175 
4380.000000	64.893960 
4379.000000	64.831924 
4378.000000	64.766073 
4377.000000	64.702677 
4376.000000	64.647769 
4375.000000	64.606094 
4374.000000	64.580249 
4373.000000	64.569997 
4372.000000	64.571928 
4371.000000	64.581060 
4370.000000	64.591789 
4369.000000	64.600086 
4368.000000	64.603424 
4367.000000	64.602923 
4366.000000	64.602303 
4365.000000	64.607310 
4364.000000	64.623808 
4363.000000	64.655923 
4362.000000	64.704346 
4361.000000	64.766144 
4360.000000	64.835023 
4359.000000	64.902877 
4358.000000	64.961886 
4357.000000	65.006518 
4356.000000	65.035033 
4355.000000	65.049433 
4354.000000	65.055108 
4353.000000	65.059351 
4352.000000	65.068578 
4351.000000	65.087223 
4350.000000	65.115356 
4349.000000	65.149903 
4348.000000	65.183925 
4347.000000	65.209126 
4346.000000	65.217256 
4345.000000	65.202856 
4344.000000	65.164065 
4343.000000	65.103101 
4342.000000	65.026140 
4341.000000	64.942026 
4340.000000	64.860367 
4339.000000	64.789795 
4338.000000	64.736270 
4337.000000	64.702367 
4336.000000	64.687085 
4335.000000	64.686727 
4334.000000	64.695739 
4333.000000	64.708542 
4332.000000	64.721059 
4331.000000	64.731645 
4330.000000	64.740920 
4329.000000	64.751315 
4328.000000	64.766097 
4327.000000	64.787769 
4326.000000	64.816761 
4325.000000	64.851045 
4324.000000	64.886569 
4323.000000	64.918160 
4322.000000	64.940786 
4321.000000	64.950942 
4320.000000	64.947295 
4319.000000	64.931440 
4318.000000	64.907503 
4317.000000	64.881372 
4316.000000	64.859533 
4315.000000	64.847517 
4314.000000	64.848756 
4313.000000	64.863681 
4312.000000	64.889788 
4311.000000	64.922237 
4310.000000	64.955091 
4309.000000	64.982628 
4308.000000	65.000510 
4307.000000	65.006923 
4306.000000	65.002655 
4305.000000	64.990234 
4304.000000	64.972996 
4303.000000	64.954042 
4302.000000	64.935374 
4301.000000	64.917707 
4300.000000	64.900612 
4299.000000	64.883112 
4298.000000	64.864611 
4297.000000	64.846038 
4296.000000	64.829516 
4295.000000	64.818453 
4294.000000	64.815998 
4293.000000	64.824271 
4292.000000	64.843320 
4291.000000	64.870405 
4290.000000	64.900875 
4289.000000	64.928913 
4288.000000	64.949107 
4287.000000	64.957785 
4286.000000	64.953732 
4285.000000	64.938139 
4284.000000	64.914536 
4283.000000	64.887642 
4282.000000	64.862799 
4281.000000	64.844894 
4280.000000	64.837384 
4279.000000	64.841771 
4278.000000	64.857578 
4277.000000	64.882349 
4276.000000	64.911890 
4275.000000	64.941215 
4274.000000	64.965176 
4273.000000	64.979815 
4272.000000	64.982557 
4271.000000	64.973521 
4270.000000	64.954948 
4269.000000	64.931440 
4268.000000	64.908480 
4267.000000	64.891672 
4266.000000	64.885377 
4265.000000	64.891934 
4264.000000	64.911150 
4263.000000	64.940667 
4262.000000	64.976739 
4261.000000	65.014982 
4260.000000	65.051436 
4259.000000	65.082621 
4258.000000	65.105867 
4257.000000	65.118980 
4256.000000	65.120244 
4255.000000	65.108728 
4254.000000	65.084743 
4253.000000	65.050005 
4252.000000	65.007781 
4251.000000	64.962744 
4250.000000	64.920210 
4249.000000	64.885520 
4248.000000	64.862775 
4247.000000	64.854145 
4246.000000	64.858961 
4245.000000	64.874029 
4244.000000	64.893960 
4243.000000	64.912390 
4242.000000	64.923405 
4241.000000	64.922595 
4240.000000	64.908385 
4239.000000	64.881896 
4238.000000	64.847111 
4237.000000	64.809989 
4236.000000	64.777183 
4235.000000	64.754247 
4234.000000	64.744639 
4233.000000	64.749479 
4232.000000	64.766502 
4231.000000	64.791440 
4230.000000	64.818120 
4229.000000	64.840245 
4228.000000	64.852952 
4227.000000	64.854049 
4226.000000	64.844012 
4225.000000	64.825749 
4224.000000	64.803791 
4223.000000	64.783143 
4222.000000	64.767861 
4221.000000	64.760136 
4220.000000	64.759802 
4219.000000	64.764857 
4218.000000	64.772367 
4217.000000	64.780068 
4216.000000	64.786458 
4215.000000	64.792561 
4214.000000	64.801049 
4213.000000	64.816284 
4212.000000	64.842772 
4211.000000	64.884018 
4210.000000	64.941191 
4209.000000	65.012240 
4208.000000	65.092182 
4207.000000	65.173292 
4206.000000	65.246796 
4205.000000	65.303587 
4204.000000	65.336179 
4203.000000	65.339660 
4202.000000	65.312910 
4201.000000	65.258502 
4200.000000	65.182399 
4199.000000	65.093016 
4198.000000	64.999842 
4197.000000	64.912295 
4196.000000	64.838409 
4195.000000	64.783740 
4194.000000	64.751148 
4193.000000	64.740705 
4192.000000	64.750266 
4191.000000	64.775991 
4190.000000	64.813709 
4189.000000	64.859032 
4188.000000	64.908242 
4187.000000	64.957833 
4186.000000	65.005111 
4185.000000	65.047359 
4184.000000	65.082430 
4183.000000	65.108251 
4182.000000	65.123653 
4181.000000	65.128564 
4180.000000	65.124106 
4179.000000	65.113019 
4178.000000	65.098714 
4177.000000	65.085053 
4176.000000	65.074777 
4175.000000	65.069031 
4174.000000	65.066862 
4173.000000	65.065908 
4172.000000	65.062618 
4171.000000	65.053558 
4170.000000	65.036678 
4169.000000	65.012311 
4168.000000	64.983463 
4167.000000	64.955043 
4166.000000	64.932322 
4165.000000	64.919829 
4164.000000	64.920163 
4163.000000	64.933466 
4162.000000	64.957261 
4161.000000	64.987564 
4160.000000	65.020036 
4159.000000	65.051221 
