PE IR       SPECTRUM    SPECTRUM    ASCII       PEDS        1.60        
  -1
BZ68A1~1.ASC
17/04/07
14:02:02.00
17/04/07
14:02:02.00
tln
$BZ1503107-1_t0010$<tbV0>[-10.4,-13.0,8.0,0.0,27,1,0]
370.000000
64









2002,4.07    
MIRTGS : RIGHTBACK : INTERNAL 2
MIR : ON : INTERNAL 2
OPTKBR

0.200000
8
8.000000
FILLER
RATIO
SPECTRUM
UNLOCKED 256

DOUBLE
64
COMBINED
1
0
0


1.000000
RATIO


1
0
TRUE
51149
0
LEFT NOT FITTED RIGHT NOT FITTED 0
NONE
NONE
15600
12.000000
4.427000
51148
TRUE
1 0 8 72 0 0 0 0 

15798.010000






#HDR
-1
-1
#GR
CM-1
%T
0.00002384185791015625
0.0
5000.000000
-1.000000
4631
8
78.621315
50.928759
#DATA
5000.000000	65.618085 
4999.000000	65.569329 
4998.000000	65.508961 
4997.000000	65.442299 
4996.000000	65.372943 
4995.000000	65.302467 
4994.000000	65.229988 
4993.000000	65.154719 
4992.000000	65.073919 
4991.000000	64.984774 
4990.000000	64.884209 
4989.000000	64.771604 
4988.000000	64.645361 
4987.000000	64.504051 
4986.000000	64.344263 
4985.000000	64.161658 
4984.000000	63.953733 
4983.000000	63.722562 
4982.000000	63.476085 
4981.000000	63.229632 
4980.000000	63.005852 
4979.000000	62.832140 
4978.000000	62.733387 
4977.000000	62.728095 
4976.000000	62.822699 
4975.000000	63.011384 
4974.000000	63.271903 
4973.000000	63.575434 
4972.000000	63.890099 
4971.000000	64.192152 
4970.000000	64.467024 
4969.000000	64.714574 
4968.000000	64.944720 
4967.000000	65.173053 
4966.000000	65.414810 
4965.000000	65.675067 
4964.000000	65.946960 
4963.000000	66.207814 
4962.000000	66.427659 
4961.000000	66.570448 
4960.000000	66.605472 
4959.000000	66.513895 
4958.000000	66.296744 
4957.000000	65.973210 
4956.000000	65.578579 
4955.000000	65.158915 
4954.000000	64.761900 
4953.000000	64.427685 
4952.000000	64.180612 
4951.000000	64.027547 
4950.000000	63.956904 
4949.000000	63.942337 
4948.000000	63.951468 
4947.000000	63.951492 
4946.000000	63.921236 
4945.000000	63.852977 
4944.000000	63.757586 
4943.000000	63.656353 
4942.000000	63.578057 
4941.000000	63.548445 
4940.000000	63.583230 
4939.000000	63.681364 
4938.000000	63.826441 
4937.000000	63.991165 
4936.000000	64.144420 
4935.000000	64.259076 
4934.000000	64.320778 
4933.000000	64.331555 
4932.000000	64.308404 
4931.000000	64.277315 
4930.000000	64.265847 
4929.000000	64.294314 
4928.000000	64.370179 
4927.000000	64.485025 
4926.000000	64.617133 
4925.000000	64.736723 
4924.000000	64.816403 
4923.000000	64.837265 
4922.000000	64.791941 
4921.000000	64.687824 
4920.000000	64.544224 
4919.000000	64.389443 
4918.000000	64.252305 
4917.000000	64.158010 
4916.000000	64.123415 
4915.000000	64.154243 
4914.000000	64.246773 
4913.000000	64.386940 
4912.000000	64.555549 
4911.000000	64.729356 
4910.000000	64.885354 
4909.000000	65.003895 
4908.000000	65.070390 
4907.000000	65.078973 
4906.000000	65.032410 
4905.000000	64.942193 
4904.000000	64.825844 
4903.000000	64.703965 
4902.000000	64.596223 
4901.000000	64.517641 
4900.000000	64.475989 
4899.000000	64.471912 
4898.000000	64.499902 
4897.000000	64.551043 
4896.000000	64.615273 
4895.000000	64.683580 
4894.000000	64.749407 
4893.000000	64.808106 
4892.000000	64.857506 
4891.000000	64.896392 
4890.000000	64.924240 
4889.000000	64.940524 
4888.000000	64.944338 
4887.000000	64.934849 
4886.000000	64.911651 
4885.000000	64.876675 
4884.000000	64.833521 
4883.000000	64.787483 
4882.000000	64.744710 
4881.000000	64.710974 
4880.000000	64.691066 
4879.000000	64.687943 
4878.000000	64.702057 
4877.000000	64.731144 
4876.000000	64.770627 
4875.000000	64.814567 
4874.000000	64.856338 
4873.000000	64.890289 
4872.000000	64.912748 
4871.000000	64.923167 
4870.000000	64.923644 
4869.000000	64.918613 
4868.000000	64.913415 
4867.000000	64.913535 
4866.000000	64.922571 
4865.000000	64.942598 
4864.000000	64.974498 
4863.000000	65.017223 
4862.000000	65.068697 
4861.000000	65.125083 
4860.000000	65.181779 
4859.000000	65.233230 
4858.000000	65.273213 
4857.000000	65.296983 
4856.000000	65.301704 
4855.000000	65.288543 
4854.000000	65.262532 
4853.000000	65.232491 
4852.000000	65.209531 
4851.000000	65.203905 
4850.000000	65.222692 
4849.000000	65.266275 
4848.000000	65.327811 
4847.000000	65.394020 
4846.000000	65.448212 
4845.000000	65.474033 
4844.000000	65.459775 
4843.000000	65.401601 
4842.000000	65.304350 
4841.000000	65.180611 
4840.000000	65.047383 
4839.000000	64.921331 
4838.000000	64.815402 
4837.000000	64.736223 
4836.000000	64.684176 
4835.000000	64.655065 
4834.000000	64.642405 
4833.000000	64.639759 
4832.000000	64.642930 
4831.000000	64.650797 
4830.000000	64.664244 
4829.000000	64.683818 
4828.000000	64.708733 
4827.000000	64.734220 
4826.000000	64.754319 
4825.000000	64.762306 
4824.000000	64.754390 
4823.000000	64.730834 
4822.000000	64.698147 
4821.000000	64.667558 
4820.000000	64.652442 
4819.000000	64.664053 
4818.000000	64.706897 
4817.000000	64.776539 
4816.000000	64.859223 
4815.000000	64.935708 
4814.000000	64.985847 
4813.000000	64.995622 
4812.000000	64.960575 
4811.000000	64.889717 
4810.000000	64.803314 
4809.000000	64.729166 
4808.000000	64.695405 
4807.000000	64.723300 
4806.000000	64.821696 
4805.000000	64.983534 
4804.000000	65.189003 
4803.000000	65.407657 
4802.000000	65.606737 
4801.000000	65.756750 
4800.000000	65.838003 
4799.000000	65.843796 
4798.000000	65.780663 
4797.000000	65.665912 
4796.000000	65.522742 
4795.000000	65.376138 
4794.000000	65.247488 
4793.000000	65.152907 
4792.000000	65.100669 
4791.000000	65.091037 
4790.000000	65.116667 
4789.000000	65.165400 
4788.000000	65.222406 
4787.000000	65.272140 
4786.000000	65.301895 
4785.000000	65.301823 
4784.000000	65.268945 
4783.000000	65.206599 
4782.000000	65.124845 
4781.000000	65.037846 
4780.000000	64.960551 
4779.000000	64.906525 
4778.000000	64.882898 
4777.000000	64.890027 
4776.000000	64.919471 
4775.000000	64.956831 
4774.000000	64.984798 
4773.000000	64.987301 
4772.000000	64.954876 
4771.000000	64.887094 
4770.000000	64.793705 
4769.000000	64.691591 
4768.000000	64.603686 
4767.000000	64.553070 
4766.000000	64.557981 
4765.000000	64.626502 
4764.000000	64.754247 
4763.000000	64.924287 
4762.000000	65.111160 
4761.000000	65.285897 
4760.000000	65.421843 
4759.000000	65.500402 
4758.000000	65.514230 
4757.000000	65.468096 
4756.000000	65.376496 
4755.000000	65.259671 
4754.000000	65.138554 
4753.000000	65.030217 
4752.000000	64.946198 
4751.000000	64.890336 
4750.000000	64.861702 
4749.000000	64.854168 
4748.000000	64.860463 
4747.000000	64.872503 
4746.000000	64.884448 
4745.000000	64.890956 
4744.000000	64.886927 
4743.000000	64.868092 
4742.000000	64.830780 
4741.000000	64.774179 
4740.000000	64.700722 
4739.000000	64.617085 
4738.000000	64.533042 
4737.000000	64.459848 
4736.000000	64.407587 
4735.000000	64.382672 
4734.000000	64.385914 
4733.000000	64.412498 
4732.000000	64.452528 
4731.000000	64.493775 
4730.000000	64.523935 
4729.000000	64.533591 
4728.000000	64.518046 
4727.000000	64.476490 
4726.000000	64.413547 
4725.000000	64.336252 
4724.000000	64.255309 
4723.000000	64.181756 
4722.000000	64.127516 
4721.000000	64.102935 
4720.000000	64.116096 
4719.000000	64.172649 
4718.000000	64.271807 
4717.000000	64.405822 
4716.000000	64.559745 
4715.000000	64.713358 
4714.000000	64.844536 
4713.000000	64.933633 
4712.000000	64.967989 
4711.000000	64.944887 
4710.000000	64.872121 
4709.000000	64.766144 
4708.000000	64.648771 
4707.000000	64.541816 
4706.000000	64.462780 
4705.000000	64.420866 
4704.000000	64.416837 
4703.000000	64.443206 
4702.000000	64.487385 
4701.000000	64.535856 
4700.000000	64.577102 
4699.000000	64.605784 
4698.000000	64.622497 
4697.000000	64.634704 
4696.000000	64.651870 
4695.000000	64.684605 
4694.000000	64.740276 
4693.000000	64.821743 
4692.000000	64.926528 
4691.000000	65.046596 
4690.000000	65.170478 
4689.000000	65.285062 
4688.000000	65.378999 
4687.000000	65.444040 
4686.000000	65.476775 
4685.000000	65.478396 
4684.000000	65.453767 
4683.000000	65.410542 
4682.000000	65.356826 
4681.000000	65.300154 
4680.000000	65.245556 
4679.000000	65.196394 
4678.000000	65.153121 
4677.000000	65.115118 
4676.000000	65.080285 
4675.000000	65.045619 
4674.000000	65.008425 
4673.000000	64.966392 
4672.000000	64.919328 
4671.000000	64.868640 
4670.000000	64.818501 
4669.000000	64.773917 
4668.000000	64.741444 
4667.000000	64.727425 
4666.000000	64.736461 
4665.000000	64.769577 
4664.000000	64.823889 
4663.000000	64.892721 
4662.000000	64.966416 
4661.000000	65.034198 
4660.000000	65.086627 
4659.000000	65.117573 
4658.000000	65.125203 
4657.000000	65.111970 
4656.000000	65.084218 
4655.000000	65.050172 
4654.000000	65.017676 
4653.000000	64.992356 
4652.000000	64.977002 
4651.000000	64.971137 
4650.000000	64.972496 
4649.000000	64.977407 
4648.000000	64.982604 
4647.000000	64.985346 
4646.000000	64.984774 
4645.000000	64.980864 
4644.000000	64.973902 
4643.000000	64.964032 
4642.000000	64.950680 
4641.000000	64.933061 
4640.000000	64.910054 
4639.000000	64.881610 
4638.000000	64.849138 
4637.000000	64.815521 
4636.000000	64.785027 
4635.000000	64.762210 
4634.000000	64.750885 
4633.000000	64.752912 
4632.000000	64.767551 
4631.000000	64.791226 
4630.000000	64.818310 
4629.000000	64.842748 
4628.000000	64.859366 
4627.000000	64.865064 
4626.000000	64.859342 
4625.000000	64.844346 
4624.000000	64.824032 
4623.000000	64.803457 
4622.000000	64.787006 
4621.000000	64.777302 
4620.000000	64.774656 
4619.000000	64.777779 
4618.000000	64.783811 
4617.000000	64.789557 
4616.000000	64.792108 
4615.000000	64.789700 
4614.000000	64.782261 
4613.000000	64.770603 
4612.000000	64.756870 
4611.000000	64.743304 
4610.000000	64.732336 
4609.000000	64.725780 
4608.000000	64.724564 
4607.000000	64.728689 
4606.000000	64.736676 
4605.000000	64.746046 
4604.000000	64.753365 
4603.000000	64.755415 
4602.000000	64.749908 
4601.000000	64.736723 
4600.000000	64.718151 
4599.000000	64.698910 
4598.000000	64.685273 
4597.000000	64.683771 
4596.000000	64.699435 
4595.000000	64.734721 
4594.000000	64.788651 
4593.000000	64.856648 
4592.000000	64.931726 
4591.000000	65.005326 
4590.000000	65.069508 
4589.000000	65.118002 
4588.000000	65.147590 
4587.000000	65.158057 
4586.000000	65.152072 
4585.000000	65.133857 
4584.000000	65.108203 
4583.000000	65.078949 
4582.000000	65.048670 
4581.000000	65.018010 
4580.000000	64.986515 
4579.000000	64.953041 
4578.000000	64.916729 
4577.000000	64.877605 
4576.000000	64.837193 
4575.000000	64.798021 
4574.000000	64.763593 
4573.000000	64.737153 
4572.000000	64.721322 
4571.000000	64.717197 
4570.000000	64.723992 
4569.000000	64.739298 
4568.000000	64.759302 
4567.000000	64.779806 
4566.000000	64.796924 
4565.000000	64.807486 
4564.000000	64.809632 
4563.000000	64.802956 
4562.000000	64.788389 
4561.000000	64.767289 
4560.000000	64.741587 
4559.000000	64.713788 
4558.000000	64.685940 
4557.000000	64.659786 
4556.000000	64.635872 
4555.000000	64.614033 
4554.000000	64.593267 
4553.000000	64.572381 
4552.000000	64.551281 
4551.000000	64.531135 
4550.000000	64.515042 
4549.000000	64.507150 
4548.000000	64.511299 
4547.000000	64.529895 
4546.000000	64.562726 
4545.000000	64.606451 
4544.000000	64.655399 
4543.000000	64.702200 
4542.000000	64.740180 
4541.000000	64.763808 
4540.000000	64.769124 
4539.000000	64.754652 
4538.000000	64.721059 
4537.000000	64.671421 
4536.000000	64.610624 
4535.000000	64.544892 
4534.000000	64.481091 
4533.000000	64.425230 
4532.000000	64.381504 
4531.000000	64.351892 
4530.000000	64.336228 
4529.000000	64.332103 
4528.000000	64.335441 
4527.000000	64.342141 
4526.000000	64.349365 
4525.000000	64.354753 
4524.000000	64.356255 
4523.000000	64.353919 
4522.000000	64.349484 
4521.000000	64.343953 
4520.000000	64.337801 
4519.000000	64.331603 
4518.000000	64.326930 
4517.000000	64.326047 
4516.000000	64.331984 
4515.000000	64.350008 
4514.000000	64.384436 
4513.000000	64.434576 
4512.000000	64.496374 
4511.000000	64.561581 
4510.000000	64.621663 
4509.000000	64.670300 
4508.000000	64.705038 
4507.000000	64.727258 
4506.000000	64.742374 
4505.000000	64.757895 
4504.000000	64.781594 
4503.000000	64.816260 
4502.000000	64.865970 
4501.000000	64.935636 
4500.000000	65.033388 
4499.000000	65.168547 
4498.000000	65.354108 
4497.000000	65.602874 
4496.000000	65.919113 
4495.000000	66.295266 
4494.000000	66.709899 
4493.000000	67.132282 
4492.000000	67.524838 
4491.000000	67.855620 
4490.000000	68.111181 
4489.000000	68.298721 
4488.000000	68.448138 
4487.000000	68.596673 
4486.000000	68.783569 
4485.000000	69.026279 
4484.000000	69.314765 
4483.000000	69.605588 
4482.000000	69.840455 
4481.000000	69.951057 
4480.000000	69.881153 
4479.000000	69.600319 
4478.000000	69.122624 
4477.000000	68.493962 
4476.000000	67.787671 
4475.000000	67.076468 
4474.000000	66.413974 
4473.000000	65.829777 
4472.000000	65.330648 
4471.000000	64.895319 
4470.000000	64.486503 
4469.000000	64.073896 
4468.000000	63.645362 
4467.000000	63.207507 
4466.000000	62.783670 
4465.000000	62.398457 
4464.000000	62.070369 
4463.000000	61.804628 
4462.000000	61.589050 
4461.000000	61.398315 
4460.000000	61.193633 
4459.000000	60.945034 
4458.000000	60.617184 
4457.000000	60.186171 
4456.000000	59.623312 
4455.000000	58.891677 
4454.000000	57.965517 
4453.000000	56.816840 
4452.000000	55.476856 
4451.000000	54.023265 
4450.000000	52.625536 
4449.000000	51.504850 
4448.000000	50.928759 
4447.000000	51.144242 
4446.000000	52.323865 
4445.000000	54.506349 
4444.000000	57.564496 
4443.000000	61.207866 
4442.000000	65.025734 
4441.000000	68.560194 
4440.000000	71.388769 
4439.000000	73.205614 
4438.000000	73.880529 
4437.000000	73.472905 
4436.000000	72.204136 
4435.000000	70.397424 
4434.000000	68.416619 
4433.000000	66.578269 
4432.000000	65.117025 
4431.000000	64.135909 
4430.000000	63.649559 
4429.000000	63.572430 
4428.000000	63.783073 
4427.000000	64.142870 
4426.000000	64.534974 
4425.000000	64.882683 
4424.000000	65.140509 
4423.000000	65.304994 
4422.000000	65.381622 
4421.000000	65.394592 
4420.000000	65.364003 
4419.000000	65.312480 
4418.000000	65.259146 
4417.000000	65.218234 
4416.000000	65.199160 
4415.000000	65.202569 
4414.000000	65.222096 
4413.000000	65.249896 
4412.000000	65.279364 
4411.000000	65.299654 
4410.000000	65.301132 
4409.000000	65.287160 
4408.000000	65.268921 
4407.000000	65.253591 
4406.000000	65.246605 
4405.000000	65.251183 
4404.000000	65.266299 
4403.000000	65.290999 
4402.000000	65.320897 
4401.000000	65.345144 
4400.000000	65.353727 
4399.000000	65.344429 
4398.000000	65.318226 
4397.000000	65.278363 
4396.000000	65.229606 
4395.000000	65.175795 
4394.000000	65.120220 
4393.000000	65.065503 
4392.000000	65.013170 
4391.000000	64.964056 
4390.000000	64.919710 
4389.000000	64.882802 
4388.000000	64.856624 
4387.000000	64.844584 
4386.000000	64.849209 
4385.000000	64.871525 
4384.000000	64.910030 
4383.000000	64.960813 
4382.000000	65.018296 
4381.000000	65.076017 
4380.000000	65.127563 
4379.000000	65.167760 
4378.000000	65.193676 
4377.000000	65.204811 
4376.000000	65.202522 
4375.000000	65.189576 
4374.000000	65.169072 
4373.000000	65.144276 
4372.000000	65.118193 
4371.000000	65.093946 
4370.000000	65.074682 
4369.000000	65.063786 
4368.000000	65.064668 
4367.000000	65.079641 
4366.000000	65.109419 
4365.000000	65.152573 
4364.000000	65.205383 
4363.000000	65.261793 
4362.000000	65.314221 
4361.000000	65.355372 
4360.000000	65.379309 
4359.000000	65.382289 
4358.000000	65.363287 
4357.000000	65.323877 
4356.000000	65.267872 
4355.000000	65.200185 
4354.000000	65.126252 
4353.000000	65.051174 
4352.000000	64.979505 
4351.000000	64.916110 
4350.000000	64.865159 
4349.000000	64.830231 
4348.000000	64.813423 
4347.000000	64.814996 
4346.000000	64.833211 
4345.000000	64.863300 
4344.000000	64.899873 
4343.000000	64.936661 
4342.000000	64.969491 
4341.000000	64.996314 
4340.000000	65.018177 
4339.000000	65.038204 
4338.000000	65.060734 
4337.000000	65.089559 
4336.000000	65.126585 
4335.000000	65.170979 
4334.000000	65.219092 
4333.000000	65.265274 
4332.000000	65.303421 
4331.000000	65.327858 
4330.000000	65.335059 
4329.000000	65.323424 
4328.000000	65.293478 
4327.000000	65.247058 
4326.000000	65.186524 
4325.000000	65.114617 
4324.000000	65.034055 
4323.000000	64.948248 
4322.000000	64.861869 
4321.000000	64.780759 
4320.000000	64.711523 
4319.000000	64.661073 
4318.000000	64.635300 
4317.000000	64.637851 
4316.000000	64.668941 
4315.000000	64.725160 
4314.000000	64.799332 
4313.000000	64.881920 
4312.000000	64.962506 
4311.000000	65.031504 
4310.000000	65.081596 
4309.000000	65.108776 
4308.000000	65.112781 
4307.000000	65.096545 
4306.000000	65.065193 
4305.000000	65.025186 
4304.000000	64.982461 
4303.000000	64.942359 
4302.000000	64.908409 
4301.000000	64.882469 
4300.000000	64.864683 
4299.000000	64.853954 
4298.000000	64.848542 
4297.000000	64.846706 
4296.000000	64.847159 
4295.000000	64.848947 
4294.000000	64.851808 
4293.000000	64.855480 
4292.000000	64.860105 
4291.000000	64.865517 
4290.000000	64.871644 
4289.000000	64.878225 
4288.000000	64.885330 
4287.000000	64.893221 
4286.000000	64.902544 
4285.000000	64.914250 
4284.000000	64.929246 
4283.000000	64.948272 
4282.000000	64.971613 
4281.000000	64.998626 
4280.000000	65.028023 
4279.000000	65.057921 
4278.000000	65.086102 
4277.000000	65.110111 
4276.000000	65.128159 
4275.000000	65.138554 
4274.000000	65.140080 
4273.000000	65.131616 
4272.000000	65.112805 
4271.000000	65.083599 
4270.000000	65.044760 
4269.000000	64.997434 
4268.000000	64.943981 
4267.000000	64.886879 
4266.000000	64.829134 
4265.000000	64.773035 
4264.000000	64.720487 
4263.000000	64.672183 
4262.000000	64.627671 
4261.000000	64.586424 
4260.000000	64.547729 
4259.000000	64.512491 
4258.000000	64.482879 
4257.000000	64.463019 
4256.000000	64.457726 
4255.000000	64.471983 
4254.000000	64.509129 
4253.000000	64.569592 
4252.000000	64.649963 
4251.000000	64.743471 
4250.000000	64.840793 
4249.000000	64.931797 
4248.000000	65.007114 
4247.000000	65.060234 
4246.000000	65.088176 
4245.000000	65.091729 
4244.000000	65.074682 
4243.000000	65.042996 
4242.000000	65.003204 
4241.000000	64.961528 
4240.000000	64.922904 
4239.000000	64.890909 
4238.000000	64.867901 
4237.000000	64.856123 
4236.000000	64.857029 
4235.000000	64.871740 
4234.000000	64.900207 
4233.000000	64.941310 
4232.000000	64.991664 
4231.000000	65.045738 
4230.000000	65.096521 
4229.000000	65.136551 
4228.000000	65.159821 
4227.000000	65.162944 
4226.000000	65.146279 
4225.000000	65.113759 
4224.000000	65.072107 
4223.000000	65.028977 
4222.000000	64.991021 
4221.000000	64.961910 
4220.000000	64.941883 
4219.000000	64.927935 
4218.000000	64.914751 
4217.000000	64.897203 
4216.000000	64.872717 
4215.000000	64.842510 
4214.000000	64.811062 
4213.000000	64.785647 
4212.000000	64.773845 
4211.000000	64.781832 
4210.000000	64.811754 
4209.000000	64.861607 
4208.000000	64.925074 
4207.000000	64.993333 
4206.000000	65.057468 
4205.000000	65.109848 
4204.000000	65.145683 
4203.000000	65.163111 
4202.000000	65.163254 
4201.000000	65.148758 
4200.000000	65.122985 
4199.000000	65.088844 
4198.000000	65.048480 
4197.000000	65.004086 
4196.000000	64.957952 
4195.000000	64.913129 
4194.000000	64.872789 
4193.000000	64.839816 
4192.000000	64.815831 
4191.000000	64.800405 
4190.000000	64.791250 
4189.000000	64.783859 
4188.000000	64.773511 
4187.000000	64.756131 
4186.000000	64.730429 
4185.000000	64.697790 
4184.000000	64.663386 
4183.000000	64.634227 
4182.000000	64.618587 
4181.000000	64.623308 
4180.000000	64.652895 
4179.000000	64.707660 
4178.000000	64.783668 
4177.000000	64.873242 
4176.000000	64.966058 
4175.000000	65.051198 
4174.000000	65.118241 
4173.000000	65.159082 
4172.000000	65.169024 
4171.000000	65.147542 
4170.000000	65.098190 
4169.000000	65.027952 
4168.000000	64.946746 
4167.000000	64.865374 
4166.000000	64.794039 
4165.000000	64.740419 
4164.000000	64.709019 
4163.000000	64.700341 
4162.000000	64.711475 
4161.000000	64.737129 
4160.000000	64.770674 
4159.000000	64.805960 
