PE IR       SPECTRUM    SPECTRUM    ASCII       PEDS        1.60        
  -1
BZ3CF5~1.ASC
17/04/07
22:25:15.00
17/04/07
22:25:15.00
tln
$BZ1503107-1_t0111$<tbV0>[13.0,13.0,8.0,0.0,27,1,0]
370.000000
64









2002,4.07    
MIRTGS : RIGHTBACK : INTERNAL 2
MIR : ON : INTERNAL 2
OPTKBR

0.200000
8
8.000000
FILLER
RATIO
SPECTRUM
UNLOCKED 256

DOUBLE
64
COMBINED
1
0
0


1.000000
RATIO


1
0
TRUE
51149
0
LEFT NOT FITTED RIGHT NOT FITTED 0
NONE
NONE
15600
12.000000
4.427000
51148
TRUE
1 0 8 72 0 0 0 0 

15798.010000






#HDR
-1
-1
#GR
CM-1
%T
0.00002384185791015625
0.0
5000.000000
-1.000000
4631
8
74.513721
53.244566
#DATA
5000.000000	64.358997 
4999.000000	63.854074 
4998.000000	63.177847 
4997.000000	62.409639 
4996.000000	61.650061 
4995.000000	60.998821 
4994.000000	60.541486 
4993.000000	60.332655 
4992.000000	60.390543 
4991.000000	60.697984 
4990.000000	61.205267 
4989.000000	61.841750 
4988.000000	62.525701 
4987.000000	63.176798 
4986.000000	63.724803 
4985.000000	64.116191 
4984.000000	64.319539 
4983.000000	64.325952 
4982.000000	64.151358 
4981.000000	63.831686 
4980.000000	63.418579 
4979.000000	62.969565 
4978.000000	62.545275 
4977.000000	62.196421 
4976.000000	61.958026 
4975.000000	61.843252 
4974.000000	61.844444 
4973.000000	61.937856 
4972.000000	62.089943 
4971.000000	62.268471 
4970.000000	62.446022 
4969.000000	62.608981 
4968.000000	62.753844 
4967.000000	62.887883 
4966.000000	63.021349 
4965.000000	63.162183 
4964.000000	63.308262 
4963.000000	63.448858 
4962.000000	63.568258 
4961.000000	63.647723 
4960.000000	63.672375 
4959.000000	63.635826 
4958.000000	63.543677 
4957.000000	63.413429 
4956.000000	63.271427 
4955.000000	63.144350 
4954.000000	63.053035 
4953.000000	63.009428 
4952.000000	63.013577 
4951.000000	63.054990 
4950.000000	63.115477 
4949.000000	63.173604 
4948.000000	63.210725 
4947.000000	63.215541 
4946.000000	63.187026 
4945.000000	63.131475 
4944.000000	63.063097 
4943.000000	62.998342 
4942.000000	62.953853 
4941.000000	62.941598 
4940.000000	62.967586 
4939.000000	63.030433 
4938.000000	63.123226 
4937.000000	63.236761 
4936.000000	63.359928 
4935.000000	63.482260 
4934.000000	63.594222 
4933.000000	63.688254 
4932.000000	63.758063 
4931.000000	63.798499 
4930.000000	63.806700 
4929.000000	63.782691 
4928.000000	63.730359 
4927.000000	63.657236 
4926.000000	63.574266 
4925.000000	63.493943 
4924.000000	63.429045 
4923.000000	63.389873 
4922.000000	63.382315 
4921.000000	63.406252 
4920.000000	63.456106 
4919.000000	63.521385 
4918.000000	63.589406 
4917.000000	63.647890 
4916.000000	63.686442 
4915.000000	63.699650 
4914.000000	63.687443 
4913.000000	63.654994 
4912.000000	63.610744 
4911.000000	63.564229 
4910.000000	63.523602 
4909.000000	63.493514 
4908.000000	63.474822 
4907.000000	63.464426 
4906.000000	63.457131 
4905.000000	63.447308 
4904.000000	63.431119 
4903.000000	63.408136 
4902.000000	63.381576 
4901.000000	63.357329 
4900.000000	63.341927 
4899.000000	63.340282 
4898.000000	63.353586 
4897.000000	63.378334 
4896.000000	63.406467 
4895.000000	63.427376 
4894.000000	63.430309 
4893.000000	63.407707 
4892.000000	63.357067 
4891.000000	63.281226 
4890.000000	63.188219 
4889.000000	63.089275 
4888.000000	62.996387 
4887.000000	62.919831 
4886.000000	62.866067 
4885.000000	62.836742 
4884.000000	62.829279 
4883.000000	62.838101 
4882.000000	62.857151 
4881.000000	62.881135 
4880.000000	62.908172 
4879.000000	62.939524 
4878.000000	62.979269 
4877.000000	63.031744 
4876.000000	63.099598 
4875.000000	63.181495 
4874.000000	63.271617 
4873.000000	63.360071 
4872.000000	63.434839 
4871.000000	63.484668 
4870.000000	63.502192 
4869.000000	63.486051 
4868.000000	63.441276 
4867.000000	63.378310 
4866.000000	63.310718 
4865.000000	63.251757 
4864.000000	63.211011 
4863.000000	63.192510 
4862.000000	63.194775 
4861.000000	63.211655 
4860.000000	63.235330 
4859.000000	63.258099 
4858.000000	63.275313 
4857.000000	63.284802 
4856.000000	63.286471 
4855.000000	63.281321 
4854.000000	63.269639 
4853.000000	63.251376 
4852.000000	63.225483 
4851.000000	63.191437 
4850.000000	63.149976 
4849.000000	63.104033 
4848.000000	63.058757 
4847.000000	63.020253 
4846.000000	62.994313 
4845.000000	62.984848 
4844.000000	62.993168 
4843.000000	63.016676 
4842.000000	63.050270 
4841.000000	63.088202 
4840.000000	63.125467 
4839.000000	63.159322 
4838.000000	63.189148 
4837.000000	63.215708 
4836.000000	63.240432 
4835.000000	63.263845 
4834.000000	63.285231 
4833.000000	63.302350 
4832.000000	63.311862 
4831.000000	63.311624 
4830.000000	63.300132 
4829.000000	63.277769 
4828.000000	63.246440 
4827.000000	63.209438 
4826.000000	63.170909 
4825.000000	63.135194 
4824.000000	63.105916 
4823.000000	63.085460 
4822.000000	63.074159 
4821.000000	63.070273 
4820.000000	63.069820 
4819.000000	63.067698 
4818.000000	63.058280 
4817.000000	63.037276 
4816.000000	63.002228 
4815.000000	62.954211 
4814.000000	62.897729 
4813.000000	62.840819 
4812.000000	62.793374 
4811.000000	62.765359 
4810.000000	62.764334 
4809.000000	62.793612 
4808.000000	62.850975 
4807.000000	62.929248 
4806.000000	63.017678 
4805.000000	63.104176 
4804.000000	63.177728 
4803.000000	63.230562 
4802.000000	63.259148 
4801.000000	63.264656 
4800.000000	63.251638 
4799.000000	63.226532 
4798.000000	63.196063 
4797.000000	63.165211 
4796.000000	63.136768 
4795.000000	63.110303 
4794.000000	63.082933 
4793.000000	63.050580 
4792.000000	63.009953 
4791.000000	62.959575 
4790.000000	62.901234 
4789.000000	62.839508 
4788.000000	62.781453 
4787.000000	62.734627 
4786.000000	62.705755 
4785.000000	62.698745 
4784.000000	62.714314 
4783.000000	62.749862 
4782.000000	62.800025 
4781.000000	62.858009 
4780.000000	62.916445 
4779.000000	62.968492 
4778.000000	63.008904 
4777.000000	63.034081 
4776.000000	63.043069 
4775.000000	63.036918 
4774.000000	63.018918 
4773.000000	62.993478 
4772.000000	62.965822 
4771.000000	62.941169 
4770.000000	62.923574 
4769.000000	62.915802 
4768.000000	62.917995 
4767.000000	62.927913 
4766.000000	62.941789 
4765.000000	62.955355 
4764.000000	62.964892 
4763.000000	62.968015 
4762.000000	62.964820 
4761.000000	62.957096 
4760.000000	62.947225 
4759.000000	62.937474 
4758.000000	62.928748 
4757.000000	62.920904 
4756.000000	62.913250 
4755.000000	62.905049 
4754.000000	62.896513 
4753.000000	62.888431 
4752.000000	62.882375 
4751.000000	62.879920 
4750.000000	62.881612 
4749.000000	62.887549 
4748.000000	62.897205 
4747.000000	62.910103 
4746.000000	62.925767 
4745.000000	62.944650 
4744.000000	62.967896 
4743.000000	62.997078 
4742.000000	63.033580 
4741.000000	63.077855 
4740.000000	63.129258 
4739.000000	63.185834 
4738.000000	63.244509 
4737.000000	63.302421 
4736.000000	63.356828 
4735.000000	63.405895 
4734.000000	63.447833 
4733.000000	63.480710 
4732.000000	63.501572 
4731.000000	63.506722 
4730.000000	63.492035 
4729.000000	63.454627 
4728.000000	63.393616 
4727.000000	63.312458 
4726.000000	63.217878 
4725.000000	63.119649 
4724.000000	63.028526 
4723.000000	62.954306 
4722.000000	62.903833 
4721.000000	62.879824 
4720.000000	62.880373 
4719.000000	62.899780 
4718.000000	62.929844 
4717.000000	62.961721 
4716.000000	62.987828 
4715.000000	63.002872 
4714.000000	63.004493 
4713.000000	62.992858 
4712.000000	62.969803 
4711.000000	62.937855 
4710.000000	62.899374 
4709.000000	62.856292 
4708.000000	62.810063 
4707.000000	62.762236 
4706.000000	62.714886 
4705.000000	62.671136 
4704.000000	62.635087 
4703.000000	62.611532 
4702.000000	62.604689 
4701.000000	62.617349 
4700.000000	62.649989 
4699.000000	62.700080 
4698.000000	62.761664 
4697.000000	62.826871 
4696.000000	62.886857 
4695.000000	62.934207 
4694.000000	62.963938 
4693.000000	62.975358 
4692.000000	62.971949 
4691.000000	62.960481 
4690.000000	62.949085 
4689.000000	62.945246 
4688.000000	62.954044 
4687.000000	62.976837 
4686.000000	63.011527 
4685.000000	63.052868 
4684.000000	63.094401 
4683.000000	63.130116 
4682.000000	63.156318 
4681.000000	63.172745 
4680.000000	63.182616 
4679.000000	63.191485 
4678.000000	63.206005 
4677.000000	63.231945 
4676.000000	63.272380 
4675.000000	63.326692 
4674.000000	63.390421 
4673.000000	63.456416 
4672.000000	63.516306 
4671.000000	63.562488 
4670.000000	63.589644 
4669.000000	63.596248 
4668.000000	63.584089 
4667.000000	63.558030 
4666.000000	63.523602 
4665.000000	63.486027 
4664.000000	63.447952 
4663.000000	63.409709 
4662.000000	63.369035 
4661.000000	63.322687 
4660.000000	63.268423 
4659.000000	63.206934 
4658.000000	63.142395 
4657.000000	63.082289 
4656.000000	63.035702 
4655.000000	63.011217 
4654.000000	63.014173 
4653.000000	63.045334 
4652.000000	63.100242 
4651.000000	63.170242 
4650.000000	63.244247 
4649.000000	63.311576 
4648.000000	63.364243 
4647.000000	63.398718 
4646.000000	63.415813 
4645.000000	63.420200 
4644.000000	63.418602 
4643.000000	63.417673 
4642.000000	63.421964 
4641.000000	63.432931 
4640.000000	63.449668 
4639.000000	63.468408 
4638.000000	63.484787 
4637.000000	63.494324 
4636.000000	63.494443 
4635.000000	63.484358 
4634.000000	63.465261 
4633.000000	63.440108 
4632.000000	63.412952 
4631.000000	63.388586 
4630.000000	63.371872 
4629.000000	63.366794 
4628.000000	63.375902 
4627.000000	63.400602 
4626.000000	63.440465 
4625.000000	63.492846 
4624.000000	63.553237 
4623.000000	63.615703 
4622.000000	63.673925 
4621.000000	63.721609 
4620.000000	63.753914 
4619.000000	63.768267 
4618.000000	63.764309 
4617.000000	63.744592 
4616.000000	63.712906 
4615.000000	63.674020 
4614.000000	63.631391 
4613.000000	63.587641 
4612.000000	63.542842 
4611.000000	63.495755 
4610.000000	63.444256 
4609.000000	63.386845 
4608.000000	63.324284 
4607.000000	63.259816 
4606.000000	63.200163 
4605.000000	63.154292 
4604.000000	63.131976 
4603.000000	63.141417 
4602.000000	63.187003 
4601.000000	63.267898 
4600.000000	63.377594 
4599.000000	63.505291 
4598.000000	63.637256 
4597.000000	63.759970 
4596.000000	63.862538 
4595.000000	63.938522 
4594.000000	63.986325 
4593.000000	64.008688 
4592.000000	64.011502 
4591.000000	64.001131 
4590.000000	63.983654 
4589.000000	63.962197 
4588.000000	63.938164 
4587.000000	63.910007 
4586.000000	63.875770 
4585.000000	63.833355 
4584.000000	63.782572 
4583.000000	63.725495 
4582.000000	63.666939 
4581.000000	63.613629 
4580.000000	63.572692 
4579.000000	63.550758 
4578.000000	63.552308 
4577.000000	63.578939 
4576.000000	63.628840 
4575.000000	63.697266 
4574.000000	63.777494 
4573.000000	63.861775 
4572.000000	63.943004 
4571.000000	64.015603 
4570.000000	64.076471 
4569.000000	64.124488 
4568.000000	64.160370 
4567.000000	64.186620 
4566.000000	64.205932 
4565.000000	64.220762 
4564.000000	64.231991 
4563.000000	64.240288 
4562.000000	64.244103 
4561.000000	64.242029 
4560.000000	64.230966 
4559.000000	64.208197 
4558.000000	64.170646 
4557.000000	64.116740 
4556.000000	64.046144 
4555.000000	63.960528 
4554.000000	63.864016 
4553.000000	63.763141 
4552.000000	63.666367 
4551.000000	63.582921 
4550.000000	63.521504 
4549.000000	63.488554 
4548.000000	63.486766 
4547.000000	63.514351 
4546.000000	63.564610 
4545.000000	63.627266 
4544.000000	63.690209 
4543.000000	63.742256 
4542.000000	63.774275 
4541.000000	63.781714 
4540.000000	63.765263 
4539.000000	63.730454 
4538.000000	63.685584 
4537.000000	63.640189 
4536.000000	63.602828 
4535.000000	63.579130 
4534.000000	63.571476 
4533.000000	63.578104 
4532.000000	63.594675 
4531.000000	63.615226 
4530.000000	63.634371 
4529.000000	63.648343 
4528.000000	63.655877 
4527.000000	63.658094 
4526.000000	63.657641 
4525.000000	63.657569 
4524.000000	63.659882 
4523.000000	63.665199 
4522.000000	63.672351 
4521.000000	63.678812 
4520.000000	63.681435 
4519.000000	63.677859 
4518.000000	63.666772 
4517.000000	63.648128 
4516.000000	63.623189 
4515.000000	63.593959 
4514.000000	63.563561 
4513.000000	63.534593 
4512.000000	63.510417 
4511.000000	63.494014 
4510.000000	63.488650 
4509.000000	63.496971 
4508.000000	63.520717 
4507.000000	63.560342 
4506.000000	63.613891 
4505.000000	63.676738 
4504.000000	63.741970 
4503.000000	63.801527 
4502.000000	63.847589 
4501.000000	63.873982 
4500.000000	63.877701 
4499.000000	63.859629 
4498.000000	63.823866 
4497.000000	63.776826 
4496.000000	63.725304 
4495.000000	63.675117 
4494.000000	63.629817 
4493.000000	63.591027 
4492.000000	63.559007 
4491.000000	63.534045 
4490.000000	63.516521 
4489.000000	63.508486 
4488.000000	63.513755 
4487.000000	63.537359 
4486.000000	63.583397 
4485.000000	63.654184 
4484.000000	63.748121 
4483.000000	63.859987 
4482.000000	63.980650 
4481.000000	64.099454 
4480.000000	64.206099 
4479.000000	64.292931 
4478.000000	64.356708 
4477.000000	64.398264 
4476.000000	64.421010 
4475.000000	64.431238 
4474.000000	64.438223 
4473.000000	64.446640 
4472.000000	64.454555 
4471.000000	64.458155 
4470.000000	64.454650 
4469.000000	64.438915 
4468.000000	64.406943 
4467.000000	64.363527 
4466.000000	64.321970 
4465.000000	64.300107 
4464.000000	64.315986 
4463.000000	64.383602 
4462.000000	64.507675 
4461.000000	64.679527 
4460.000000	64.879441 
4459.000000	65.080380 
4458.000000	65.255498 
4457.000000	65.384507 
4456.000000	65.458655 
4455.000000	65.485167 
4454.000000	65.479326 
4453.000000	65.466547 
4452.000000	65.459895 
4451.000000	65.458703 
4450.000000	65.435409 
4449.000000	65.350031 
4448.000000	65.141558 
4447.000000	64.747714 
4446.000000	64.116358 
4445.000000	63.226485 
4444.000000	62.087774 
4443.000000	60.746073 
4442.000000	59.280061 
4441.000000	57.791996 
4440.000000	56.390833 
4439.000000	55.177402 
4438.000000	54.229831 
4437.000000	53.593683 
4436.000000	53.275012 
4435.000000	53.244566 
4434.000000	53.437256 
4433.000000	53.773975 
4432.000000	54.163074 
4431.000000	54.533743 
4430.000000	54.825615 
4429.000000	55.023550 
4428.000000	55.140781 
4427.000000	55.230998 
4426.000000	55.360293 
4425.000000	55.601239 
4424.000000	56.006479 
4423.000000	56.601500 
4422.000000	57.374644 
4421.000000	58.283996 
4420.000000	59.266638 
4419.000000	60.255670 
4418.000000	61.195588 
4417.000000	62.046217 
4416.000000	62.785625 
4415.000000	63.409233 
4414.000000	63.923048 
4413.000000	64.334058 
4412.000000	64.643669 
4411.000000	64.855933 
4410.000000	64.972496 
4409.000000	64.996337 
4408.000000	64.931249 
4407.000000	64.796686 
4406.000000	64.617252 
4405.000000	64.422011 
4404.000000	64.236879 
4403.000000	64.083361 
4402.000000	63.973498 
4401.000000	63.911724 
4400.000000	63.894128 
4399.000000	63.910722 
4398.000000	63.950014 
4397.000000	64.003491 
4396.000000	64.065504 
4395.000000	64.130163 
4394.000000	64.196395 
4393.000000	64.265704 
4392.000000	64.340519 
4391.000000	64.420890 
4390.000000	64.506840 
4389.000000	64.597702 
4388.000000	64.688467 
4387.000000	64.770293 
4386.000000	64.836359 
4385.000000	64.882445 
4384.000000	64.905190 
4383.000000	64.903044 
4382.000000	64.878606 
4381.000000	64.836978 
4380.000000	64.783716 
4379.000000	64.724445 
4378.000000	64.665246 
4377.000000	64.610791 
4376.000000	64.565110 
4375.000000	64.529776 
4374.000000	64.504647 
4373.000000	64.487338 
4372.000000	64.474534 
4371.000000	64.462041 
4370.000000	64.445424 
4369.000000	64.421415 
4368.000000	64.388322 
4367.000000	64.346957 
4366.000000	64.300251 
4365.000000	64.252996 
4364.000000	64.210367 
4363.000000	64.177608 
4362.000000	64.158868 
4361.000000	64.156126 
4360.000000	64.168620 
4359.000000	64.193558 
4358.000000	64.226317 
4357.000000	64.261007 
4356.000000	64.291357 
4355.000000	64.311599 
4354.000000	64.317250 
4353.000000	64.305448 
4352.000000	64.275646 
4351.000000	64.229798 
4350.000000	64.172148 
4349.000000	64.108800 
4348.000000	64.046239 
4347.000000	63.990497 
4346.000000	63.946032 
4345.000000	63.915014 
4344.000000	63.897657 
4343.000000	63.892602 
4342.000000	63.897562 
4341.000000	63.909840 
4340.000000	63.927102 
4339.000000	63.947343 
4338.000000	63.968777 
4337.000000	63.989591 
4336.000000	64.007711 
4335.000000	64.020681 
4334.000000	64.026570 
4333.000000	64.024305 
4332.000000	64.014387 
4331.000000	63.998770 
4330.000000	63.981294 
4329.000000	63.966417 
4328.000000	63.958191 
4327.000000	63.958954 
4326.000000	63.968729 
4325.000000	63.984584 
4324.000000	64.002251 
4323.000000	64.016199 
4322.000000	64.021778 
4321.000000	64.015126 
4320.000000	63.994479 
4319.000000	63.959336 
4318.000000	63.910937 
4317.000000	63.851308 
4316.000000	63.782715 
4315.000000	63.707876 
4314.000000	63.629913 
4313.000000	63.553047 
4312.000000	63.482189 
4311.000000	63.423180 
4310.000000	63.381886 
4309.000000	63.363122 
4308.000000	63.369560 
4307.000000	63.400506 
4306.000000	63.451743 
4305.000000	63.515901 
4304.000000	63.583588 
4303.000000	63.644981 
4302.000000	63.691687 
4301.000000	63.717722 
4300.000000	63.721060 
4299.000000	63.703155 
4298.000000	63.668942 
4297.000000	63.625502 
4296.000000	63.580584 
4295.000000	63.541746 
4294.000000	63.513994 
4293.000000	63.500022 
4292.000000	63.498830 
4291.000000	63.507032 
4290.000000	63.519310 
4289.000000	63.529896 
4288.000000	63.534092 
4287.000000	63.529133 
4286.000000	63.515067 
4285.000000	63.494300 
4284.000000	63.471579 
4283.000000	63.452506 
4282.000000	63.442325 
4281.000000	63.444447 
4280.000000	63.459897 
4279.000000	63.486933 
4278.000000	63.521599 
4277.000000	63.558626 
4276.000000	63.592410 
4275.000000	63.618230 
4274.000000	63.633155 
4273.000000	63.636612 
4272.000000	63.629746 
4271.000000	63.615226 
4270.000000	63.596630 
4269.000000	63.577222 
4268.000000	63.559651 
4267.000000	63.544917 
4266.000000	63.532519 
4265.000000	63.520765 
4264.000000	63.507723 
4263.000000	63.491654 
4262.000000	63.471722 
4261.000000	63.448500 
4260.000000	63.423919 
4259.000000	63.400816 
4258.000000	63.382005 
4257.000000	63.369297 
4256.000000	63.362860 
4255.000000	63.360810 
4254.000000	63.359785 
4253.000000	63.355445 
4252.000000	63.343739 
4251.000000	63.322114 
4250.000000	63.290214 
4249.000000	63.250303 
4248.000000	63.206815 
4247.000000	63.165283 
4246.000000	63.131308 
4245.000000	63.108897 
4244.000000	63.100266 
4243.000000	63.105273 
4242.000000	63.122177 
4241.000000	63.147902 
4240.000000	63.179183 
4239.000000	63.213038 
4238.000000	63.247299 
4237.000000	63.280391 
4236.000000	63.311505 
4235.000000	63.340020 
4234.000000	63.365364 
4233.000000	63.386678 
4232.000000	63.402915 
4231.000000	63.412952 
4230.000000	63.416075 
4229.000000	63.412475 
4228.000000	63.402748 
4227.000000	63.388347 
4226.000000	63.370919 
4225.000000	63.352346 
4224.000000	63.334083 
4223.000000	63.317131 
4222.000000	63.302040 
4221.000000	63.288998 
4220.000000	63.278293 
4219.000000	63.270497 
4218.000000	63.266468 
4217.000000	63.267302 
4216.000000	63.274145 
4215.000000	63.287329 
4214.000000	63.306498 
4213.000000	63.329315 
4212.000000	63.351845 
4211.000000	63.368988 
4210.000000	63.375401 
4209.000000	63.367033 
4208.000000	63.342118 
4207.000000	63.302278 
4206.000000	63.252377 
4205.000000	63.199710 
4204.000000	63.152384 
4203.000000	63.117551 
4202.000000	63.099884 
4201.000000	63.100647 
4200.000000	63.117408 
4199.000000	63.144850 
4198.000000	63.175845 
4197.000000	63.203287 
4196.000000	63.221454 
4195.000000	63.226914 
4194.000000	63.218832 
4193.000000	63.198614 
4192.000000	63.169288 
4191.000000	63.134455 
4190.000000	63.097667 
4189.000000	63.062071 
4188.000000	63.030147 
4187.000000	63.003587 
4186.000000	62.983679 
4185.000000	62.971329 
4184.000000	62.967538 
4183.000000	62.973022 
4182.000000	62.988901 
4181.000000	63.016152 
4180.000000	63.055729 
4179.000000	63.107705 
4178.000000	63.170647 
4177.000000	63.241124 
4176.000000	63.313484 
4175.000000	63.380646 
4174.000000	63.434600 
4173.000000	63.467860 
4172.000000	63.475275 
4171.000000	63.455176 
4170.000000	63.410162 
4169.000000	63.346338 
4168.000000	63.272690 
4167.000000	63.198804 
4166.000000	63.132905 
4165.000000	63.080096 
4164.000000	63.041734 
4163.000000	63.015651 
4162.000000	62.997508 
4161.000000	62.982535 
4160.000000	62.967324 
4159.000000	62.950968 
