PE IR       SPECTRUM    SPECTRUM    ASCII       PEDS        1.60        
  -1
BZ4C7B~1.ASC
17/04/07
22:29:52.00
17/04/07
22:29:52.00
tln
$BZ1503107-1_t0112$<tbV0>[10.4,13.0,8.0,0.0,27,1,0]
370.000000
64









2002,4.07    
MIRTGS : RIGHTBACK : INTERNAL 2
MIR : ON : INTERNAL 2
OPTKBR

0.200000
8
8.000000
FILLER
RATIO
SPECTRUM
UNLOCKED 256

DOUBLE
64
COMBINED
1
0
0


1.000000
RATIO


1
0
TRUE
51149
0
LEFT NOT FITTED RIGHT NOT FITTED 0
NONE
NONE
15600
12.000000
4.427000
51148
TRUE
1 0 8 72 0 0 0 0 

15798.010000






#HDR
-1
-1
#GR
CM-1
%T
0.00002384185791015625
0.0
5000.000000
-1.000000
4631
8
75.546407
51.207208
#DATA
5000.000000	65.094733 
4999.000000	64.938569 
4998.000000	64.791226 
4997.000000	64.669537 
4996.000000	64.585232 
4995.000000	64.544034 
4994.000000	64.544129 
4993.000000	64.575004 
4992.000000	64.623332 
4991.000000	64.675593 
4990.000000	64.723634 
4989.000000	64.765286 
4988.000000	64.805626 
4987.000000	64.854335 
4986.000000	64.919781 
4985.000000	65.004301 
4984.000000	65.103268 
4983.000000	65.204954 
4982.000000	65.293335 
4981.000000	65.352249 
4980.000000	65.371203 
4979.000000	65.348339 
4978.000000	65.291547 
4977.000000	65.216350 
4976.000000	65.141797 
4975.000000	65.085816 
4974.000000	65.059041 
4973.000000	65.064740 
4972.000000	65.099763 
4971.000000	65.156745 
4970.000000	65.228366 
4969.000000	65.308427 
4968.000000	65.392756 
4967.000000	65.479397 
4966.000000	65.567207 
4965.000000	65.654897 
4964.000000	65.739488 
4963.000000	65.816164 
4962.000000	65.879964 
4961.000000	65.923738 
4960.000000	65.940356 
4959.000000	65.922617 
4958.000000	65.865635 
4957.000000	65.767264 
4956.000000	65.629649 
4955.000000	65.459585 
4954.000000	65.268063 
4953.000000	65.068984 
4952.000000	64.876890 
4951.000000	64.704656 
4950.000000	64.561009 
4949.000000	64.449191 
4948.000000	64.367032 
4947.000000	64.306616 
4946.000000	64.259362 
4945.000000	64.217019 
4944.000000	64.176893 
4943.000000	64.140486 
4942.000000	64.115476 
4941.000000	64.111089 
4940.000000	64.137268 
4939.000000	64.198684 
4938.000000	64.295411 
4937.000000	64.421176 
4936.000000	64.565300 
4935.000000	64.714336 
4934.000000	64.855003 
4933.000000	64.976835 
4932.000000	65.073585 
4931.000000	65.143561 
4930.000000	65.189218 
4929.000000	65.215492 
4928.000000	65.228652 
4927.000000	65.234422 
4926.000000	65.237188 
4925.000000	65.238928 
4924.000000	65.240812 
4923.000000	65.242624 
4922.000000	65.242910 
4921.000000	65.239715 
4920.000000	65.231680 
4919.000000	65.218067 
4918.000000	65.198850 
4917.000000	65.174889 
4916.000000	65.148544 
4915.000000	65.122723 
4914.000000	65.100121 
4913.000000	65.082788 
4912.000000	65.071630 
4911.000000	65.066790 
4910.000000	65.067863 
4909.000000	65.074110 
4908.000000	65.084719 
4907.000000	65.099000 
4906.000000	65.116429 
4905.000000	65.136146 
4904.000000	65.156602 
4903.000000	65.175867 
4902.000000	65.191864 
4901.000000	65.202307 
4900.000000	65.205001 
4899.000000	65.198254 
4898.000000	65.181088 
4897.000000	65.153455 
4896.000000	65.116214 
4895.000000	65.070962 
4894.000000	65.020394 
4893.000000	64.967846 
4892.000000	64.917612 
4891.000000	64.874315 
4890.000000	64.842414 
4889.000000	64.825749 
4888.000000	64.826321 
4887.000000	64.843702 
4886.000000	64.874696 
4885.000000	64.913201 
4884.000000	64.951872 
4883.000000	64.982676 
4882.000000	64.999628 
4881.000000	64.999723 
4880.000000	64.984178 
4879.000000	64.957737 
4878.000000	64.928269 
4877.000000	64.904403 
4876.000000	64.893794 
4875.000000	64.901065 
4874.000000	64.926743 
4873.000000	64.967131 
4872.000000	65.015101 
4871.000000	65.062189 
4870.000000	65.100407 
4869.000000	65.124344 
4868.000000	65.132546 
4867.000000	65.127372 
4866.000000	65.114355 
4865.000000	65.099811 
4864.000000	65.088796 
4863.000000	65.083599 
4862.000000	65.083479 
4861.000000	65.085172 
4860.000000	65.084576 
4859.000000	65.078473 
4858.000000	65.066313 
4857.000000	65.050578 
4856.000000	65.036416 
4855.000000	65.029978 
4854.000000	65.036225 
4853.000000	65.057826 
4852.000000	65.094089 
4851.000000	65.140819 
4850.000000	65.191245 
4849.000000	65.237593 
4848.000000	65.273141 
4847.000000	65.293145 
4846.000000	65.295886 
4845.000000	65.282297 
4844.000000	65.255689 
4843.000000	65.220332 
4842.000000	65.180897 
4841.000000	65.142059 
4840.000000	65.107488 
4839.000000	65.080475 
4838.000000	65.062689 
4837.000000	65.054559 
4836.000000	65.054774 
4835.000000	65.060448 
4834.000000	65.067434 
4833.000000	65.071153 
4832.000000	65.067386 
4831.000000	65.053129 
4830.000000	65.027117 
4829.000000	64.989686 
4828.000000	64.943075 
4827.000000	64.890480 
4826.000000	64.836001 
4825.000000	64.783668 
4824.000000	64.737081 
4823.000000	64.698934 
4822.000000	64.670705 
4821.000000	64.652514 
4820.000000	64.643120 
4819.000000	64.640164 
4818.000000	64.640903 
4817.000000	64.643025 
4816.000000	64.644265 
4815.000000	64.643597 
4814.000000	64.641237 
4813.000000	64.639019 
4812.000000	64.639282 
4811.000000	64.644575 
4810.000000	64.656734 
4809.000000	64.676165 
4808.000000	64.701437 
4807.000000	64.729785 
4806.000000	64.757347 
4805.000000	64.780211 
4804.000000	64.795565 
4803.000000	64.802169 
4802.000000	64.800763 
4801.000000	64.793801 
4800.000000	64.784765 
4799.000000	64.777088 
4798.000000	64.773130 
4797.000000	64.773797 
4796.000000	64.778447 
4795.000000	64.784646 
4794.000000	64.788818 
4793.000000	64.787578 
4792.000000	64.778518 
4791.000000	64.760589 
4790.000000	64.734244 
4789.000000	64.701461 
4788.000000	64.665007 
4787.000000	64.627122 
4786.000000	64.589309 
4785.000000	64.552068 
4784.000000	64.515280 
4783.000000	64.478707 
4782.000000	64.442586 
4781.000000	64.407730 
4780.000000	64.375782 
4779.000000	64.348506 
4778.000000	64.327740 
4777.000000	64.313721 
4776.000000	64.306449 
4775.000000	64.305067 
4774.000000	64.309191 
4773.000000	64.318466 
4772.000000	64.333629 
4771.000000	64.356088 
4770.000000	64.387440 
4769.000000	64.428353 
4768.000000	64.477801 
4767.000000	64.532756 
4766.000000	64.588570 
4765.000000	64.640235 
4764.000000	64.683985 
4763.000000	64.718484 
4762.000000	64.745950 
4761.000000	64.770889 
4760.000000	64.798951 
4759.000000	64.834332 
4758.000000	64.878654 
4757.000000	64.929223 
4756.000000	64.979529 
4755.000000	65.020155 
4754.000000	65.042400 
4753.000000	65.039157 
4752.000000	65.007638 
4751.000000	64.949417 
4750.000000	64.871001 
4749.000000	64.781975 
4748.000000	64.692807 
4747.000000	64.613294 
4746.000000	64.550542 
4745.000000	64.508628 
4744.000000	64.488601 
4743.000000	64.488983 
4742.000000	64.506816 
4741.000000	64.538216 
4740.000000	64.579200 
4739.000000	64.625549 
4738.000000	64.673376 
4737.000000	64.719295 
4736.000000	64.761185 
4735.000000	64.797711 
4734.000000	64.828801 
4733.000000	64.856171 
4732.000000	64.882516 
4731.000000	64.910531 
4730.000000	64.942193 
4729.000000	64.978361 
4728.000000	65.018033 
4727.000000	65.058302 
4726.000000	65.095043 
4725.000000	65.124607 
4724.000000	65.143871 
4723.000000	65.151786 
4722.000000	65.148663 
4721.000000	65.136551 
4720.000000	65.118217 
4719.000000	65.096592 
4718.000000	65.074563 
4717.000000	65.054583 
4716.000000	65.038919 
4715.000000	65.029835 
4714.000000	65.029025 
4713.000000	65.037512 
4712.000000	65.055251 
4711.000000	65.081000 
4710.000000	65.111684 
4709.000000	65.142798 
4708.000000	65.168976 
4707.000000	65.184783 
4706.000000	65.186047 
4705.000000	65.170121 
4704.000000	65.136814 
4703.000000	65.087532 
4702.000000	65.025401 
4701.000000	64.954113 
4700.000000	64.877343 
4699.000000	64.798879 
4698.000000	64.722776 
4697.000000	64.653038 
4696.000000	64.593887 
4695.000000	64.548850 
4694.000000	64.520168 
4693.000000	64.507985 
4692.000000	64.509582 
4691.000000	64.520835 
4690.000000	64.536380 
4689.000000	64.551687 
4688.000000	64.563536 
4687.000000	64.571571 
4686.000000	64.578104 
4685.000000	64.587759 
4684.000000	64.605689 
4683.000000	64.635872 
4682.000000	64.679718 
4681.000000	64.735627 
4680.000000	64.798688 
4679.000000	64.861965 
4678.000000	64.917588 
4677.000000	64.959144 
4676.000000	64.982628 
4675.000000	64.987015 
4674.000000	64.974474 
4673.000000	64.949655 
4672.000000	64.918565 
4671.000000	64.887380 
4670.000000	64.860844 
4669.000000	64.842700 
4668.000000	64.833879 
4667.000000	64.832925 
4666.000000	64.836025 
4665.000000	64.838480 
4664.000000	64.835333 
4663.000000	64.822721 
4662.000000	64.799094 
4661.000000	64.765620 
4660.000000	64.726948 
4659.000000	64.690351 
4658.000000	64.664292 
4657.000000	64.656400 
4656.000000	64.672255 
4655.000000	64.713525 
4654.000000	64.777350 
4653.000000	64.856719 
4652.000000	64.941453 
4651.000000	65.020704 
4650.000000	65.084838 
4649.000000	65.127730 
4648.000000	65.147995 
4647.000000	65.148949 
4646.000000	65.137243 
4645.000000	65.120983 
4644.000000	65.107727 
4643.000000	65.102601 
4642.000000	65.107321 
4641.000000	65.120196 
4640.000000	65.137529 
4639.000000	65.154409 
4638.000000	65.167021 
4637.000000	65.172243 
4636.000000	65.168666 
4635.000000	65.155601 
4634.000000	65.133261 
4633.000000	65.102005 
4632.000000	65.062284 
4631.000000	65.015316 
4630.000000	64.963555 
4629.000000	64.911198 
4628.000000	64.863967 
4627.000000	64.828515 
4626.000000	64.811134 
4625.000000	64.816069 
4624.000000	64.844346 
4623.000000	64.892768 
4622.000000	64.954566 
4621.000000	65.020608 
4620.000000	65.081381 
4619.000000	65.128326 
4618.000000	65.155768 
4617.000000	65.161919 
4616.000000	65.148520 
4615.000000	65.119194 
4614.000000	65.079212 
4613.000000	65.033960 
4612.000000	64.988422 
4611.000000	64.946675 
4610.000000	64.912009 
4609.000000	64.887189 
4608.000000	64.874720 
4607.000000	64.876866 
4606.000000	64.894890 
4605.000000	64.928555 
4604.000000	64.975666 
4603.000000	65.032148 
4602.000000	65.092158 
4601.000000	65.149021 
4600.000000	65.197038 
4599.000000	65.232348 
4598.000000	65.254020 
4597.000000	65.263628 
4596.000000	65.265369 
4595.000000	65.263438 
4594.000000	65.260791 
4593.000000	65.256977 
4592.000000	65.249252 
4591.000000	65.231990 
4590.000000	65.199184 
4589.000000	65.145683 
4588.000000	65.069723 
4587.000000	64.973711 
4586.000000	64.864444 
4585.000000	64.752268 
4584.000000	64.648699 
4583.000000	64.565253 
4582.000000	64.510893 
4581.000000	64.491486 
4580.000000	64.508485 
4579.000000	64.559483 
4578.000000	64.638471 
4577.000000	64.736819 
4576.000000	64.844489 
4575.000000	64.951133 
4574.000000	65.047574 
4573.000000	65.126085 
4572.000000	65.182161 
4571.000000	65.214705 
4570.000000	65.226602 
4569.000000	65.224075 
4568.000000	65.214872 
4567.000000	65.207982 
4566.000000	65.210199 
4565.000000	65.225839 
4564.000000	65.254545 
4563.000000	65.292406 
4562.000000	65.332198 
4561.000000	65.366077 
4560.000000	65.387177 
4559.000000	65.391421 
4558.000000	65.378904 
4557.000000	65.353846 
4556.000000	65.323305 
4555.000000	65.295219 
4554.000000	65.276789 
4553.000000	65.272545 
4552.000000	65.283012 
4551.000000	65.304827 
4550.000000	65.332221 
4549.000000	65.358710 
4548.000000	65.378808 
4547.000000	65.389323 
4546.000000	65.389776 
4545.000000	65.381908 
4544.000000	65.368938 
4543.000000	65.353989 
4542.000000	65.338873 
4541.000000	65.323543 
4540.000000	65.307116 
4539.000000	65.287852 
4538.000000	65.264296 
4537.000000	65.236115 
4536.000000	65.204906 
4535.000000	65.173697 
4534.000000	65.146040 
4533.000000	65.125441 
4532.000000	65.113830 
4531.000000	65.112113 
4530.000000	65.119457 
4529.000000	65.135073 
4528.000000	65.158367 
4527.000000	65.189361 
4526.000000	65.228486 
4525.000000	65.275788 
4524.000000	65.330171 
4523.000000	65.388536 
4522.000000	65.446043 
4521.000000	65.497708 
4520.000000	65.539312 
4519.000000	65.569210 
4518.000000	65.587997 
4517.000000	65.598297 
4516.000000	65.602779 
4515.000000	65.603590 
4514.000000	65.600562 
4513.000000	65.590715 
4512.000000	65.569448 
4511.000000	65.532875 
4510.000000	65.479683 
4509.000000	65.412378 
4508.000000	65.338182 
4507.000000	65.268015 
4506.000000	65.214085 
4505.000000	65.186977 
4504.000000	65.192294 
4503.000000	65.229082 
4502.000000	65.288877 
4501.000000	65.357398 
4500.000000	65.417885 
4499.000000	65.455031 
4498.000000	65.458297 
4497.000000	65.424132 
4496.000000	65.356540 
4495.000000	65.265965 
4494.000000	65.166592 
4493.000000	65.073823 
4492.000000	65.000844 
4491.000000	64.957523 
4490.000000	64.949440 
4489.000000	64.978122 
4488.000000	65.041899 
4487.000000	65.135931 
4486.000000	65.253925 
4485.000000	65.387082 
4484.000000	65.523838 
4483.000000	65.651059 
4482.000000	65.755772 
4481.000000	65.826749 
4480.000000	65.854573 
4479.000000	65.836644 
4478.000000	65.779089 
4477.000000	65.695452 
4476.000000	65.603971 
4475.000000	65.524697 
4474.000000	65.476679 
4473.000000	65.469741 
4472.000000	65.500926 
4471.000000	65.563130 
4470.000000	65.648269 
4469.000000	65.743231 
4468.000000	65.833568 
4467.000000	65.908789 
4466.000000	65.963435 
4465.000000	66.000437 
4464.000000	66.027879 
4463.000000	66.048288 
4462.000000	66.058611 
4461.000000	66.064310 
4460.000000	66.066050 
4459.000000	66.055083 
4458.000000	66.013836 
4457.000000	65.925288 
4456.000000	65.771603 
4455.000000	65.540266 
4454.000000	65.227723 
4453.000000	64.842653 
4452.000000	64.405512 
4451.000000	63.954973 
4450.000000	63.523197 
4449.000000	63.138866 
4448.000000	62.791156 
4447.000000	62.435698 
4446.000000	61.983609 
4445.000000	61.326575 
4444.000000	60.364079 
4443.000000	59.044098 
4442.000000	57.392024 
4441.000000	55.534267 
4440.000000	53.691434 
4439.000000	52.158045 
4438.000000	51.240873 
4437.000000	51.207208 
4436.000000	52.230930 
4435.000000	54.342460 
4434.000000	57.414412 
4433.000000	61.160373 
4432.000000	65.177178 
4431.000000	69.007301 
4430.000000	72.211432 
4429.000000	74.452447 
4428.000000	75.546407 
4427.000000	75.491714 
4426.000000	74.464035 
4425.000000	72.756671 
4424.000000	70.718741 
4423.000000	68.675160 
4422.000000	66.887068 
4421.000000	65.500617 
4420.000000	64.562749 
4419.000000	64.029836 
4418.000000	63.822126 
4417.000000	63.836288 
4416.000000	63.984704 
4415.000000	64.199113 
4414.000000	64.440464 
4413.000000	64.687085 
4412.000000	64.930701 
4411.000000	65.162849 
4410.000000	65.373611 
4409.000000	65.548157 
4408.000000	65.670895 
4407.000000	65.734291 
4406.000000	65.737605 
4405.000000	65.691065 
4404.000000	65.610861 
4403.000000	65.511989 
4402.000000	65.409255 
4401.000000	65.322732 
4400.000000	65.267038 
4399.000000	65.244603 
4398.000000	65.252566 
4397.000000	65.291261 
4396.000000	65.355134 
4395.000000	65.432429 
4394.000000	65.509390 
4393.000000	65.570449 
4392.000000	65.606760 
4391.000000	65.619492 
4390.000000	65.612530 
4389.000000	65.590167 
4388.000000	65.561103 
4387.000000	65.535640 
4386.000000	65.522122 
4385.000000	65.525412 
4384.000000	65.546441 
4383.000000	65.581822 
4382.000000	65.626430 
4381.000000	65.673422 
4380.000000	65.715575 
4379.000000	65.746283 
4378.000000	65.761089 
4377.000000	65.758204 
4376.000000	65.737509 
4375.000000	65.701746 
4374.000000	65.656447 
4373.000000	65.608453 
4372.000000	65.565967 
4371.000000	65.534996 
4370.000000	65.518832 
4369.000000	65.516400 
4368.000000	65.523052 
4367.000000	65.531468 
4366.000000	65.533995 
4365.000000	65.524506 
4364.000000	65.500378 
4363.000000	65.462756 
4362.000000	65.416288 
4361.000000	65.367078 
4360.000000	65.320992 
4359.000000	65.282440 
4358.000000	65.253424 
4357.000000	65.233683 
4356.000000	65.220928 
4355.000000	65.211725 
4354.000000	65.202784 
4353.000000	65.191960 
4352.000000	65.178704 
4351.000000	65.163612 
4350.000000	65.148401 
4349.000000	65.134549 
4348.000000	65.123271 
4347.000000	65.114569 
4346.000000	65.107846 
4345.000000	65.101933 
4344.000000	65.095973 
4343.000000	65.089774 
4342.000000	65.083909 
4341.000000	65.079593 
4340.000000	65.078139 
4339.000000	65.080451 
4338.000000	65.086293 
4337.000000	65.094161 
4336.000000	65.101289 
4335.000000	65.104556 
4334.000000	65.101194 
4333.000000	65.090036 
4332.000000	65.072488 
4331.000000	65.052509 
4330.000000	65.036153 
4329.000000	65.029954 
4328.000000	65.038990 
4327.000000	65.065693 
4326.000000	65.108942 
4325.000000	65.164470 
4324.000000	65.226197 
4323.000000	65.287327 
4322.000000	65.342521 
4321.000000	65.388035 
4320.000000	65.422487 
4319.000000	65.445613 
4318.000000	65.457892 
4317.000000	65.459084 
4316.000000	65.447926 
4315.000000	65.422463 
4314.000000	65.380883 
4313.000000	65.322685 
4312.000000	65.249872 
4311.000000	65.167117 
4310.000000	65.081667 
4309.000000	65.001487 
4308.000000	64.933753 
4307.000000	64.883399 
4306.000000	64.852428 
4305.000000	64.839982 
4304.000000	64.842987 
4303.000000	64.857530 
4302.000000	64.879465 
4301.000000	64.904856 
4300.000000	64.930391 
4299.000000	64.952540 
4298.000000	64.968156 
4297.000000	64.974260 
4296.000000	64.968848 
4295.000000	64.951109 
4294.000000	64.922118 
4293.000000	64.885020 
4292.000000	64.844226 
4291.000000	64.804887 
4290.000000	64.771461 
4289.000000	64.747071 
4288.000000	64.732718 
4287.000000	64.727139 
4286.000000	64.728164 
4285.000000	64.733433 
4284.000000	64.742040 
4283.000000	64.754676 
4282.000000	64.773440 
4281.000000	64.800977 
4280.000000	64.839172 
4279.000000	64.888000 
4278.000000	64.944815 
4277.000000	65.004372 
4276.000000	65.060138 
4275.000000	65.105319 
4274.000000	65.134525 
4273.000000	65.144896 
4272.000000	65.136885 
4271.000000	65.114021 
4270.000000	65.082335 
4269.000000	65.048646 
4268.000000	65.019631 
4267.000000	64.999866 
4266.000000	64.991331 
4265.000000	64.993095 
4264.000000	65.002226 
4263.000000	65.014410 
4262.000000	65.025377 
4261.000000	65.031719 
4260.000000	65.031766 
4259.000000	65.025734 
4258.000000	65.015244 
4257.000000	65.002751 
4256.000000	64.990448 
4255.000000	64.979338 
4254.000000	64.968919 
4253.000000	64.957046 
4252.000000	64.940500 
4251.000000	64.915847 
4250.000000	64.880657 
4249.000000	64.834284 
4248.000000	64.778685 
4247.000000	64.717817 
4246.000000	64.658045 
4245.000000	64.606165 
4244.000000	64.569258 
4243.000000	64.552903 
4242.000000	64.560866 
4241.000000	64.593911 
4240.000000	64.649891 
4239.000000	64.723849 
4238.000000	64.808487 
4237.000000	64.895367 
4236.000000	64.975786 
4235.000000	65.041685 
4234.000000	65.086793 
4233.000000	65.107536 
4232.000000	65.103387 
4231.000000	65.076875 
4230.000000	65.033078 
4229.000000	64.978837 
4228.000000	64.921641 
4227.000000	64.868807 
4226.000000	64.826297 
4225.000000	64.798355 
4224.000000	64.787387 
4223.000000	64.794039 
4222.000000	64.817428 
4221.000000	64.855623 
4220.000000	64.905667 
4219.000000	64.964151 
4218.000000	65.026783 
4217.000000	65.089154 
4216.000000	65.146636 
4215.000000	65.195298 
4214.000000	65.232157 
4213.000000	65.255641 
4212.000000	65.266156 
4211.000000	65.265488 
4210.000000	65.257072 
4209.000000	65.244317 
4208.000000	65.230703 
4207.000000	65.218162 
4206.000000	65.207171 
4205.000000	65.196299 
4204.000000	65.183401 
4203.000000	65.165901 
4202.000000	65.142154 
4201.000000	65.111541 
4200.000000	65.075135 
4199.000000	65.035343 
4198.000000	64.995479 
4197.000000	64.958763 
4196.000000	64.927649 
4195.000000	64.903378 
4194.000000	64.885950 
4193.000000	64.874339 
4192.000000	64.867067 
4191.000000	64.862489 
4190.000000	64.859175 
4189.000000	64.856171 
4188.000000	64.852738 
4187.000000	64.847898 
4186.000000	64.840602 
4185.000000	64.829635 
4184.000000	64.814066 
4183.000000	64.792871 
4182.000000	64.766216 
4181.000000	64.735460 
4180.000000	64.703631 
4179.000000	64.674711 
4178.000000	64.653682 
4177.000000	64.645457 
4176.000000	64.654135 
4175.000000	64.681768 
4174.000000	64.727640 
4173.000000	64.788079 
4172.000000	64.856624 
4171.000000	64.924788 
4170.000000	64.983510 
4169.000000	65.024709 
4168.000000	65.042853 
4167.000000	65.036201 
4166.000000	65.006899 
4165.000000	64.960837 
4164.000000	64.906907 
4163.000000	64.854621 
4162.000000	64.812493 
4161.000000	64.785861 
4160.000000	64.776897 
4159.000000	64.783453 
