PE IR       SPECTRUM    SPECTRUM    ASCII       PEDS        1.60        
  -1
BZ60B6~1.ASC
17/04/07
19:39:28.00
17/04/07
19:39:28.00
tln
$BZ1503107-1_t0078$<tbV0>[13.0,5.2,8.0,0.0,27,1,0]
370.000000
64









2002,4.07    
MIRTGS : RIGHTBACK : INTERNAL 2
MIR : ON : INTERNAL 2
OPTKBR

0.200000
8
8.000000
FILLER
RATIO
SPECTRUM
UNLOCKED 256

DOUBLE
64
COMBINED
1
0
0


1.000000
RATIO


1
0
TRUE
51149
0
LEFT NOT FITTED RIGHT NOT FITTED 0
NONE
NONE
15600
12.000000
4.427000
51148
TRUE
1 0 8 72 0 0 0 0 

15798.010000






#HDR
-1
-1
#GR
CM-1
%T
0.00002384185791015625
0.0
5000.000000
-1.000000
4631
8
80.474209
57.044577
#DATA
5000.000000	61.636042 
4999.000000	61.801171 
4998.000000	61.900019 
4997.000000	61.901330 
4996.000000	61.789417 
4995.000000	61.566734 
4994.000000	61.254072 
4993.000000	60.885119 
4992.000000	60.500979 
4991.000000	60.141921 
4990.000000	59.841060 
4989.000000	59.620118 
4988.000000	59.486365 
4987.000000	59.434151 
4986.000000	59.447240 
4985.000000	59.504199 
4984.000000	59.581708 
4983.000000	59.658861 
4982.000000	59.718871 
4981.000000	59.750604 
4980.000000	59.747600 
4979.000000	59.708356 
4978.000000	59.634447 
4977.000000	59.531140 
4976.000000	59.406733 
4975.000000	59.272670 
4974.000000	59.143304 
4973.000000	59.034109 
4972.000000	58.959150 
4971.000000	58.929109 
4970.000000	58.948445 
4969.000000	59.015679 
4968.000000	59.123539 
4967.000000	59.260511 
4966.000000	59.411668 
4965.000000	59.562540 
4964.000000	59.699964 
4963.000000	59.815573 
4962.000000	59.905481 
4961.000000	59.971523 
4960.000000	60.018706 
4959.000000	60.055732 
4958.000000	60.092830 
4957.000000	60.137963 
4956.000000	60.194540 
4955.000000	60.261535 
4954.000000	60.333418 
4953.000000	60.401034 
4952.000000	60.453796 
4951.000000	60.482931 
4950.000000	60.482931 
4949.000000	60.453748 
4948.000000	60.399675 
4947.000000	60.328817 
4946.000000	60.249876 
4945.000000	60.170078 
4944.000000	60.093069 
4943.000000	60.019254 
4942.000000	59.946370 
4941.000000	59.871673 
4940.000000	59.793877 
4939.000000	59.715294 
4938.000000	59.641313 
4937.000000	59.579205 
4936.000000	59.535908 
4935.000000	59.515070 
4934.000000	59.516763 
4933.000000	59.536719 
4932.000000	59.568214 
4931.000000	59.603047 
4930.000000	59.635925 
4929.000000	59.665489 
4928.000000	59.694838 
4927.000000	59.730005 
4926.000000	59.777307 
4925.000000	59.840154 
4924.000000	59.917068 
4923.000000	60.000753 
4922.000000	60.079979 
4921.000000	60.141706 
4920.000000	60.175228 
4919.000000	60.174751 
4918.000000	60.140919 
4917.000000	60.081100 
4916.000000	60.007619 
4915.000000	59.935092 
4914.000000	59.876346 
4913.000000	59.840726 
4912.000000	59.832811 
4911.000000	59.851551 
4910.000000	59.891629 
4909.000000	59.944939 
4908.000000	60.003161 
4907.000000	60.059046 
4906.000000	60.107612 
4905.000000	60.146570 
4904.000000	60.175919 
4903.000000	60.198116 
4902.000000	60.216832 
4901.000000	60.236454 
4900.000000	60.260581 
4899.000000	60.290932 
4898.000000	60.326695 
4897.000000	60.364580 
4896.000000	60.399699 
4895.000000	60.427165 
4894.000000	60.443806 
4893.000000	60.448932 
4892.000000	60.445189 
4891.000000	60.438346 
4890.000000	60.435700 
4889.000000	60.444068 
4888.000000	60.468006 
4887.000000	60.508799 
4886.000000	60.563230 
4885.000000	60.625243 
4884.000000	60.685825 
4883.000000	60.735630 
4882.000000	60.766386 
4881.000000	60.773229 
4880.000000	60.754799 
4879.000000	60.713219 
4878.000000	60.653924 
4877.000000	60.584306 
4876.000000	60.513710 
4875.000000	60.451841 
4874.000000	60.407757 
4873.000000	60.388183 
4872.000000	60.396218 
4871.000000	60.430192 
4870.000000	60.483646 
4869.000000	60.546278 
4868.000000	60.605573 
4867.000000	60.649681 
4866.000000	60.669207 
4865.000000	60.660028 
4864.000000	60.623502 
4863.000000	60.566687 
4862.000000	60.500097 
4861.000000	60.436010 
4860.000000	60.386204 
4859.000000	60.359454 
4858.000000	60.360026 
4857.000000	60.387015 
4856.000000	60.435581 
4855.000000	60.497760 
4854.000000	60.564231 
4853.000000	60.626339 
4852.000000	60.677552 
4851.000000	60.714459 
4850.000000	60.736489 
4849.000000	60.746431 
4848.000000	60.749220 
4847.000000	60.751390 
4846.000000	60.759234 
4845.000000	60.777282 
4844.000000	60.807275 
4843.000000	60.848188 
4842.000000	60.896182 
4841.000000	60.945963 
4840.000000	60.991311 
4839.000000	61.026906 
4838.000000	61.048340 
4837.000000	61.053323 
4836.000000	61.041021 
4835.000000	61.012196 
4834.000000	60.968422 
4833.000000	60.912466 
4832.000000	60.847353 
4831.000000	60.776758 
4830.000000	60.704183 
4829.000000	60.633277 
4828.000000	60.567331 
4827.000000	60.509061 
4826.000000	60.460662 
4825.000000	60.423445 
4824.000000	60.398268 
4823.000000	60.385417 
4822.000000	60.385322 
4821.000000	60.398006 
4820.000000	60.423302 
4819.000000	60.459733 
4818.000000	60.503911 
4817.000000	60.550570 
4816.000000	60.592436 
4815.000000	60.621833 
4814.000000	60.632252 
4813.000000	60.620164 
4812.000000	60.586357 
4811.000000	60.535645 
4810.000000	60.476350 
4809.000000	60.417580 
4808.000000	60.367441 
4807.000000	60.330414 
4806.000000	60.306692 
4805.000000	60.291934 
4804.000000	60.279250 
4803.000000	60.261583 
4802.000000	60.233688 
4801.000000	60.194993 
4800.000000	60.149765 
4799.000000	60.106873 
4798.000000	60.076951 
4797.000000	60.070252 
4796.000000	60.093283 
4795.000000	60.147428 
4794.000000	60.227966 
4793.000000	60.325169 
4792.000000	60.426330 
4791.000000	60.518503 
4790.000000	60.591125 
4789.000000	60.637474 
4788.000000	60.656046 
4787.000000	60.650277 
4786.000000	60.627484 
4785.000000	60.596704 
4784.000000	60.566449 
4783.000000	60.543584 
4782.000000	60.531783 
4781.000000	60.532331 
4780.000000	60.543870 
4779.000000	60.563993 
4778.000000	60.589790 
4777.000000	60.619330 
4776.000000	60.651183 
4775.000000	60.683917 
4774.000000	60.716080 
4773.000000	60.745644 
4772.000000	60.770130 
4771.000000	60.786700 
4770.000000	60.792922 
4769.000000	60.787367 
4768.000000	60.769748 
4767.000000	60.741353 
4766.000000	60.704541 
4765.000000	60.661935 
4764.000000	60.615372 
4763.000000	60.565400 
4762.000000	60.511326 
4761.000000	60.452246 
4760.000000	60.388064 
4759.000000	60.320782 
4758.000000	60.254406 
4757.000000	60.195422 
4756.000000	60.151028 
4755.000000	60.128498 
4754.000000	60.132384 
4753.000000	60.164165 
4752.000000	60.221290 
4751.000000	60.297584 
4750.000000	60.384488 
4749.000000	60.472130 
4748.000000	60.551357 
4747.000000	60.614299 
4746.000000	60.655331 
4745.000000	60.671591 
4744.000000	60.663008 
4743.000000	60.632181 
4742.000000	60.583758 
4741.000000	60.524821 
4740.000000	60.463857 
4739.000000	60.410237 
4738.000000	60.372853 
4737.000000	60.358691 
4736.000000	60.371470 
4735.000000	60.410761 
4734.000000	60.472154 
4733.000000	60.547542 
4732.000000	60.627388 
4731.000000	60.702347 
4730.000000	60.765457 
4729.000000	60.813093 
4728.000000	60.845017 
4727.000000	60.864305 
4726.000000	60.874891 
4725.000000	60.880231 
4724.000000	60.881471 
4723.000000	60.877537 
4722.000000	60.864973 
4721.000000	60.840296 
4720.000000	60.800576 
4719.000000	60.745787 
4718.000000	60.678553 
4717.000000	60.604739 
4716.000000	60.531401 
4715.000000	60.465264 
4714.000000	60.411405 
4713.000000	60.372257 
4712.000000	60.347390 
4711.000000	60.334181 
4710.000000	60.328555 
4709.000000	60.326504 
4708.000000	60.325002 
4707.000000	60.322833 
4706.000000	60.320019 
4705.000000	60.317969 
4704.000000	60.317945 
4703.000000	60.320901 
4702.000000	60.327196 
4701.000000	60.336089 
4700.000000	60.346293 
4699.000000	60.355758 
4698.000000	60.362315 
4697.000000	60.363674 
4696.000000	60.357880 
4695.000000	60.343766 
4694.000000	60.321068 
4693.000000	60.290956 
4692.000000	60.255575 
4691.000000	60.218286 
4690.000000	60.183024 
4689.000000	60.153841 
4688.000000	60.134339 
4687.000000	60.127758 
4686.000000	60.136222 
4685.000000	60.160684 
4684.000000	60.200500 
4683.000000	60.252976 
4682.000000	60.313606 
4681.000000	60.376334 
4680.000000	60.434842 
4679.000000	60.483098 
4678.000000	60.517287 
4677.000000	60.536098 
4676.000000	60.541510 
4675.000000	60.538315 
4674.000000	60.532879 
4673.000000	60.532355 
4672.000000	60.541868 
4671.000000	60.563802 
4670.000000	60.596346 
4669.000000	60.634922 
4668.000000	60.672068 
4667.000000	60.699677 
4666.000000	60.710477 
4665.000000	60.700416 
4664.000000	60.668683 
4663.000000	60.617780 
4662.000000	60.552930 
4661.000000	60.480928 
4660.000000	60.408639 
4659.000000	60.341811 
4658.000000	60.284590 
4657.000000	60.238981 
4656.000000	60.205078 
4655.000000	60.181546 
4654.000000	60.166049 
4653.000000	60.156130 
4652.000000	60.149645 
4651.000000	60.145878 
4650.000000	60.144233 
4649.000000	60.145783 
4648.000000	60.151982 
4647.000000	60.165333 
4646.000000	60.187649 
4645.000000	60.220551 
4644.000000	60.264468 
4643.000000	60.318994 
4642.000000	60.382103 
4641.000000	60.450863 
4640.000000	60.521936 
4639.000000	60.591864 
4638.000000	60.657739 
4637.000000	60.716915 
4636.000000	60.767531 
4635.000000	60.808038 
4634.000000	60.837531 
4633.000000	60.855031 
4632.000000	60.859799 
4631.000000	60.851788 
4630.000000	60.831880 
4629.000000	60.801410 
4628.000000	60.762572 
4627.000000	60.718655 
4626.000000	60.674023 
4625.000000	60.632872 
4624.000000	60.599040 
4623.000000	60.575580 
4622.000000	60.563993 
4621.000000	60.564208 
4620.000000	60.574173 
4619.000000	60.590219 
4618.000000	60.607361 
4617.000000	60.620403 
4616.000000	60.624933 
4615.000000	60.617446 
4614.000000	60.596823 
4613.000000	60.564303 
4612.000000	60.523605 
4611.000000	60.479688 
4610.000000	60.438513 
4609.000000	60.405898 
4608.000000	60.386157 
4607.000000	60.381531 
4606.000000	60.392212 
4605.000000	60.416698 
4604.000000	60.452103 
4603.000000	60.495066 
4602.000000	60.543012 
4601.000000	60.594463 
4600.000000	60.648703 
4599.000000	60.704731 
4598.000000	60.760712 
4597.000000	60.812926 
4596.000000	60.856389 
4595.000000	60.884952 
4594.000000	60.892891 
4593.000000	60.876083 
4592.000000	60.834264 
4591.000000	60.770750 
4590.000000	60.692739 
4589.000000	60.609817 
4588.000000	60.532140 
4587.000000	60.468769 
4586.000000	60.425949 
4585.000000	60.406088 
4584.000000	60.407900 
4583.000000	60.427141 
4582.000000	60.458040 
4581.000000	60.494112 
4580.000000	60.529375 
4579.000000	60.558032 
4578.000000	60.575008 
4577.000000	60.576009 
4576.000000	60.558271 
4575.000000	60.521364 
4574.000000	60.467910 
4573.000000	60.404038 
4572.000000	60.338473 
4571.000000	60.281467 
4570.000000	60.242271 
4569.000000	60.227203 
4568.000000	60.237574 
4567.000000	60.269618 
4566.000000	60.314941 
4565.000000	60.362410 
4564.000000	60.401010 
4563.000000	60.422062 
4562.000000	60.421180 
4561.000000	60.398745 
4560.000000	60.359430 
4559.000000	60.310387 
4558.000000	60.259294 
4557.000000	60.212707 
4556.000000	60.174679 
4555.000000	60.146403 
4554.000000	60.127305 
4553.000000	60.116410 
4552.000000	60.112857 
4551.000000	60.116529 
4550.000000	60.128021 
4549.000000	60.148072 
4548.000000	60.176253 
4547.000000	60.210871 
4546.000000	60.248208 
4545.000000	60.283803 
4544.000000	60.313630 
4543.000000	60.335087 
4542.000000	60.348486 
4541.000000	60.356283 
4540.000000	60.362362 
4539.000000	60.370540 
4538.000000	60.383319 
4537.000000	60.400819 
4536.000000	60.420751 
4535.000000	60.438871 
4534.000000	60.450458 
4533.000000	60.451793 
4532.000000	60.441780 
4531.000000	60.422062 
4530.000000	60.396885 
4529.000000	60.372447 
4528.000000	60.355377 
4527.000000	60.351753 
4526.000000	60.365509 
4525.000000	60.398197 
4524.000000	60.448527 
4523.000000	60.513138 
4522.000000	60.587120 
4521.000000	60.664105 
4520.000000	60.737442 
4519.000000	60.800552 
4518.000000	60.848116 
4517.000000	60.876941 
4516.000000	60.886240 
4515.000000	60.878205 
4514.000000	60.856676 
4513.000000	60.827136 
4512.000000	60.794544 
4511.000000	60.762405 
4510.000000	60.731983 
4509.000000	60.703182 
4508.000000	60.674142 
4507.000000	60.643053 
4506.000000	60.607957 
4505.000000	60.568046 
4504.000000	60.523676 
4503.000000	60.476160 
4502.000000	60.428714 
4501.000000	60.385847 
4500.000000	60.352420 
4499.000000	60.332584 
4498.000000	60.328984 
4497.000000	60.342001 
4496.000000	60.369467 
4495.000000	60.406851 
4494.000000	60.450029 
4493.000000	60.495471 
4492.000000	60.540723 
4491.000000	60.583543 
4490.000000	60.621643 
4489.000000	60.651922 
4488.000000	60.668921 
4487.000000	60.666942 
4486.000000	60.642075 
4485.000000	60.593605 
4484.000000	60.526847 
4483.000000	60.450792 
4482.000000	60.376381 
4481.000000	60.313868 
4480.000000	60.271406 
4479.000000	60.251855 
4478.000000	60.253143 
4477.000000	60.267472 
4476.000000	60.282874 
4475.000000	60.287165 
4474.000000	60.272073 
4473.000000	60.233521 
4472.000000	60.173273 
4471.000000	60.093927 
4470.000000	59.996795 
4469.000000	59.886217 
4468.000000	59.768724 
4467.000000	59.644412 
4466.000000	59.508109 
4465.000000	59.363269 
4464.000000	59.218764 
4463.000000	59.074664 
4462.000000	58.931493 
4461.000000	58.788514 
4460.000000	58.652758 
4459.000000	58.543729 
4458.000000	58.489036 
4457.000000	58.514308 
4456.000000	58.636593 
4455.000000	58.866095 
4454.000000	59.186387 
4453.000000	59.552597 
4452.000000	59.896063 
4451.000000	60.139131 
4450.000000	60.211610 
4449.000000	60.064101 
4448.000000	59.693741 
4447.000000	59.146189 
4446.000000	58.520317 
4445.000000	57.949042 
4444.000000	57.583546 
4443.000000	57.565879 
4442.000000	58.014011 
4441.000000	59.002280 
4440.000000	60.576486 
4439.000000	62.730169 
4438.000000	65.415334 
4437.000000	68.505239 
4436.000000	71.792578 
4435.000000	74.981236 
4434.000000	77.719497 
4433.000000	79.646730 
4432.000000	80.474209 
4431.000000	80.034065 
4430.000000	78.352737 
4429.000000	75.622630 
4428.000000	72.187495 
4427.000000	68.462347 
4426.000000	64.870357 
4425.000000	61.762213 
4424.000000	59.379267 
4423.000000	57.824277 
4422.000000	57.082891 
4421.000000	57.044577 
4420.000000	57.552266 
4419.000000	58.429598 
4418.000000	59.508872 
4417.000000	60.648179 
4416.000000	61.733388 
4415.000000	62.671208 
4414.000000	63.384747 
4413.000000	63.825750 
4412.000000	63.972878 
4411.000000	63.844084 
4410.000000	63.484930 
4409.000000	62.967252 
4408.000000	62.368655 
4407.000000	61.756110 
4406.000000	61.178207 
4405.000000	60.676431 
4404.000000	60.274100 
4403.000000	59.986281 
4402.000000	59.814047 
4401.000000	59.752821 
4400.000000	59.786772 
4399.000000	59.884119 
4398.000000	60.009694 
4397.000000	60.121726 
4396.000000	60.191988 
4395.000000	60.213899 
4394.000000	60.192155 
4393.000000	60.132098 
4392.000000	60.048294 
4391.000000	59.959149 
4390.000000	59.880781 
4389.000000	59.823703 
4388.000000	59.794878 
4387.000000	59.796953 
4386.000000	59.831023 
4385.000000	59.896087 
4384.000000	59.984993 
4383.000000	60.086202 
4382.000000	60.187125 
4381.000000	60.276007 
4380.000000	60.341882 
4379.000000	60.378718 
4378.000000	60.385847 
4377.000000	60.369110 
4376.000000	60.342049 
4375.000000	60.319805 
4374.000000	60.314011 
4373.000000	60.330820 
4372.000000	60.370564 
4371.000000	60.427141 
4370.000000	60.490131 
4369.000000	60.548925 
4368.000000	60.596847 
4367.000000	60.632085 
4366.000000	60.658192 
4365.000000	60.681772 
4364.000000	60.709238 
4363.000000	60.745239 
4362.000000	60.790967 
4361.000000	60.843658 
4360.000000	60.897183 
4359.000000	60.943484 
4358.000000	60.974740 
4357.000000	60.985565 
4356.000000	60.974407 
4355.000000	60.943651 
4354.000000	60.899353 
4353.000000	60.849666 
4352.000000	60.803675 
4351.000000	60.769748 
4350.000000	60.753989 
4349.000000	60.759639 
4348.000000	60.786342 
4347.000000	60.831475 
4346.000000	60.889530 
4345.000000	60.953474 
4344.000000	61.015200 
4343.000000	61.066985 
4342.000000	61.102223 
4341.000000	61.116242 
4340.000000	61.106801 
4339.000000	61.074471 
4338.000000	61.021995 
4337.000000	60.954093 
4336.000000	60.876703 
4335.000000	60.796523 
4334.000000	60.720133 
4333.000000	60.653543 
4332.000000	60.601902 
4331.000000	60.569453 
4330.000000	60.559201 
4329.000000	60.572648 
4328.000000	60.609292 
4327.000000	60.666418 
4326.000000	60.738658 
4325.000000	60.818481 
4324.000000	60.896754 
4323.000000	60.964226 
4322.000000	61.012887 
4321.000000	61.037540 
4320.000000	61.036300 
4319.000000	61.011171 
4318.000000	60.968065 
4317.000000	60.914993 
4316.000000	60.860681 
4315.000000	60.812711 
4314.000000	60.776329 
4313.000000	60.753846 
4312.000000	60.744857 
4311.000000	60.747003 
4310.000000	60.757017 
4309.000000	60.772013 
4308.000000	60.790276 
4307.000000	60.811400 
4306.000000	60.836219 
4305.000000	60.865855 
4304.000000	60.900926 
4303.000000	60.941004 
4302.000000	60.984420 
4301.000000	61.028194 
4300.000000	61.068916 
4299.000000	61.103439 
4298.000000	61.129570 
4297.000000	61.146950 
4296.000000	61.156630 
4295.000000	61.160993 
4294.000000	61.162495 
4293.000000	61.163806 
4292.000000	61.166262 
4291.000000	61.170029 
4290.000000	61.173820 
4289.000000	61.175489 
4288.000000	61.172795 
4287.000000	61.164450 
4286.000000	61.150360 
4285.000000	61.131715 
4284.000000	61.111259 
4283.000000	61.092448 
4282.000000	61.078619 
4281.000000	61.071920 
4280.000000	61.072874 
4279.000000	61.080074 
4278.000000	61.090636 
4277.000000	61.100411 
4276.000000	61.105132 
4275.000000	61.100935 
4274.000000	61.085510 
4273.000000	61.058259 
4272.000000	61.020088 
4271.000000	60.973525 
4270.000000	60.921716 
4269.000000	60.868501 
4268.000000	60.817527 
4267.000000	60.772657 
4266.000000	60.737752 
4265.000000	60.716676 
4264.000000	60.712599 
4263.000000	60.727858 
4262.000000	60.763287 
4261.000000	60.817742 
4260.000000	60.887479 
4259.000000	60.967183 
4258.000000	61.050343 
4257.000000	61.130547 
4256.000000	61.202073 
4255.000000	61.260700 
4254.000000	61.303830 
4253.000000	61.330723 
4252.000000	61.342191 
4251.000000	61.339807 
4250.000000	61.325693 
4249.000000	61.302471 
4248.000000	61.273169 
4247.000000	61.241602 
4246.000000	61.211895 
4245.000000	61.188554 
4244.000000	61.175489 
4243.000000	61.175823 
4242.000000	61.190319 
4241.000000	61.217498 
4240.000000	61.252951 
4239.000000	61.290669 
4238.000000	61.323404 
4237.000000	61.344361 
4236.000000	61.348223 
4235.000000	61.332130 
4234.000000	61.296653 
4233.000000	61.245536 
4232.000000	61.185574 
4231.000000	61.125516 
4230.000000	61.074852 
4229.000000	61.041879 
4228.000000	61.032724 
4227.000000	61.049962 
4226.000000	61.091899 
4225.000000	61.152648 
4224.000000	61.223340 
4223.000000	61.293482 
4222.000000	61.352729 
4221.000000	61.392569 
4220.000000	61.407852 
4219.000000	61.397242 
4218.000000	61.363458 
4217.000000	61.311674 
4216.000000	61.248230 
4215.000000	61.179161 
4214.000000	61.109495 
4213.000000	61.042499 
4212.000000	60.980010 
4211.000000	60.923027 
4210.000000	60.872864 
4209.000000	60.831236 
4208.000000	60.800361 
4207.000000	60.782599 
4206.000000	60.779476 
4205.000000	60.791325 
4204.000000	60.816335 
4203.000000	60.851120 
4202.000000	60.890555 
4201.000000	60.929465 
4200.000000	60.963273 
4199.000000	60.989236 
4198.000000	61.006665 
4197.000000	61.016726 
4196.000000	61.022067 
4195.000000	61.025595 
4194.000000	61.030149 
4193.000000	61.038041 
4192.000000	61.050653 
4191.000000	61.068677 
4190.000000	61.091995 
4189.000000	61.120223 
4188.000000	61.152744 
4187.000000	61.188840 
4186.000000	61.227536 
4185.000000	61.267685 
4184.000000	61.307859 
4183.000000	61.346864 
4182.000000	61.383318 
4181.000000	61.415839 
4180.000000	61.442852 
4179.000000	61.463475 
4178.000000	61.476445 
4177.000000	61.480808 
4176.000000	61.475992 
4175.000000	61.462187 
4174.000000	61.440324 
4173.000000	61.412334 
4172.000000	61.381125 
4171.000000	61.350154 
4170.000000	61.322641 
4169.000000	61.300897 
4168.000000	61.285662 
4167.000000	61.276221 
4166.000000	61.270666 
4165.000000	61.266708 
4164.000000	61.262440 
4163.000000	61.256909 
4162.000000	61.250424 
4161.000000	61.244463 
4160.000000	61.240983 
4159.000000	61.241674 
