PE IR       SPECTRUM    SPECTRUM    ASCII       PEDS        1.60        
  -1
BZ6EA0~1.ASC
17/04/07
16:10:31.00
17/04/07
16:10:31.00
tln
$BZ1503107-1_t0036$<tbV0>[7.8,-5.2,8.0,0.0,27,1,0]
370.000000
64









2002,4.07    
MIRTGS : RIGHTBACK : INTERNAL 2
MIR : ON : INTERNAL 2
OPTKBR

0.200000
8
8.000000
FILLER
RATIO
SPECTRUM
UNLOCKED 256

DOUBLE
64
COMBINED
1
0
0


1.000000
RATIO


1
0
TRUE
51149
0
LEFT NOT FITTED RIGHT NOT FITTED 0
NONE
NONE
15600
12.000000
4.427000
51148
TRUE
1 0 8 72 0 0 0 0 

15798.010000






#HDR
-1
-1
#GR
CM-1
%T
0.00002384185791015625
0.0
5000.000000
-1.000000
4631
8
77.558159
40.458679
#DATA
5000.000000	65.372896 
4999.000000	65.245127 
4998.000000	65.123152 
4997.000000	65.019035 
4996.000000	64.940237 
4995.000000	64.890146 
4994.000000	64.867353 
4993.000000	64.867711 
4992.000000	64.884924 
4991.000000	64.912509 
4990.000000	64.943766 
4989.000000	64.971709 
4988.000000	64.990615 
4987.000000	64.995837 
4986.000000	64.985060 
4985.000000	64.957976 
4984.000000	64.917755 
4983.000000	64.870214 
4982.000000	64.822912 
4981.000000	64.783191 
4980.000000	64.757013 
4979.000000	64.746856 
4978.000000	64.751267 
4977.000000	64.764595 
4976.000000	64.778017 
4975.000000	64.781522 
4974.000000	64.766621 
4973.000000	64.728546 
4972.000000	64.666986 
4971.000000	64.586782 
4970.000000	64.496803 
4969.000000	64.407920 
4968.000000	64.330506 
4967.000000	64.271688 
4966.000000	64.234733 
4965.000000	64.217305 
4964.000000	64.212799 
4963.000000	64.211916 
4962.000000	64.204835 
4961.000000	64.184403 
4960.000000	64.147806 
4959.000000	64.097547 
4958.000000	64.040374 
4957.000000	63.986134 
4956.000000	63.945055 
4955.000000	63.926005 
4954.000000	63.934421 
4953.000000	63.970804 
4952.000000	64.031410 
4951.000000	64.109802 
4950.000000	64.198851 
4949.000000	64.291906 
4948.000000	64.384388 
4947.000000	64.473915 
4946.000000	64.559340 
4945.000000	64.639401 
4944.000000	64.711117 
4943.000000	64.770197 
4942.000000	64.809918 
4941.000000	64.823698 
4940.000000	64.805102 
4939.000000	64.752173 
4938.000000	64.665722 
4937.000000	64.550733 
4936.000000	64.415192 
4935.000000	64.269614 
4934.000000	64.125633 
4933.000000	63.994431 
4932.000000	63.886666 
4931.000000	63.811278 
4930.000000	63.775968 
4929.000000	63.786029 
4928.000000	63.843917 
4927.000000	63.947796 
4926.000000	64.090752 
4925.000000	64.260768 
4924.000000	64.440870 
4923.000000	64.612007 
4922.000000	64.755654 
4921.000000	64.857506 
4920.000000	64.909577 
4919.000000	64.912176 
4918.000000	64.873886 
4917.000000	64.809370 
4916.000000	64.736342 
4915.000000	64.671397 
4914.000000	64.627957 
4913.000000	64.612770 
4912.000000	64.627337 
4911.000000	64.666318 
4910.000000	64.720726 
4909.000000	64.779281 
4908.000000	64.832019 
4907.000000	64.871072 
4906.000000	64.892077 
4905.000000	64.894580 
4904.000000	64.881086 
4903.000000	64.856147 
4902.000000	64.825081 
4901.000000	64.793372 
4900.000000	64.765334 
4899.000000	64.744091 
4898.000000	64.730596 
4897.000000	64.723896 
4896.000000	64.721250 
4895.000000	64.718818 
4894.000000	64.713191 
4893.000000	64.700627 
4892.000000	64.680147 
4891.000000	64.653062 
4890.000000	64.624810 
4889.000000	64.602494 
4888.000000	64.595127 
4887.000000	64.611339 
4886.000000	64.657044 
4885.000000	64.734005 
4884.000000	64.837980 
4883.000000	64.959478 
4882.000000	65.084648 
4881.000000	65.198230 
4880.000000	65.286397 
4879.000000	65.339636 
4878.000000	65.354514 
4877.000000	65.334105 
4876.000000	65.286421 
4875.000000	65.222096 
4874.000000	65.151929 
4873.000000	65.084314 
4872.000000	65.023565 
4871.000000	64.969873 
4870.000000	64.921140 
4869.000000	64.874601 
4868.000000	64.828872 
4867.000000	64.785647 
4866.000000	64.749360 
4865.000000	64.726781 
4864.000000	64.724826 
4863.000000	64.748501 
4862.000000	64.798092 
4861.000000	64.868807 
4860.000000	64.950990 
4859.000000	65.031814 
4858.000000	65.097784 
4857.000000	65.137863 
4856.000000	65.145468 
4855.000000	65.120482 
4854.000000	65.068721 
4853.000000	65.001726 
4852.000000	64.933896 
4851.000000	64.879870 
4850.000000	64.851284 
4849.000000	64.855337 
4848.000000	64.893579 
4847.000000	64.961886 
4846.000000	65.051507 
4845.000000	65.151095 
4844.000000	65.248727 
4843.000000	65.333938 
4842.000000	65.398836 
4841.000000	65.438365 
4840.000000	65.450453 
4839.000000	65.435576 
4838.000000	65.396451 
4837.000000	65.337419 
4836.000000	65.264344 
4835.000000	65.184283 
4834.000000	65.104866 
4833.000000	65.034365 
4832.000000	64.980077 
4831.000000	64.947867 
4830.000000	64.940428 
4829.000000	64.957237 
4828.000000	64.993762 
4827.000000	65.041851 
4826.000000	65.091681 
4825.000000	65.133404 
4824.000000	65.159392 
4823.000000	65.165257 
4822.000000	65.151071 
4821.000000	65.120816 
4820.000000	65.081739 
4819.000000	65.042352 
4818.000000	65.010738 
4817.000000	64.992189 
4816.000000	64.988946 
4815.000000	64.999032 
4814.000000	65.017271 
4813.000000	65.036273 
4812.000000	65.048098 
4811.000000	65.046310 
4810.000000	65.027475 
4809.000000	64.991927 
4808.000000	64.943456 
4807.000000	64.888072 
4806.000000	64.832377 
4805.000000	64.782023 
4804.000000	64.740848 
4803.000000	64.710092 
4802.000000	64.688467 
4801.000000	64.673399 
4800.000000	64.662384 
4799.000000	64.653873 
4798.000000	64.647746 
4797.000000	64.645290 
4796.000000	64.648485 
4795.000000	64.659047 
4794.000000	64.677405 
4793.000000	64.702486 
4792.000000	64.731597 
4791.000000	64.761567 
4790.000000	64.789342 
4789.000000	64.813256 
4788.000000	64.832997 
4787.000000	64.849328 
4786.000000	64.863467 
4785.000000	64.876174 
4784.000000	64.887785 
4783.000000	64.897966 
4782.000000	64.906048 
4781.000000	64.912009 
4780.000000	64.916348 
4779.000000	64.920711 
4778.000000	64.927363 
4777.000000	64.938807 
4776.000000	64.956569 
4775.000000	64.980506 
4774.000000	65.008878 
4773.000000	65.038514 
4772.000000	65.066146 
4771.000000	65.089154 
4770.000000	65.106749 
4769.000000	65.120363 
4768.000000	65.133190 
4767.000000	65.149354 
4766.000000	65.172410 
4765.000000	65.204262 
4764.000000	65.244364 
4763.000000	65.289592 
4762.000000	65.334916 
4761.000000	65.374350 
4760.000000	65.402150 
4759.000000	65.413832 
4758.000000	65.407013 
4757.000000	65.382003 
4756.000000	65.341973 
4755.000000	65.292334 
4754.000000	65.239834 
4753.000000	65.191459 
4752.000000	65.153574 
4751.000000	65.130591 
4750.000000	65.124654 
4749.000000	65.134835 
4748.000000	65.157604 
4747.000000	65.187501 
4746.000000	65.217876 
4745.000000	65.242624 
4744.000000	65.257000 
4743.000000	65.258979 
4742.000000	65.249228 
4741.000000	65.230894 
4740.000000	65.208578 
4739.000000	65.187382 
4738.000000	65.171837 
4737.000000	65.165257 
4736.000000	65.169143 
4735.000000	65.183210 
4734.000000	65.205335 
4733.000000	65.232300 
4732.000000	65.260386 
4731.000000	65.285301 
4730.000000	65.303611 
4729.000000	65.313434 
4728.000000	65.314722 
4727.000000	65.308880 
4726.000000	65.298795 
4725.000000	65.287923 
4724.000000	65.279650 
4723.000000	65.276527 
4722.000000	65.279841 
4721.000000	65.289306 
4720.000000	65.303826 
4719.000000	65.321755 
4718.000000	65.342044 
4717.000000	65.364456 
4716.000000	65.389966 
4715.000000	65.419983 
4714.000000	65.456199 
4713.000000	65.499424 
4712.000000	65.548610 
4711.000000	65.600109 
4710.000000	65.648579 
4709.000000	65.687274 
4708.000000	65.709733 
4707.000000	65.710473 
4706.000000	65.686225 
4705.000000	65.636491 
4704.000000	65.564203 
4703.000000	65.475201 
4702.000000	65.377521 
4701.000000	65.280175 
4700.000000	65.192079 
4699.000000	65.120244 
4698.000000	65.068912 
4697.000000	65.039110 
4696.000000	65.028619 
4695.000000	65.033197 
4694.000000	65.047335 
4693.000000	65.065550 
4692.000000	65.083217 
4691.000000	65.096831 
4690.000000	65.103793 
4689.000000	65.101790 
4688.000000	65.088558 
4687.000000	65.061855 
4686.000000	65.019893 
4685.000000	64.962148 
4684.000000	64.890193 
4683.000000	64.808845 
4682.000000	64.726018 
4681.000000	64.651966 
4680.000000	64.597487 
4679.000000	64.571213 
4678.000000	64.577889 
4677.000000	64.616775 
4676.000000	64.681935 
4675.000000	64.762973 
4674.000000	64.847874 
4673.000000	64.925098 
4672.000000	64.986467 
4671.000000	65.027642 
4670.000000	65.049076 
4669.000000	65.054512 
4668.000000	65.049815 
4667.000000	65.040564 
4666.000000	65.030908 
4665.000000	65.022850 
4664.000000	65.016102 
4663.000000	65.008997 
4662.000000	64.999198 
4661.000000	64.985275 
4660.000000	64.967012 
4659.000000	64.946103 
4658.000000	64.925408 
4657.000000	64.908647 
4656.000000	64.899587 
4655.000000	64.901661 
4654.000000	64.917445 
4653.000000	64.948320 
4652.000000	64.994287 
4651.000000	65.053582 
4650.000000	65.123248 
4649.000000	65.198588 
4648.000000	65.273451 
4647.000000	65.340375 
4646.000000	65.392017 
4645.000000	65.421748 
4644.000000	65.425395 
4643.000000	65.401482 
4642.000000	65.351963 
4641.000000	65.281510 
4640.000000	65.197634 
4639.000000	65.108442 
4638.000000	65.022110 
4637.000000	64.945101 
4636.000000	64.881825 
4635.000000	64.834189 
4634.000000	64.802122 
4633.000000	64.783811 
4632.000000	64.776444 
4631.000000	64.776754 
4630.000000	64.781832 
4629.000000	64.788913 
4628.000000	64.796185 
4627.000000	64.802479 
4626.000000	64.807724 
4625.000000	64.812874 
4624.000000	64.819598 
4623.000000	64.829707 
4622.000000	64.844059 
4621.000000	64.862132 
4620.000000	64.881324 
4619.000000	64.897108 
4618.000000	64.904403 
4617.000000	64.899086 
4616.000000	64.879512 
4615.000000	64.847230 
4614.000000	64.807224 
4613.000000	64.766740 
4612.000000	64.733743 
4611.000000	64.715003 
4610.000000	64.714479 
4609.000000	64.732122 
4608.000000	64.764523 
4607.000000	64.806008 
4606.000000	64.850306 
4605.000000	64.891958 
4604.000000	64.927935 
4603.000000	64.957761 
4602.000000	64.982604 
4601.000000	65.004253 
4600.000000	65.023851 
4599.000000	65.041017 
4598.000000	65.054082 
4597.000000	65.060305 
4596.000000	65.057373 
4595.000000	65.043687 
4594.000000	65.019392 
4593.000000	64.986371 
4592.000000	64.947605 
4591.000000	64.907503 
4590.000000	64.870643 
4589.000000	64.841747 
4588.000000	64.824342 
4587.000000	64.820933 
4586.000000	64.832687 
4585.000000	64.858865 
4584.000000	64.897060 
4583.000000	64.943122 
4582.000000	64.991736 
4581.000000	65.037012 
4580.000000	65.073442 
4579.000000	65.096735 
4578.000000	65.104746 
4577.000000	65.097856 
4576.000000	65.078902 
4575.000000	65.052151 
4574.000000	65.022230 
4573.000000	64.993357 
4572.000000	64.968490 
4571.000000	64.949369 
4570.000000	64.936208 
4569.000000	64.928340 
4568.000000	64.924311 
4567.000000	64.922809 
4566.000000	64.922380 
4565.000000	64.921569 
4564.000000	64.918875 
4563.000000	64.912796 
4562.000000	64.902114 
4561.000000	64.885759 
4560.000000	64.863538 
4559.000000	64.836096 
4558.000000	64.805054 
4557.000000	64.772677 
4556.000000	64.741802 
4555.000000	64.714837 
4554.000000	64.694118 
4553.000000	64.681410 
4552.000000	64.679193 
4551.000000	64.690399 
4550.000000	64.718389 
4549.000000	64.765834 
4548.000000	64.833307 
4547.000000	64.917778 
4546.000000	65.011906 
4545.000000	65.104603 
4544.000000	65.182423 
4543.000000	65.232253 
4542.000000	65.244722 
4541.000000	65.216016 
4540.000000	65.148973 
4539.000000	65.052485 
4538.000000	64.940762 
4537.000000	64.829349 
4536.000000	64.732646 
4535.000000	64.660573 
4534.000000	64.617443 
4533.000000	64.601278 
4532.000000	64.605522 
4531.000000	64.620852 
4530.000000	64.637827 
4529.000000	64.649415 
4528.000000	64.652204 
4527.000000	64.647197 
4526.000000	64.638233 
4525.000000	64.631390 
4524.000000	64.632844 
4523.000000	64.647054 
4522.000000	64.675354 
4521.000000	64.715766 
4520.000000	64.763712 
4519.000000	64.812707 
4518.000000	64.856886 
4517.000000	64.892721 
4516.000000	64.920234 
4515.000000	64.943385 
4514.000000	64.968371 
4513.000000	65.001916 
4512.000000	65.048336 
4511.000000	65.108537 
4510.000000	65.178322 
4509.000000	65.249848 
4508.000000	65.312147 
4507.000000	65.355062 
4506.000000	65.370368 
4505.000000	65.354537 
4504.000000	65.309190 
4503.000000	65.241146 
4502.000000	65.160393 
4501.000000	65.078330 
4500.000000	65.004539 
4499.000000	64.945006 
4498.000000	64.901041 
4497.000000	64.869999 
4496.000000	64.845561 
4495.000000	64.820480 
4494.000000	64.788532 
4493.000000	64.747548 
4492.000000	64.699220 
4491.000000	64.650487 
4490.000000	64.611411 
4489.000000	64.593696 
4488.000000	64.607715 
4487.000000	64.659428 
4486.000000	64.748334 
4485.000000	64.866423 
4484.000000	64.999341 
4483.000000	65.128850 
4482.000000	65.236783 
4481.000000	65.307950 
4480.000000	65.334296 
4479.000000	65.314030 
4478.000000	65.251684 
4477.000000	65.155696 
4476.000000	65.036582 
4475.000000	64.904999 
4474.000000	64.770889 
4473.000000	64.641833 
4472.000000	64.523935 
4471.000000	64.418578 
4470.000000	64.324021 
4469.000000	64.237999 
4468.000000	64.160323 
4467.000000	64.092445 
4466.000000	64.038777 
4465.000000	64.008378 
4464.000000	64.012455 
4463.000000	64.057826 
4462.000000	64.146018 
4461.000000	64.272046 
4460.000000	64.424753 
4459.000000	64.586067 
4458.000000	64.737892 
4457.000000	64.860892 
4456.000000	64.944481 
4455.000000	64.997363 
4454.000000	65.034914 
4453.000000	65.070152 
4452.000000	65.111351 
4451.000000	65.160083 
4450.000000	65.208053 
4449.000000	65.238475 
4448.000000	65.236258 
4447.000000	65.193247 
4446.000000	65.119838 
4445.000000	65.046119 
4444.000000	65.016388 
4443.000000	65.078425 
4442.000000	65.272402 
4441.000000	65.620803 
4440.000000	66.111898 
4439.000000	66.707921 
4438.000000	67.357015 
4437.000000	68.008565 
4436.000000	68.644618 
4435.000000	69.259953 
4434.000000	69.884419 
4433.000000	70.517349 
4432.000000	71.115279 
4431.000000	71.561741 
4430.000000	71.681118 
4429.000000	71.282172 
4428.000000	70.216989 
4427.000000	68.439459 
4426.000000	66.049742 
4425.000000	63.287258 
4424.000000	60.492563 
4423.000000	58.039689 
4422.000000	56.246900 
4421.000000	55.324745 
4420.000000	55.330300 
4419.000000	56.172299 
4418.000000	57.639098 
4417.000000	59.461069 
4416.000000	61.372375 
4415.000000	63.156652 
4414.000000	64.679217 
4413.000000	65.886545 
4412.000000	66.794705 
4411.000000	67.449069 
4410.000000	67.901945 
4409.000000	68.198990 
4408.000000	68.363022 
4407.000000	68.417835 
4406.000000	68.370795 
4405.000000	68.241405 
4404.000000	68.043470 
4403.000000	67.799544 
4402.000000	67.529177 
4401.000000	67.253518 
4400.000000	66.989612 
4399.000000	66.754651 
4398.000000	66.559290 
4397.000000	66.408228 
4396.000000	66.299653 
4395.000000	66.228580 
4394.000000	66.184139 
4393.000000	66.149497 
4392.000000	66.110754 
4391.000000	66.060638 
4390.000000	65.992617 
4389.000000	65.901088 
4388.000000	65.785360 
4387.000000	65.648889 
4386.000000	65.501618 
4385.000000	65.357542 
4384.000000	65.225410 
4383.000000	65.109276 
4382.000000	65.014386 
4381.000000	64.944410 
4380.000000	64.897513 
4379.000000	64.869499 
4378.000000	64.856696 
4377.000000	64.855122 
4376.000000	64.860320 
4375.000000	64.867806 
4374.000000	64.871883 
4373.000000	64.867162 
4372.000000	64.848303 
4371.000000	64.812254 
4370.000000	64.757537 
4369.000000	64.687705 
4368.000000	64.610910 
4367.000000	64.538955 
4366.000000	64.484214 
4365.000000	64.458036 
4364.000000	64.467930 
4363.000000	64.515852 
4362.000000	64.597272 
4361.000000	64.702582 
4360.000000	64.818596 
4359.000000	64.931511 
4358.000000	65.029215 
4357.000000	65.103435 
4356.000000	65.150475 
4355.000000	65.170192 
4354.000000	65.165281 
4353.000000	65.140700 
4352.000000	65.102028 
4351.000000	65.054488 
4350.000000	65.002584 
4349.000000	64.951825 
4348.000000	64.907050 
4347.000000	64.873528 
4346.000000	64.855146 
4345.000000	64.854669 
4344.000000	64.872097 
4343.000000	64.904499 
4342.000000	64.945816 
4341.000000	64.987993 
4340.000000	65.021967 
4339.000000	65.039253 
4338.000000	65.033745 
4337.000000	65.002965 
4336.000000	64.947891 
4335.000000	64.872598 
4334.000000	64.783525 
4333.000000	64.688563 
4332.000000	64.595341 
4331.000000	64.510822 
4330.000000	64.440703 
4329.000000	64.389443 
4328.000000	64.360475 
4327.000000	64.356017 
4326.000000	64.376497 
4325.000000	64.420318 
4324.000000	64.483237 
4323.000000	64.558982 
4322.000000	64.638471 
4321.000000	64.712333 
4320.000000	64.771819 
4319.000000	64.810991 
4318.000000	64.827394 
4317.000000	64.823031 
4316.000000	64.803338 
4315.000000	64.776325 
4314.000000	64.750742 
4313.000000	64.734697 
4312.000000	64.734268 
4311.000000	64.752554 
4310.000000	64.789509 
4309.000000	64.842367 
4308.000000	64.906620 
4307.000000	64.976310 
4306.000000	65.045666 
4305.000000	65.109491 
4304.000000	65.164256 
4303.000000	65.208387 
4302.000000	65.242195 
4301.000000	65.267610 
4300.000000	65.286803 
4299.000000	65.302658 
4298.000000	65.316367 
4297.000000	65.327286 
4296.000000	65.332126 
4295.000000	65.326428 
4294.000000	65.305590 
4293.000000	65.266871 
4292.000000	65.210413 
4291.000000	65.140414 
4290.000000	65.063905 
4289.000000	64.989829 
4288.000000	64.926481 
4287.000000	64.879393 
4286.000000	64.850306 
4285.000000	64.837026 
4284.000000	64.834094 
4283.000000	64.834523 
4282.000000	64.831829 
4281.000000	64.821910 
4280.000000	64.803647 
4279.000000	64.779329 
4278.000000	64.753603 
4277.000000	64.732360 
4276.000000	64.720630 
4275.000000	64.721417 
4274.000000	64.735126 
4273.000000	64.759516 
4272.000000	64.790558 
4271.000000	64.823246 
4270.000000	64.852857 
4269.000000	64.875936 
4268.000000	64.890551 
4267.000000	64.896631 
4266.000000	64.895439 
4265.000000	64.889526 
4264.000000	64.881849 
4263.000000	64.875054 
4262.000000	64.870762 
4261.000000	64.869332 
4260.000000	64.870452 
4259.000000	64.872765 
4258.000000	64.874482 
4257.000000	64.873623 
4256.000000	64.868903 
4255.000000	64.859533 
4254.000000	64.845442 
4253.000000	64.827466 
4252.000000	64.807438 
4251.000000	64.788413 
4250.000000	64.774060 
4249.000000	64.768338 
4248.000000	64.774394 
4247.000000	64.794135 
4246.000000	64.827227 
4245.000000	64.870715 
4244.000000	64.919638 
4243.000000	64.967465 
4242.000000	65.007948 
4241.000000	65.036153 
4240.000000	65.049910 
4239.000000	65.050721 
4238.000000	65.043234 
4237.000000	65.034341 
4236.000000	65.030908 
4235.000000	65.038275 
4234.000000	65.058350 
4233.000000	65.089559 
4232.000000	65.126299 
4231.000000	65.160918 
4230.000000	65.185427 
4229.000000	65.194058 
4228.000000	65.184044 
4227.000000	65.156555 
4226.000000	65.116214 
4225.000000	65.069842 
4224.000000	65.024900 
4223.000000	64.987730 
4222.000000	64.962315 
4221.000000	64.949703 
4220.000000	64.948177 
4219.000000	64.954042 
4218.000000	64.963078 
4217.000000	64.971566 
4216.000000	64.976954 
4215.000000	64.978742 
4214.000000	64.977478 
4213.000000	64.975190 
4212.000000	64.974284 
4211.000000	64.977502 
4210.000000	64.986419 
4209.000000	65.002131 
4208.000000	65.025091 
4207.000000	65.055036 
4206.000000	65.091180 
4205.000000	65.132260 
4204.000000	65.176820 
4203.000000	65.222811 
4202.000000	65.267658 
4201.000000	65.308332 
4200.000000	65.341591 
4199.000000	65.364336 
4198.000000	65.374279 
4197.000000	65.371060 
4196.000000	65.356254 
4195.000000	65.333652 
4194.000000	65.308523 
4193.000000	65.286540 
4192.000000	65.272212 
4191.000000	65.268635 
4190.000000	65.275716 
4189.000000	65.290641 
4188.000000	65.307950 
4187.000000	65.321302 
4186.000000	65.324497 
4185.000000	65.313196 
4184.000000	65.285587 
4183.000000	65.243124 
4182.000000	65.189695 
4181.000000	65.130972 
4180.000000	65.072989 
4179.000000	65.020942 
4178.000000	64.978313 
4177.000000	64.946460 
4176.000000	64.924597 
4175.000000	64.910531 
4174.000000	64.901375 
4173.000000	64.894318 
4172.000000	64.887022 
4171.000000	64.878177 
4170.000000	64.867591 
4169.000000	64.856219 
4168.000000	64.845514 
4167.000000	64.837265 
4166.000000	64.833116 
4165.000000	64.834284 
4164.000000	64.841246 
4163.000000	64.853930 
4162.000000	64.871597 
4161.000000	64.893174 
4160.000000	64.917373 
4159.000000	64.942884 
