PE IR       SPECTRUM    SPECTRUM    ASCII       PEDS        1.60        
  -1
BZ4C7C~1.ASC
17/04/07
22:57:36.00
17/04/07
22:57:36.00
tln
$BZ1503107-1_t0118$<tbV0>[-5.2,13.0,8.0,0.0,27,1,0]
370.000000
64









2002,4.07    
MIRTGS : RIGHTBACK : INTERNAL 2
MIR : ON : INTERNAL 2
OPTKBR

0.200000
8
8.000000
FILLER
RATIO
SPECTRUM
UNLOCKED 256

DOUBLE
64
COMBINED
1
0
0


1.000000
RATIO


1
0
TRUE
51149
0
LEFT NOT FITTED RIGHT NOT FITTED 0
NONE
NONE
15600
12.000000
4.427000
51148
TRUE
1 0 8 72 0 0 0 0 

15798.010000






#HDR
-1
-1
#GR
CM-1
%T
0.00002384185791015625
0.0
5000.000000
-1.000000
4631
8
73.811459
42.404603
#DATA
5000.000000	64.042758 
4999.000000	63.852143 
4998.000000	63.697600 
4997.000000	63.598036 
4996.000000	63.570308 
4995.000000	63.626170 
4994.000000	63.770794 
4993.000000	63.998961 
4992.000000	64.297008 
4991.000000	64.642596 
4990.000000	65.008020 
4989.000000	65.363240 
4988.000000	65.679192 
4987.000000	65.931272 
4986.000000	66.101527 
4985.000000	66.180658 
4984.000000	66.168022 
4983.000000	66.071581 
4982.000000	65.907502 
4981.000000	65.698218 
4980.000000	65.470051 
4979.000000	65.249800 
4978.000000	65.063714 
4977.000000	64.932489 
4976.000000	64.869308 
4975.000000	64.876627 
4974.000000	64.945793 
4973.000000	65.058922 
4972.000000	65.191340 
4971.000000	65.318202 
4970.000000	65.417027 
4969.000000	65.475034 
4968.000000	65.488290 
4967.000000	65.465044 
4966.000000	65.421557 
4965.000000	65.378499 
4964.000000	65.355253 
4963.000000	65.364408 
4962.000000	65.409588 
4961.000000	65.482926 
4960.000000	65.568685 
4959.000000	65.645217 
4958.000000	65.691137 
4957.000000	65.691113 
4956.000000	65.640211 
4955.000000	65.543675 
4954.000000	65.415239 
4953.000000	65.273952 
4952.000000	65.138840 
4951.000000	65.024304 
4950.000000	64.937090 
4949.000000	64.875435 
4948.000000	64.831066 
4947.000000	64.793443 
4946.000000	64.753866 
4945.000000	64.707446 
4944.000000	64.656686 
4943.000000	64.608931 
4942.000000	64.576601 
4941.000000	64.571642 
4940.000000	64.603948 
4939.000000	64.676332 
4938.000000	64.785242 
4937.000000	64.920687 
4936.000000	65.067911 
4935.000000	65.210890 
4934.000000	65.334153 
4933.000000	65.426039 
4932.000000	65.479445 
4931.000000	65.492582 
4930.000000	65.468072 
4929.000000	65.411639 
4928.000000	65.331077 
4927.000000	65.234923 
4926.000000	65.131521 
4925.000000	65.028166 
4924.000000	64.931464 
4923.000000	64.846825 
4922.000000	64.778089 
4921.000000	64.727783 
4920.000000	64.697289 
4919.000000	64.687371 
4918.000000	64.697003 
4917.000000	64.724755 
4916.000000	64.767909 
4915.000000	64.823365 
4914.000000	64.886784 
4913.000000	64.953494 
4912.000000	65.017580 
4911.000000	65.073513 
4910.000000	65.116333 
4909.000000	65.142273 
4908.000000	65.149188 
4907.000000	65.137076 
4906.000000	65.108489 
4905.000000	65.067625 
4904.000000	65.020012 
4903.000000	64.971828 
4902.000000	64.929127 
4901.000000	64.896845 
4900.000000	64.878320 
4899.000000	64.874744 
4898.000000	64.885163 
4897.000000	64.907026 
4896.000000	64.936852 
4895.000000	64.970135 
4894.000000	65.002894 
4893.000000	65.032219 
4892.000000	65.057086 
4891.000000	65.077948 
4890.000000	65.096116 
4889.000000	65.113854 
4888.000000	65.131807 
4887.000000	65.148639 
4886.000000	65.159964 
4885.000000	65.159249 
4884.000000	65.139150 
4883.000000	65.094065 
4882.000000	65.022110 
4881.000000	64.926290 
4880.000000	64.815568 
4879.000000	64.703822 
4878.000000	64.607405 
4877.000000	64.541363 
4876.000000	64.517211 
4875.000000	64.540219 
4874.000000	64.608168 
4873.000000	64.711904 
4872.000000	64.837408 
4871.000000	64.968967 
4870.000000	65.091633 
4869.000000	65.194368 
4868.000000	65.270996 
4867.000000	65.320777 
4866.000000	65.347075 
4865.000000	65.355777 
4864.000000	65.353798 
4863.000000	65.346622 
4862.000000	65.338683 
4861.000000	65.330672 
4860.000000	65.321779 
4859.000000	65.308690 
4858.000000	65.288352 
4857.000000	65.257811 
4856.000000	65.215826 
4855.000000	65.163016 
4854.000000	65.102076 
4853.000000	65.037107 
4852.000000	64.972591 
4851.000000	64.912462 
4850.000000	64.859461 
4849.000000	64.814591 
4848.000000	64.777064 
4847.000000	64.744997 
4846.000000	64.716029 
4845.000000	64.687943 
4844.000000	64.659476 
4843.000000	64.630246 
4842.000000	64.601111 
4841.000000	64.573836 
4840.000000	64.550685 
4839.000000	64.533019 
4838.000000	64.521598 
4837.000000	64.515781 
4836.000000	64.514398 
4835.000000	64.515304 
4834.000000	64.516711 
4833.000000	64.516973 
4832.000000	64.515662 
4831.000000	64.513421 
4830.000000	64.511561 
4829.000000	64.511299 
4828.000000	64.513397 
4827.000000	64.518046 
4826.000000	64.524030 
4825.000000	64.528894 
4824.000000	64.529681 
4823.000000	64.523816 
4822.000000	64.509320 
4821.000000	64.485478 
4820.000000	64.453196 
4819.000000	64.415025 
4818.000000	64.374160 
4817.000000	64.334154 
4816.000000	64.298295 
4815.000000	64.269661 
4814.000000	64.250850 
4813.000000	64.244198 
4812.000000	64.251351 
4811.000000	64.273381 
4810.000000	64.310026 
4809.000000	64.359736 
4808.000000	64.419174 
4807.000000	64.484024 
4806.000000	64.549112 
4805.000000	64.609861 
4804.000000	64.662599 
4803.000000	64.705491 
4802.000000	64.738726 
4801.000000	64.764261 
4800.000000	64.784955 
4799.000000	64.803695 
4798.000000	64.822530 
4797.000000	64.842367 
4796.000000	64.863014 
4795.000000	64.883303 
4794.000000	64.901876 
4793.000000	64.917469 
4792.000000	64.929175 
4791.000000	64.936232 
4790.000000	64.937686 
4789.000000	64.932441 
4788.000000	64.919376 
4787.000000	64.897966 
4786.000000	64.868688 
4785.000000	64.833736 
4784.000000	64.796829 
4783.000000	64.762783 
4782.000000	64.736104 
4781.000000	64.719986 
4780.000000	64.715170 
4779.000000	64.719653 
4778.000000	64.729118 
4777.000000	64.737343 
4776.000000	64.738917 
4775.000000	64.730548 
4774.000000	64.712500 
4773.000000	64.688181 
4772.000000	64.663934 
4771.000000	64.647126 
4770.000000	64.643955 
4769.000000	64.657616 
4768.000000	64.687466 
4767.000000	64.729189 
4766.000000	64.775943 
4765.000000	64.820265 
4764.000000	64.855647 
4763.000000	64.878058 
4762.000000	64.886784 
4761.000000	64.884042 
4760.000000	64.874124 
4759.000000	64.861702 
4758.000000	64.850807 
4757.000000	64.843320 
4756.000000	64.838957 
4755.000000	64.834928 
4754.000000	64.828014 
4753.000000	64.814901 
4752.000000	64.793825 
4751.000000	64.765024 
4750.000000	64.730763 
4749.000000	64.695000 
4748.000000	64.662289 
4747.000000	64.636683 
4746.000000	64.620637 
4745.000000	64.614915 
4744.000000	64.618539 
4743.000000	64.629483 
4742.000000	64.645123 
4741.000000	64.663648 
4740.000000	64.684247 
4739.000000	64.707279 
4738.000000	64.733839 
4737.000000	64.765119 
4736.000000	64.801621 
4735.000000	64.842486 
4734.000000	64.885163 
4733.000000	64.926266 
4732.000000	64.961743 
4731.000000	64.988160 
4730.000000	65.002679 
4729.000000	65.004253 
4728.000000	64.993119 
4727.000000	64.971017 
4726.000000	64.940381 
4725.000000	64.904356 
4724.000000	64.865875 
4723.000000	64.827966 
4722.000000	64.792823 
4721.000000	64.761972 
4720.000000	64.736294 
4719.000000	64.716577 
4718.000000	64.703369 
4717.000000	64.697074 
4716.000000	64.697813 
4715.000000	64.705324 
4714.000000	64.718484 
4713.000000	64.735054 
4712.000000	64.751696 
4711.000000	64.764428 
4710.000000	64.769530 
4709.000000	64.764404 
4708.000000	64.748096 
4707.000000	64.721846 
4706.000000	64.689183 
4705.000000	64.654898 
4704.000000	64.623951 
4703.000000	64.600086 
4702.000000	64.584636 
4701.000000	64.576506 
4700.000000	64.572310 
4699.000000	64.568400 
4698.000000	64.561915 
4697.000000	64.552593 
4696.000000	64.543223 
4695.000000	64.538693 
4694.000000	64.544248 
4693.000000	64.563941 
4692.000000	64.598822 
4691.000000	64.646172 
4690.000000	64.699506 
4689.000000	64.750528 
4688.000000	64.790987 
4687.000000	64.814448 
4686.000000	64.817810 
4685.000000	64.801812 
4684.000000	64.770889 
4683.000000	64.731144 
4682.000000	64.689016 
4681.000000	64.649748 
4680.000000	64.616751 
4679.000000	64.591145 
4678.000000	64.572548 
4677.000000	64.560222 
4676.000000	64.553737 
4675.000000	64.553093 
4674.000000	64.559221 
4673.000000	64.573144 
4672.000000	64.596104 
4671.000000	64.628219 
4670.000000	64.668893 
4669.000000	64.716124 
4668.000000	64.766836 
4667.000000	64.817142 
4666.000000	64.863014 
4665.000000	64.900755 
4664.000000	64.927959 
4663.000000	64.943957 
4662.000000	64.950013 
4661.000000	64.949131 
4660.000000	64.945650 
4659.000000	64.944434 
4658.000000	64.949822 
4657.000000	64.964723 
4656.000000	64.990520 
4655.000000	65.026903 
4654.000000	65.071916 
4653.000000	65.122580 
4652.000000	65.175604 
4651.000000	65.228056 
4650.000000	65.277791 
4649.000000	65.323448 
4648.000000	65.364122 
4647.000000	65.399003 
4646.000000	65.427255 
4645.000000	65.447783 
4644.000000	65.459537 
4643.000000	65.461778 
4642.000000	65.454721 
4641.000000	65.439605 
4640.000000	65.419006 
4639.000000	65.395998 
4638.000000	65.374040 
4637.000000	65.355467 
4636.000000	65.341448 
4635.000000	65.331029 
4634.000000	65.321445 
4633.000000	65.308666 
4632.000000	65.288591 
4631.000000	65.258073 
4630.000000	65.216040 
4629.000000	65.164041 
4628.000000	65.106415 
4627.000000	65.048933 
4626.000000	64.997887 
4625.000000	64.958810 
4624.000000	64.935255 
4623.000000	64.927601 
4622.000000	64.933538 
4621.000000	64.948678 
4620.000000	64.968132 
4619.000000	64.986872 
4618.000000	65.001583 
4617.000000	65.011048 
4616.000000	65.016245 
4615.000000	65.019178 
4614.000000	65.022778 
4613.000000	65.029263 
4612.000000	65.040111 
4611.000000	65.055489 
4610.000000	65.074610 
4609.000000	65.095973 
4608.000000	65.118145 
4607.000000	65.140414 
4606.000000	65.162324 
4605.000000	65.183472 
4604.000000	65.203380 
4603.000000	65.221071 
4602.000000	65.234422 
4601.000000	65.240502 
4600.000000	65.236186 
4599.000000	65.219116 
4598.000000	65.188813 
4597.000000	65.146875 
4596.000000	65.097427 
4595.000000	65.046024 
4594.000000	64.998459 
4593.000000	64.959812 
4592.000000	64.933085 
4591.000000	64.919066 
4590.000000	64.916634 
4589.000000	64.923405 
4588.000000	64.936494 
4587.000000	64.953541 
4586.000000	64.973068 
4585.000000	64.994883 
4584.000000	65.019083 
4583.000000	65.046477 
4582.000000	65.077519 
4581.000000	65.112614 
4580.000000	65.151572 
4579.000000	65.193843 
4578.000000	65.238261 
4577.000000	65.283155 
4576.000000	65.326285 
4575.000000	65.364360 
4574.000000	65.393257 
4573.000000	65.408539 
4572.000000	65.406131 
4571.000000	65.383362 
4570.000000	65.339922 
4569.000000	65.278720 
4568.000000	65.205454 
4567.000000	65.128064 
4566.000000	65.055108 
4565.000000	64.994311 
4564.000000	64.950823 
4563.000000	64.926195 
4562.000000	64.918541 
4561.000000	64.923071 
4560.000000	64.934158 
4559.000000	64.946413 
4558.000000	64.956831 
4557.000000	64.964747 
4556.000000	64.972138 
4555.000000	64.982104 
4554.000000	64.997959 
4553.000000	65.021586 
4552.000000	65.052700 
4551.000000	65.088486 
4550.000000	65.124535 
4549.000000	65.155839 
4548.000000	65.177941 
4547.000000	65.188074 
4546.000000	65.185523 
4545.000000	65.171766 
4544.000000	65.149879 
4543.000000	65.123844 
4542.000000	65.097880 
4541.000000	65.075516 
4540.000000	65.059518 
4539.000000	65.050983 
4538.000000	65.050101 
4537.000000	65.055537 
4536.000000	65.064883 
4535.000000	65.075397 
4534.000000	65.083956 
4533.000000	65.088915 
4532.000000	65.089392 
4531.000000	65.087294 
4530.000000	65.086460 
4529.000000	65.092921 
4528.000000	65.113115 
4527.000000	65.152478 
4526.000000	65.213418 
4525.000000	65.294265 
4524.000000	65.389227 
4523.000000	65.488600 
4522.000000	65.580749 
4521.000000	65.655136 
4520.000000	65.704774 
4519.000000	65.727281 
4518.000000	65.725207 
4517.000000	65.706133 
4516.000000	65.679502 
4515.000000	65.654492 
4514.000000	65.636587 
4513.000000	65.626287 
4512.000000	65.619373 
4511.000000	65.608644 
4510.000000	65.587544 
4509.000000	65.553069 
4508.000000	65.507388 
4507.000000	65.458583 
4506.000000	65.417408 
4505.000000	65.394091 
4504.000000	65.395116 
4503.000000	65.420150 
4502.000000	65.462851 
4501.000000	65.512132 
4500.000000	65.555644 
4499.000000	65.583586 
4498.000000	65.588450 
4497.000000	65.566444 
4496.000000	65.516948 
4495.000000	65.442156 
4494.000000	65.344810 
4493.000000	65.228128 
4492.000000	65.096545 
4491.000000	64.956212 
4490.000000	64.815068 
4489.000000	64.682936 
4488.000000	64.571046 
4487.000000	64.489746 
4486.000000	64.446568 
4485.000000	64.444231 
4484.000000	64.477968 
4483.000000	64.537858 
4482.000000	64.610028 
4481.000000	64.680790 
4480.000000	64.737772 
4479.000000	64.774775 
4478.000000	64.790725 
4477.000000	64.792203 
4476.000000	64.788770 
4475.000000	64.795064 
4474.000000	64.826893 
4473.000000	64.897966 
4472.000000	65.015411 
4471.000000	65.181922 
4470.000000	65.396094 
4469.000000	65.644240 
4468.000000	65.903449 
4467.000000	66.157817 
4466.000000	66.399097 
4465.000000	66.622471 
4464.000000	66.824841 
4463.000000	67.006230 
4462.000000	67.163491 
4461.000000	67.286753 
4460.000000	67.360782 
4459.000000	67.371940 
4458.000000	67.309069 
4457.000000	67.177200 
4456.000000	66.988468 
4455.000000	66.754126 
4454.000000	66.490936 
4453.000000	66.225528 
4452.000000	65.984225 
4451.000000	65.787172 
4450.000000	65.647721 
4449.000000	65.580987 
4448.000000	65.576028 
4447.000000	65.600466 
4446.000000	65.585780 
4445.000000	65.442562 
4444.000000	65.057754 
4443.000000	64.321684 
4442.000000	63.151168 
4441.000000	61.517262 
4440.000000	59.463405 
4439.000000	57.108521 
4438.000000	54.630589 
4437.000000	52.240085 
4436.000000	50.130963 
4435.000000	48.463702 
4434.000000	47.313404 
4433.000000	46.706724 
4432.000000	46.609568 
4431.000000	46.990942 
4430.000000	47.808599 
4429.000000	49.062132 
4428.000000	50.761103 
4427.000000	52.927613 
4426.000000	55.538010 
4425.000000	58.516979 
4424.000000	61.706852 
4423.000000	64.886856 
4422.000000	67.797160 
4421.000000	70.187807 
4420.000000	71.869349 
4419.000000	72.752571 
4418.000000	72.873687 
4417.000000	72.370195 
4416.000000	71.450448 
4415.000000	70.347714 
4414.000000	69.271564 
4413.000000	68.370342 
4412.000000	67.709755 
4411.000000	67.294502 
4410.000000	67.077374 
4409.000000	66.990566 
4408.000000	66.967034 
4407.000000	66.965365 
4406.000000	66.973328 
4405.000000	66.987752 
4404.000000	67.018866 
4403.000000	67.066025 
4402.000000	67.124319 
4401.000000	67.175745 
4400.000000	67.198967 
4399.000000	67.175722 
4398.000000	67.095613 
4397.000000	66.966176 
4396.000000	66.801285 
4395.000000	66.612124 
4394.000000	66.414594 
4393.000000	66.228866 
4392.000000	66.069579 
4391.000000	65.941762 
4390.000000	65.849947 
4389.000000	65.799617 
4388.000000	65.787553 
4387.000000	65.803408 
4386.000000	65.835309 
4385.000000	65.871357 
4384.000000	65.902566 
4383.000000	65.923595 
4382.000000	65.928745 
4381.000000	65.914463 
4380.000000	65.881681 
4379.000000	65.834331 
4378.000000	65.777277 
4377.000000	65.716457 
4376.000000	65.657830 
4375.000000	65.606641 
4374.000000	65.567803 
4373.000000	65.544342 
4372.000000	65.537929 
4371.000000	65.547800 
4370.000000	65.570735 
4369.000000	65.601611 
4368.000000	65.633940 
4367.000000	65.661668 
4366.000000	65.679788 
4365.000000	65.686416 
4364.000000	65.683031 
4363.000000	65.673017 
4362.000000	65.660333 
4361.000000	65.648770 
4360.000000	65.640759 
4359.000000	65.636157 
4358.000000	65.631937 
4357.000000	65.623831 
4356.000000	65.606784 
4355.000000	65.576696 
4354.000000	65.531158 
4353.000000	65.470051 
4352.000000	65.395736 
4351.000000	65.312290 
4350.000000	65.225076 
4349.000000	65.139245 
4348.000000	65.059614 
4347.000000	64.989829 
4346.000000	64.932823 
4345.000000	64.890217 
4344.000000	64.863514 
4343.000000	64.853525 
4342.000000	64.861392 
4341.000000	64.887237 
4340.000000	64.931392 
4339.000000	64.993309 
4338.000000	65.071463 
4337.000000	65.162086 
4336.000000	65.259265 
4335.000000	65.355014 
4334.000000	65.439915 
4333.000000	65.504646 
4332.000000	65.541672 
4331.000000	65.546703 
4330.000000	65.520596 
4329.000000	65.468883 
4328.000000	65.400815 
4327.000000	65.326976 
4326.000000	65.258240 
4325.000000	65.202784 
4324.000000	65.165376 
4323.000000	65.145969 
4322.000000	65.141534 
4321.000000	65.145921 
4320.000000	65.152287 
4319.000000	65.153789 
4318.000000	65.145754 
4317.000000	65.125441 
4316.000000	65.091919 
4315.000000	65.046143 
4314.000000	64.989924 
4313.000000	64.926242 
4312.000000	64.858484 
4311.000000	64.790725 
4310.000000	64.727354 
4309.000000	64.673185 
4308.000000	64.633035 
4307.000000	64.610981 
4306.000000	64.609789 
4305.000000	64.631032 
4304.000000	64.674496 
4303.000000	64.737510 
4302.000000	64.815044 
4301.000000	64.900231 
4300.000000	64.985179 
4299.000000	65.061259 
4298.000000	65.121078 
4297.000000	65.159177 
4296.000000	65.173411 
4295.000000	65.165805 
4294.000000	65.141582 
4293.000000	65.107893 
4292.000000	65.072393 
4291.000000	65.042471 
4290.000000	65.022659 
4289.000000	65.014100 
4288.000000	65.014719 
4287.000000	65.020275 
4286.000000	65.025496 
4285.000000	65.025973 
4284.000000	65.019440 
4283.000000	65.006327 
4282.000000	64.989328 
4281.000000	64.972352 
4280.000000	64.959049 
4279.000000	64.951562 
4278.000000	64.949870 
4277.000000	64.951729 
4276.000000	64.953303 
4275.000000	64.950656 
4274.000000	64.940595 
4273.000000	64.922404 
4272.000000	64.897370 
4271.000000	64.869475 
4270.000000	64.844274 
4269.000000	64.827871 
4268.000000	64.825034 
4267.000000	64.838433 
4266.000000	64.867711 
4265.000000	64.909911 
4264.000000	64.959836 
4263.000000	65.011286 
4262.000000	65.058493 
4261.000000	65.097165 
4260.000000	65.125274 
4259.000000	65.142631 
4258.000000	65.150356 
4257.000000	65.149879 
4256.000000	65.142488 
4255.000000	65.128564 
4254.000000	65.107440 
4253.000000	65.078067 
4252.000000	65.039730 
4251.000000	64.992618 
4250.000000	64.938426 
4249.000000	64.880514 
4248.000000	64.823603 
4247.000000	64.772534 
4246.000000	64.731884 
4245.000000	64.704704 
4244.000000	64.692497 
4243.000000	64.694714 
4242.000000	64.709544 
4241.000000	64.734053 
4240.000000	64.765310 
4239.000000	64.800262 
4238.000000	64.836645 
4237.000000	64.872574 
4236.000000	64.906668 
4235.000000	64.937448 
4234.000000	64.963555 
4233.000000	64.983701 
4232.000000	64.996623 
4231.000000	65.001583 
4230.000000	64.998197 
4229.000000	64.986920 
4228.000000	64.968943 
4227.000000	64.946293 
4226.000000	64.921307 
4225.000000	64.896559 
4224.000000	64.874267 
4223.000000	64.856243 
4222.000000	64.843606 
4221.000000	64.836907 
4220.000000	64.836025 
4219.000000	64.840602 
4218.000000	64.849758 
4217.000000	64.862680 
4216.000000	64.878273 
4215.000000	64.895963 
4214.000000	64.914965 
4213.000000	64.935398 
4212.000000	64.957642 
4211.000000	64.982700 
4210.000000	65.011644 
4209.000000	65.045094 
4208.000000	65.083336 
4207.000000	65.125179 
4206.000000	65.168118 
4205.000000	65.208292 
4204.000000	65.241384 
4203.000000	65.262985 
4202.000000	65.269732 
4201.000000	65.259981 
4200.000000	65.234255 
4199.000000	65.195274 
4198.000000	65.147566 
4197.000000	65.096402 
4196.000000	65.046596 
4195.000000	65.002155 
4194.000000	64.965534 
4193.000000	64.937257 
4192.000000	64.916372 
4191.000000	64.901328 
4190.000000	64.890146 
4189.000000	64.880919 
4188.000000	64.871859 
4187.000000	64.861679 
4186.000000	64.849472 
4185.000000	64.834499 
4184.000000	64.816451 
4183.000000	64.794945 
4182.000000	64.770221 
4181.000000	64.743304 
4180.000000	64.715766 
4179.000000	64.689540 
4178.000000	64.666771 
4177.000000	64.649677 
4176.000000	64.639854 
4175.000000	64.637851 
4174.000000	64.643359 
4173.000000	64.655280 
4172.000000	64.671993 
4171.000000	64.691734 
4170.000000	64.712882 
4169.000000	64.734530 
4168.000000	64.756369 
4167.000000	64.778876 
4166.000000	64.803004 
4165.000000	64.829778 
4164.000000	64.860224 
4163.000000	64.894747 
4162.000000	64.932823 
4161.000000	64.972496 
4160.000000	65.011239 
4159.000000	65.045189 
