PE IR       SPECTRUM    SPECTRUM    ASCII       PEDS        1.60        
  -1
BZ6C23~1.ASC
17/04/07
15:14:28.00
17/04/07
15:14:28.00
tln
$BZ1503107-1_t0024$<tbV0>[10.4,-7.8,8.0,0.0,27,1,0]
370.000000
64









2002,4.07    
MIRTGS : RIGHTBACK : INTERNAL 2
MIR : ON : INTERNAL 2
OPTKBR

0.200000
8
8.000000
FILLER
RATIO
SPECTRUM
UNLOCKED 256

DOUBLE
64
COMBINED
1
0
0


1.000000
RATIO


1
0
TRUE
51149
0
LEFT NOT FITTED RIGHT NOT FITTED 0
NONE
NONE
15600
12.000000
4.427000
51148
TRUE
1 0 8 72 0 0 0 0 

15798.010000






#HDR
-1
-1
#GR
CM-1
%T
0.00002384185791015625
0.0
5000.000000
-1.000000
4631
8
89.618158
39.993166
#DATA
5000.000000	65.631961 
4999.000000	65.417909 
4998.000000	65.180850 
4997.000000	64.944148 
4996.000000	64.728260 
4995.000000	64.548492 
4994.000000	64.413714 
4993.000000	64.326739 
4992.000000	64.285492 
4991.000000	64.285111 
4990.000000	64.318585 
4989.000000	64.377593 
4988.000000	64.453196 
4987.000000	64.535617 
4986.000000	64.614629 
4985.000000	64.679002 
4984.000000	64.720249 
4983.000000	64.733624 
4982.000000	64.719533 
4981.000000	64.683365 
4980.000000	64.635300 
4979.000000	64.587426 
4978.000000	64.550900 
4977.000000	64.532852 
4976.000000	64.534401 
4975.000000	64.550638 
4974.000000	64.572000 
4973.000000	64.587998 
4972.000000	64.590263 
4971.000000	64.576077 
4970.000000	64.549231 
4969.000000	64.519047 
4968.000000	64.496731 
4967.000000	64.492559 
4966.000000	64.512348 
4965.000000	64.555501 
4964.000000	64.614677 
4963.000000	64.677548 
4962.000000	64.730763 
4961.000000	64.761781 
4960.000000	64.762282 
4959.000000	64.729332 
4958.000000	64.666056 
4957.000000	64.580249 
4956.000000	64.482688 
4955.000000	64.385104 
4954.000000	64.298129 
4953.000000	64.230298 
4952.000000	64.187312 
4951.000000	64.171695 
4950.000000	64.183521 
4949.000000	64.220690 
4948.000000	64.280056 
4947.000000	64.357042 
4946.000000	64.446997 
4945.000000	64.545226 
4944.000000	64.646553 
4943.000000	64.745783 
4942.000000	64.835882 
4941.000000	64.908504 
4940.000000	64.953708 
4939.000000	64.961743 
4938.000000	64.925551 
4937.000000	64.843153 
4936.000000	64.719748 
4935.000000	64.568376 
4934.000000	64.408254 
4933.000000	64.261698 
4932.000000	64.150071 
4931.000000	64.089608 
4930.000000	64.088487 
4929.000000	64.145255 
4928.000000	64.249253 
4927.000000	64.382767 
4926.000000	64.524626 
4925.000000	64.654302 
4924.000000	64.755249 
4923.000000	64.817595 
4922.000000	64.837932 
4921.000000	64.820027 
4920.000000	64.772224 
4919.000000	64.706182 
4918.000000	64.634633 
4917.000000	64.568519 
4916.000000	64.517211 
4915.000000	64.485263 
4914.000000	64.473557 
4913.000000	64.478564 
4912.000000	64.493989 
4911.000000	64.512681 
4910.000000	64.528536 
4909.000000	64.538025 
4908.000000	64.540672 
4907.000000	64.538788 
4906.000000	64.535784 
4905.000000	64.534831 
4904.000000	64.537286 
4903.000000	64.542245 
4902.000000	64.546465 
4901.000000	64.546060 
4900.000000	64.537882 
4899.000000	64.520978 
4898.000000	64.497303 
4897.000000	64.471554 
4896.000000	64.449906 
4895.000000	64.438199 
4894.000000	64.440631 
4893.000000	64.457392 
4892.000000	64.485812 
4891.000000	64.521241 
4890.000000	64.558839 
4889.000000	64.595198 
4888.000000	64.629554 
4887.000000	64.663195 
4886.000000	64.699578 
4885.000000	64.742374 
4884.000000	64.794778 
4883.000000	64.858055 
4882.000000	64.930605 
4881.000000	65.008687 
4880.000000	65.085673 
4879.000000	65.153980 
4878.000000	65.205359 
4877.000000	65.233063 
4876.000000	65.232396 
4875.000000	65.202212 
4874.000000	65.145134 
4873.000000	65.067553 
4872.000000	64.978480 
4871.000000	64.888215 
4870.000000	64.807033 
4869.000000	64.743351 
4868.000000	64.702677 
4867.000000	64.687108 
4866.000000	64.695382 
4865.000000	64.723968 
4864.000000	64.768171 
4863.000000	64.823174 
4862.000000	64.884757 
4861.000000	64.949178 
4860.000000	65.012884 
4859.000000	65.072011 
4858.000000	65.121507 
4857.000000	65.156197 
4856.000000	65.171527 
4855.000000	65.164494 
4854.000000	65.134859 
4853.000000	65.085792 
4852.000000	65.024113 
4851.000000	64.958739 
4850.000000	64.899349 
4849.000000	64.854335 
4848.000000	64.829158 
4847.000000	64.825201 
4846.000000	64.839696 
4845.000000	64.867162 
4844.000000	64.900922 
4843.000000	64.934635 
4842.000000	64.963769 
4841.000000	64.986085 
4840.000000	65.001797 
4839.000000	65.012621 
4838.000000	65.021228 
4837.000000	65.030026 
4836.000000	65.040421 
4835.000000	65.053009 
4834.000000	65.066742 
4833.000000	65.079498 
4832.000000	65.088105 
4831.000000	65.089368 
4830.000000	65.080714 
4829.000000	65.060830 
4828.000000	65.030384 
4827.000000	64.991927 
4826.000000	64.949941 
4825.000000	64.909958 
4824.000000	64.877724 
4823.000000	64.857864 
4822.000000	64.852380 
4821.000000	64.860105 
4820.000000	64.877009 
4819.000000	64.897131 
4818.000000	64.913630 
4817.000000	64.920735 
4816.000000	64.915060 
4815.000000	64.896535 
4814.000000	64.867877 
4813.000000	64.834427 
4812.000000	64.801764 
4811.000000	64.775347 
4810.000000	64.759397 
4809.000000	64.756536 
4808.000000	64.767360 
4807.000000	64.790868 
4806.000000	64.824962 
4805.000000	64.866685 
4804.000000	64.912796 
4803.000000	64.959979 
4802.000000	65.004849 
4801.000000	65.044856 
4800.000000	65.077805 
4799.000000	65.103220 
4798.000000	65.121626 
4797.000000	65.135383 
4796.000000	65.148067 
4795.000000	65.163278 
4794.000000	65.183615 
4793.000000	65.210127 
4792.000000	65.241718 
4791.000000	65.274953 
4790.000000	65.304541 
4789.000000	65.324759 
4788.000000	65.330505 
4787.000000	65.318179 
4786.000000	65.286850 
4785.000000	65.238237 
4784.000000	65.177011 
4783.000000	65.109682 
4782.000000	65.043950 
4781.000000	64.987373 
4780.000000	64.946126 
4779.000000	64.924168 
4778.000000	64.922523 
4777.000000	64.939141 
4776.000000	64.969873 
4775.000000	65.009474 
4774.000000	65.052795 
4773.000000	65.095019 
4772.000000	65.133810 
4771.000000	65.169119 
4770.000000	65.203142 
4769.000000	65.238904 
4768.000000	65.279436 
4767.000000	65.326547 
4766.000000	65.379953 
4765.000000	65.436911 
4764.000000	65.493083 
4763.000000	65.543413 
4762.000000	65.583562 
4761.000000	65.610837 
4760.000000	65.625071 
4759.000000	65.628385 
4758.000000	65.624880 
4757.000000	65.619301 
4756.000000	65.616512 
4755.000000	65.619206 
4754.000000	65.628457 
4753.000000	65.641736 
4752.000000	65.654540 
4751.000000	65.660500 
4750.000000	65.653586 
4749.000000	65.629076 
4748.000000	65.584826 
4747.000000	65.522336 
4746.000000	65.446877 
4745.000000	65.366768 
4744.000000	65.291309 
4743.000000	65.229320 
4742.000000	65.187287 
4741.000000	65.167808 
4740.000000	65.169262 
4739.000000	65.186142 
4738.000000	65.210604 
4737.000000	65.235352 
4736.000000	65.255117 
4735.000000	65.267610 
4734.000000	65.273523 
4733.000000	65.275931 
4732.000000	65.278625 
4731.000000	65.283632 
4730.000000	65.290808 
4729.000000	65.297627 
4728.000000	65.300345 
4727.000000	65.294933 
4726.000000	65.279483 
4725.000000	65.254855 
4724.000000	65.225768 
4723.000000	65.199303 
4722.000000	65.184473 
4721.000000	65.189385 
4720.000000	65.220117 
4719.000000	65.278649 
4718.000000	65.362834 
4717.000000	65.466594 
4716.000000	65.581107 
4715.000000	65.696310 
4714.000000	65.801715 
4713.000000	65.887808 
4712.000000	65.946769 
4711.000000	65.973424 
4710.000000	65.965318 
4709.000000	65.922665 
4708.000000	65.849256 
4707.000000	65.751314 
4706.000000	65.637373 
4705.000000	65.516805 
4704.000000	65.399289 
4703.000000	65.293145 
4702.000000	65.204858 
4701.000000	65.137887 
4700.000000	65.092754 
4699.000000	65.067291 
4698.000000	65.056872 
4697.000000	65.055990 
4696.000000	65.058612 
4695.000000	65.060210 
4694.000000	65.057659 
4693.000000	65.050363 
4692.000000	65.039110 
4691.000000	65.026354 
4690.000000	65.014839 
4689.000000	65.007019 
4688.000000	65.004038 
4687.000000	65.005993 
4686.000000	65.011978 
4685.000000	65.020155 
4684.000000	65.028572 
4683.000000	65.035843 
4682.000000	65.041565 
4681.000000	65.046119 
4680.000000	65.050363 
4679.000000	65.055227 
4678.000000	65.061306 
4677.000000	65.068483 
4676.000000	65.076088 
4675.000000	65.082883 
4674.000000	65.087699 
4673.000000	65.090250 
4672.000000	65.091300 
4671.000000	65.092515 
4670.000000	65.096426 
4669.000000	65.105748 
4668.000000	65.122485 
4667.000000	65.147161 
4666.000000	65.178418 
4665.000000	65.213179 
4664.000000	65.246939 
4663.000000	65.274834 
4662.000000	65.292501 
4661.000000	65.297079 
4660.000000	65.287709 
4659.000000	65.266013 
4658.000000	65.235590 
4657.000000	65.201282 
4656.000000	65.168213 
4655.000000	65.140604 
4654.000000	65.121388 
4653.000000	65.111446 
4652.000000	65.110039 
4651.000000	65.114521 
4650.000000	65.121316 
4649.000000	65.126037 
4648.000000	65.124440 
4647.000000	65.113019 
4646.000000	65.089035 
4645.000000	65.051889 
4644.000000	65.003013 
4643.000000	64.945983 
4642.000000	64.885950 
4641.000000	64.828824 
4640.000000	64.780211 
4639.000000	64.743924 
4638.000000	64.721512 
4637.000000	64.711713 
4636.000000	64.711022 
4635.000000	64.714550 
4634.000000	64.717268 
4633.000000	64.715862 
4632.000000	64.709615 
4631.000000	64.700436 
4630.000000	64.692020 
4629.000000	64.688515 
4628.000000	64.693188 
4627.000000	64.707136 
4626.000000	64.728975 
4625.000000	64.754962 
4624.000000	64.779806 
4623.000000	64.798879 
4622.000000	64.808511 
4621.000000	64.807033 
4620.000000	64.794802 
4619.000000	64.773654 
4618.000000	64.746809 
4617.000000	64.718055 
4616.000000	64.691352 
4615.000000	64.669919 
4614.000000	64.655947 
4613.000000	64.650583 
4612.000000	64.653062 
4611.000000	64.661693 
4610.000000	64.672851 
4609.000000	64.681601 
4608.000000	64.682722 
4607.000000	64.671707 
4606.000000	64.646434 
4605.000000	64.607787 
4604.000000	64.560437 
4603.000000	64.511919 
4602.000000	64.471530 
4601.000000	64.448475 
4600.000000	64.449644 
4599.000000	64.477753 
4598.000000	64.531016 
4597.000000	64.602589 
4596.000000	64.682626 
4595.000000	64.758968 
4594.000000	64.819669 
4593.000000	64.854812 
4592.000000	64.857840 
4591.000000	64.827084 
4590.000000	64.765238 
4589.000000	64.679956 
4588.000000	64.581775 
4587.000000	64.483547 
4586.000000	64.398169 
4585.000000	64.336633 
4584.000000	64.306831 
4583.000000	64.310908 
4582.000000	64.345669 
4581.000000	64.402341 
4580.000000	64.468669 
4579.000000	64.531064 
4578.000000	64.577603 
4577.000000	64.600324 
4576.000000	64.596796 
4575.000000	64.570307 
4574.000000	64.528656 
4573.000000	64.482307 
4572.000000	64.441537 
4571.000000	64.414405 
4570.000000	64.404892 
4569.000000	64.412999 
4568.000000	64.434552 
4567.000000	64.463758 
4566.000000	64.493727 
4565.000000	64.518666 
4564.000000	64.534354 
4563.000000	64.538955 
4562.000000	64.532995 
4561.000000	64.517760 
4560.000000	64.496088 
4559.000000	64.471149 
4558.000000	64.446759 
4557.000000	64.426732 
4556.000000	64.414405 
4555.000000	64.412069 
4554.000000	64.420700 
4553.000000	64.439797 
4552.000000	64.467358 
4551.000000	64.500379 
4550.000000	64.535498 
4549.000000	64.569544 
4548.000000	64.600300 
4547.000000	64.626145 
4546.000000	64.646625 
4545.000000	64.661478 
4544.000000	64.670538 
4543.000000	64.672756 
4542.000000	64.666795 
4541.000000	64.650630 
4540.000000	64.622545 
4539.000000	64.581799 
4538.000000	64.529347 
4537.000000	64.468431 
4536.000000	64.404726 
4535.000000	64.345335 
4534.000000	64.297318 
4533.000000	64.266133 
4532.000000	64.254641 
4531.000000	64.261865 
4530.000000	64.282727 
4529.000000	64.309859 
4528.000000	64.335083 
4527.000000	64.351797 
4526.000000	64.356327 
4525.000000	64.349269 
4524.000000	64.335083 
4523.000000	64.321446 
4522.000000	64.317226 
4521.000000	64.330339 
4520.000000	64.365363 
4519.000000	64.423012 
4518.000000	64.498710 
4517.000000	64.583110 
4516.000000	64.663338 
4515.000000	64.726281 
4514.000000	64.760565 
4513.000000	64.759230 
4512.000000	64.720988 
4511.000000	64.650774 
4510.000000	64.558029 
4509.000000	64.455151 
4508.000000	64.353871 
4507.000000	64.263534 
4506.000000	64.188742 
4505.000000	64.129710 
4504.000000	64.082717 
4503.000000	64.042282 
4502.000000	64.003562 
4501.000000	63.964533 
4500.000000	63.926839 
4499.000000	63.894963 
4498.000000	63.875770 
4497.000000	63.876390 
4496.000000	63.901662 
4495.000000	63.952898 
4494.000000	64.028668 
4493.000000	64.125132 
4492.000000	64.237117 
4491.000000	64.359021 
4490.000000	64.486193 
4489.000000	64.614200 
4488.000000	64.738512 
4487.000000	64.853429 
4486.000000	64.952707 
4485.000000	65.028524 
4484.000000	65.074157 
4483.000000	65.083527 
4482.000000	65.053629 
4481.000000	64.984917 
4480.000000	64.884042 
4479.000000	64.760661 
4478.000000	64.627194 
4477.000000	64.495420 
4476.000000	64.376044 
4475.000000	64.274930 
4474.000000	64.193129 
4473.000000	64.126944 
4472.000000	64.070081 
4471.000000	64.015436 
4470.000000	63.957548 
4469.000000	63.894176 
4468.000000	63.826370 
4467.000000	63.758540 
4466.000000	63.696670 
4465.000000	63.642525 
4464.000000	63.594603 
4463.000000	63.549685 
4462.000000	63.504266 
4461.000000	63.457918 
4460.000000	63.414716 
4459.000000	63.371729 
4458.000000	63.330626 
4457.000000	63.308405 
4456.000000	63.324689 
4455.000000	63.389611 
4454.000000	63.506221 
4453.000000	63.667058 
4452.000000	63.855886 
4451.000000	64.056324 
4450.000000	64.245653 
4449.000000	64.395093 
4448.000000	64.482879 
4447.000000	64.497971 
4446.000000	64.447617 
4445.000000	64.355134 
4444.000000	64.255738 
4443.000000	64.184927 
4442.000000	64.158511 
4441.000000	64.164829 
4440.000000	64.152741 
4439.000000	64.053297 
4438.000000	63.784074 
4437.000000	63.307452 
4436.000000	62.633299 
4435.000000	61.880755 
4434.000000	61.245918 
4433.000000	61.007523 
4432.000000	61.494898 
4431.000000	62.968182 
4430.000000	65.583586 
4429.000000	69.242310 
4428.000000	73.575806 
4427.000000	77.975559 
4426.000000	81.685900 
4425.000000	84.018659 
4424.000000	84.531354 
4423.000000	83.147573 
4422.000000	80.215477 
4421.000000	76.363515 
4420.000000	72.345709 
4419.000000	68.833899 
4418.000000	66.255712 
4417.000000	64.763164 
4416.000000	64.243078 
4415.000000	64.429616 
4414.000000	65.012955 
4413.000000	65.708708 
4412.000000	66.334152 
4411.000000	66.777372 
4410.000000	67.022752 
4409.000000	67.098641 
4408.000000	67.071604 
4407.000000	67.001938 
4406.000000	66.934871 
4405.000000	66.892504 
4404.000000	66.870522 
4403.000000	66.856336 
4402.000000	66.828632 
4401.000000	66.782641 
4400.000000	66.718196 
4399.000000	66.642236 
4398.000000	66.562271 
4397.000000	66.482973 
4396.000000	66.402029 
4395.000000	66.305017 
4394.000000	66.180729 
4393.000000	66.030144 
4392.000000	65.858554 
4391.000000	65.676522 
4390.000000	65.494203 
4389.000000	65.317249 
4388.000000	65.156102 
4387.000000	65.023851 
4386.000000	64.921593 
4385.000000	64.840674 
4384.000000	64.771962 
4383.000000	64.706754 
4382.000000	64.639091 
4381.000000	64.567089 
4380.000000	64.488506 
4379.000000	64.403963 
4378.000000	64.316940 
4377.000000	64.232873 
4376.000000	64.157438 
4375.000000	64.095568 
4374.000000	64.048767 
4373.000000	64.016628 
4372.000000	63.995766 
4371.000000	63.983154 
4370.000000	63.976168 
4369.000000	63.975214 
4368.000000	63.983535 
4367.000000	64.006400 
4366.000000	64.048552 
4365.000000	64.112997 
4364.000000	64.198875 
4363.000000	64.300203 
4362.000000	64.405894 
4361.000000	64.502406 
4360.000000	64.576411 
4359.000000	64.616537 
4358.000000	64.616131 
4357.000000	64.575219 
4356.000000	64.500308 
4355.000000	64.402389 
4354.000000	64.294934 
4353.000000	64.191651 
4352.000000	64.104104 
4351.000000	64.040088 
4350.000000	64.003062 
4349.000000	63.993191 
4348.000000	64.007806 
4347.000000	64.042782 
4346.000000	64.093446 
4345.000000	64.155149 
4344.000000	64.223289 
4343.000000	64.292430 
4342.000000	64.357519 
4341.000000	64.413166 
4340.000000	64.455389 
4339.000000	64.481854 
4338.000000	64.492988 
4337.000000	64.492034 
4336.000000	64.484238 
4335.000000	64.475655 
4334.000000	64.471435 
4333.000000	64.474511 
4332.000000	64.484620 
4331.000000	64.498233 
4330.000000	64.509820 
4329.000000	64.513158 
4328.000000	64.503550 
4327.000000	64.478969 
4326.000000	64.440560 
4325.000000	64.392495 
4324.000000	64.340353 
4323.000000	64.290165 
4322.000000	64.246845 
4321.000000	64.213776 
4320.000000	64.192032 
4319.000000	64.181232 
4318.000000	64.180612 
4317.000000	64.189457 
4316.000000	64.207220 
4315.000000	64.233851 
4314.000000	64.268946 
4313.000000	64.312195 
4312.000000	64.362502 
4311.000000	64.418244 
4310.000000	64.476799 
4309.000000	64.535641 
4308.000000	64.592647 
4307.000000	64.646029 
4306.000000	64.694476 
4305.000000	64.736890 
4304.000000	64.772295 
4303.000000	64.799547 
4302.000000	64.817619 
4301.000000	64.825987 
4300.000000	64.824986 
4299.000000	64.816188 
4298.000000	64.802312 
4297.000000	64.786839 
4296.000000	64.773488 
4295.000000	64.765429 
4294.000000	64.765334 
4293.000000	64.774942 
4292.000000	64.795231 
4291.000000	64.826631 
4290.000000	64.868521 
4289.000000	64.919543 
4288.000000	64.977049 
4287.000000	65.037202 
4286.000000	65.094947 
4285.000000	65.144515 
4284.000000	65.180230 
4283.000000	65.197372 
4282.000000	65.193724 
4281.000000	65.170121 
4280.000000	65.130424 
4279.000000	65.080785 
4278.000000	65.028524 
4277.000000	64.980340 
4276.000000	64.940977 
4275.000000	64.912366 
4274.000000	64.894104 
4273.000000	64.883732 
4272.000000	64.878225 
4271.000000	64.874649 
4270.000000	64.870834 
4269.000000	64.865636 
4268.000000	64.858531 
4267.000000	64.849781 
4266.000000	64.839744 
4265.000000	64.829182 
4264.000000	64.818763 
4263.000000	64.809155 
4262.000000	64.800882 
4261.000000	64.794301 
4260.000000	64.789748 
4259.000000	64.787173 
4258.000000	64.786195 
4257.000000	64.785909 
4256.000000	64.784812 
4255.000000	64.781188 
4254.000000	64.773583 
4253.000000	64.761137 
4252.000000	64.744377 
4251.000000	64.725279 
4250.000000	64.707350 
4249.000000	64.695310 
4248.000000	64.693975 
4247.000000	64.706873 
4246.000000	64.735341 
4245.000000	64.778041 
4244.000000	64.830732 
4243.000000	64.886951 
4242.000000	64.939332 
4241.000000	64.981222 
4240.000000	65.008163 
4239.000000	65.019202 
4238.000000	65.016913 
4237.000000	65.006494 
4236.000000	64.994311 
4235.000000	64.986252 
4234.000000	64.986038 
4233.000000	64.994335 
4232.000000	65.008902 
4231.000000	65.025377 
4230.000000	65.038943 
4229.000000	65.046119 
4228.000000	65.045642 
4227.000000	65.038943 
4226.000000	65.029859 
4225.000000	65.023422 
4224.000000	65.024805 
4223.000000	65.037846 
4222.000000	65.064120 
4221.000000	65.102267 
4220.000000	65.148425 
4219.000000	65.196394 
4218.000000	65.239596 
4217.000000	65.271759 
4216.000000	65.288138 
4215.000000	65.285944 
4214.000000	65.265107 
4213.000000	65.227413 
4212.000000	65.176105 
4211.000000	65.115213 
4210.000000	65.048909 
4209.000000	64.981365 
4208.000000	64.917087 
4207.000000	64.860343 
4206.000000	64.814853 
4205.000000	64.783692 
4204.000000	64.768958 
4203.000000	64.770984 
4202.000000	64.787864 
4201.000000	64.815807 
4200.000000	64.849352 
4199.000000	64.882683 
4198.000000	64.910483 
4197.000000	64.929080 
4196.000000	64.937353 
4195.000000	64.936923 
4194.000000	64.931869 
4193.000000	64.927315 
4192.000000	64.928531 
4191.000000	64.939546 
4190.000000	64.962434 
4189.000000	64.997482 
4188.000000	65.042567 
4187.000000	65.094566 
4186.000000	65.148544 
4185.000000	65.199637 
4184.000000	65.242218 
4183.000000	65.271234 
4182.000000	65.281987 
4181.000000	65.270948 
4180.000000	65.236210 
4179.000000	65.178418 
4178.000000	65.100884 
4177.000000	65.009355 
4176.000000	64.912438 
4175.000000	64.820480 
4174.000000	64.744281 
4173.000000	64.693498 
4172.000000	64.675354 
4171.000000	64.693450 
4170.000000	64.747118 
4169.000000	64.831352 
4168.000000	64.937138 
4167.000000	65.053081 
4166.000000	65.166449 
4165.000000	65.265536 
4164.000000	65.340590 
4163.000000	65.385723 
4162.000000	65.399336 
4161.000000	65.384292 
4160.000000	65.347266 
4159.000000	65.296530 
