PE IR       SPECTRUM    SPECTRUM    ASCII       PEDS        1.60        
  -1
BZ6BA1~1.ASC
17/04/07
14:16:31.00
17/04/07
14:16:31.00
tln
$BZ1503107-1_t0013$<tbV0>[10.4,-10.4,8.0,0.0,27,1,0]
370.000000
64









2002,4.07    
MIRTGS : RIGHTBACK : INTERNAL 2
MIR : ON : INTERNAL 2
OPTKBR

0.200000
8
8.000000
FILLER
RATIO
SPECTRUM
UNLOCKED 256

DOUBLE
64
COMBINED
1
0
0


1.000000
RATIO


1
0
TRUE
51149
0
LEFT NOT FITTED RIGHT NOT FITTED 0
NONE
NONE
15600
12.000000
4.427000
51148
TRUE
1 0 8 72 0 0 0 0 

15798.010000






#HDR
-1
-1
#GR
CM-1
%T
0.00002384185791015625
0.0
5000.000000
-1.000000
4631
8
76.609730
46.344876
#DATA
5000.000000	64.152169 
4999.000000	64.060258 
4998.000000	63.941383 
4997.000000	63.787674 
4996.000000	63.601040 
4995.000000	63.392257 
4994.000000	63.183951 
4993.000000	63.001418 
4992.000000	62.875270 
4991.000000	62.830519 
4990.000000	62.888956 
4989.000000	63.060998 
4988.000000	63.349199 
4987.000000	63.745880 
4986.000000	64.232850 
4985.000000	64.781498 
4984.000000	65.354180 
4983.000000	65.907001 
4982.000000	66.392731 
4981.000000	66.766309 
4980.000000	66.991305 
4979.000000	67.045164 
4978.000000	66.926145 
4977.000000	66.652536 
4976.000000	66.263198 
4975.000000	65.808129 
4974.000000	65.344095 
4973.000000	64.921641 
4972.000000	64.580059 
4971.000000	64.340424 
4970.000000	64.206600 
4969.000000	64.168286 
4968.000000	64.206051 
4967.000000	64.299249 
4966.000000	64.429378 
4965.000000	64.584302 
4964.000000	64.756155 
4963.000000	64.939045 
4962.000000	65.123724 
4961.000000	65.295624 
4960.000000	65.433454 
4959.000000	65.513372 
4958.000000	65.514039 
4957.000000	65.423750 
4956.000000	65.245246 
4955.000000	64.998173 
4954.000000	64.715957 
4953.000000	64.440202 
4952.000000	64.210629 
4951.000000	64.055132 
4950.000000	63.982915 
4949.000000	63.984704 
4948.000000	64.035153 
4947.000000	64.099431 
4946.000000	64.143967 
4945.000000	64.144635 
4944.000000	64.093875 
4943.000000	64.000463 
4942.000000	63.886952 
4941.000000	63.778781 
4940.000000	63.699293 
4939.000000	63.661718 
4938.000000	63.666582 
4937.000000	63.701391 
4936.000000	63.747000 
4935.000000	63.784003 
4934.000000	63.800644 
4933.000000	63.796782 
4932.000000	63.785004 
4931.000000	63.786196 
4930.000000	63.824486 
4929.000000	63.918805 
4928.000000	64.076995 
4927.000000	64.291453 
4926.000000	64.539480 
4925.000000	64.786267 
4924.000000	64.994072 
4923.000000	65.129017 
4922.000000	65.167593 
4921.000000	65.101909 
4920.000000	64.941859 
4919.000000	64.712691 
4918.000000	64.448547 
4917.000000	64.186286 
4916.000000	63.959670 
4915.000000	63.792896 
4914.000000	63.699293 
4913.000000	63.679122 
4912.000000	63.722753 
4911.000000	63.813471 
4910.000000	63.931727 
4909.000000	64.059710 
4908.000000	64.182496 
4907.000000	64.292097 
4906.000000	64.385485 
4905.000000	64.465165 
4904.000000	64.535474 
4903.000000	64.602065 
4902.000000	64.669251 
4901.000000	64.739465 
4900.000000	64.812278 
4899.000000	64.885449 
4898.000000	64.955258 
4897.000000	65.018415 
4896.000000	65.072345 
4895.000000	65.116143 
4894.000000	65.150022 
4893.000000	65.174794 
4892.000000	65.191268 
4891.000000	65.200734 
4890.000000	65.203809 
4889.000000	65.201139 
4888.000000	65.192604 
4887.000000	65.178704 
4886.000000	65.159416 
4885.000000	65.136194 
4884.000000	65.109586 
4883.000000	65.079379 
4882.000000	65.044426 
4881.000000	65.003418 
4880.000000	64.955353 
4879.000000	64.900398 
4878.000000	64.840793 
4877.000000	64.780855 
4876.000000	64.727425 
4875.000000	64.688420 
4874.000000	64.671039 
4873.000000	64.680027 
4872.000000	64.716553 
4871.000000	64.777588 
4870.000000	64.855957 
4869.000000	64.941406 
4868.000000	65.023064 
4867.000000	65.090990 
4866.000000	65.137815 
4865.000000	65.159463 
4864.000000	65.155625 
4863.000000	65.128874 
4862.000000	65.083193 
4861.000000	65.023136 
4860.000000	64.953088 
4859.000000	64.877057 
4858.000000	64.799261 
4857.000000	64.724493 
4856.000000	64.658164 
4855.000000	64.606928 
4854.000000	64.577627 
4853.000000	64.576864 
4852.000000	64.608979 
4851.000000	64.674782 
4850.000000	64.770436 
4849.000000	64.887356 
4848.000000	65.013241 
4847.000000	65.134263 
4846.000000	65.237474 
4845.000000	65.312957 
4844.000000	65.355420 
4843.000000	65.365242 
4842.000000	65.347051 
4841.000000	65.309000 
4840.000000	65.259528 
4839.000000	65.205669 
4838.000000	65.151596 
4837.000000	65.098810 
4836.000000	65.047264 
4835.000000	64.997339 
4834.000000	64.950895 
4833.000000	64.912390 
4832.000000	64.888024 
4831.000000	64.885330 
4830.000000	64.908933 
4829.000000	64.958381 
4828.000000	65.026855 
4827.000000	65.101194 
4826.000000	65.165209 
4825.000000	65.203166 
4824.000000	65.204977 
4823.000000	65.169072 
4822.000000	65.104174 
4821.000000	65.027403 
4820.000000	64.959955 
4819.000000	64.920949 
4818.000000	64.921474 
4817.000000	64.960789 
4816.000000	65.025472 
4815.000000	65.093255 
4814.000000	65.139031 
4813.000000	65.143299 
4812.000000	65.096759 
4811.000000	65.005993 
4810.000000	64.891552 
4809.000000	64.784526 
4808.000000	64.717388 
4807.000000	64.716172 
4806.000000	64.793419 
4805.000000	64.944148 
4804.000000	65.147495 
4803.000000	65.370392 
4802.000000	65.576720 
4801.000000	65.734076 
4800.000000	65.821218 
4799.000000	65.831899 
4798.000000	65.774798 
4797.000000	65.670013 
4796.000000	65.542554 
4795.000000	65.417313 
4794.000000	65.313243 
4793.000000	65.241932 
4792.000000	65.206336 
4791.000000	65.202546 
4790.000000	65.221476 
4789.000000	65.252947 
4788.000000	65.287256 
4787.000000	65.315222 
4786.000000	65.329885 
4785.000000	65.324854 
4784.000000	65.296959 
4783.000000	65.245819 
4782.000000	65.175127 
4781.000000	65.092754 
4780.000000	65.008401 
4779.000000	64.932942 
4778.000000	64.873909 
4777.000000	64.835047 
4776.000000	64.812827 
4775.000000	64.797496 
4774.000000	64.775228 
4773.000000	64.731502 
4772.000000	64.656710 
4771.000000	64.549040 
4770.000000	64.417338 
4769.000000	64.278912 
4768.000000	64.158964 
4767.000000	64.084386 
4766.000000	64.077854 
4765.000000	64.151406 
4764.000000	64.302349 
4763.000000	64.512777 
4762.000000	64.752864 
4761.000000	64.986896 
4760.000000	65.180134 
4759.000000	65.306520 
4758.000000	65.353178 
4757.000000	65.323042 
4756.000000	65.232634 
4755.000000	65.107870 
4754.000000	64.977216 
4753.000000	64.865732 
4752.000000	64.791393 
4751.000000	64.761352 
4750.000000	64.774107 
4749.000000	64.819431 
4748.000000	64.884042 
4747.000000	64.953064 
4746.000000	65.014696 
4745.000000	65.060210 
4744.000000	65.084481 
4743.000000	65.085744 
4742.000000	65.064430 
4741.000000	65.023684 
4740.000000	64.968323 
4739.000000	64.905405 
4738.000000	64.843010 
4737.000000	64.789557 
4736.000000	64.751911 
4735.000000	64.735007 
4734.000000	64.739847 
4733.000000	64.763617 
4732.000000	64.798998 
4731.000000	64.836120 
4730.000000	64.863491 
4729.000000	64.870929 
4728.000000	64.850735 
4727.000000	64.798402 
4726.000000	64.714288 
4725.000000	64.603519 
4724.000000	64.475703 
4723.000000	64.343500 
4722.000000	64.220643 
4721.000000	64.119315 
4720.000000	64.048409 
4719.000000	64.012718 
4718.000000	64.010882 
4717.000000	64.035892 
4716.000000	64.076113 
4715.000000	64.117622 
4714.000000	64.147686 
4713.000000	64.157533 
4712.000000	64.144563 
4711.000000	64.112806 
4710.000000	64.072155 
4709.000000	64.035749 
4708.000000	64.016842 
4707.000000	64.025235 
4706.000000	64.064621 
4705.000000	64.131402 
4704.000000	64.216089 
4703.000000	64.305090 
4702.000000	64.383935 
4701.000000	64.441132 
4700.000000	64.470434 
4699.000000	64.472889 
4698.000000	64.455485 
4697.000000	64.430022 
4696.000000	64.409518 
4695.000000	64.405035 
4694.000000	64.422798 
4693.000000	64.462828 
4692.000000	64.519906 
4691.000000	64.584445 
4690.000000	64.645743 
4689.000000	64.694380 
4688.000000	64.724922 
4687.000000	64.736652 
4686.000000	64.733481 
4685.000000	64.721989 
4684.000000	64.709758 
4683.000000	64.703512 
4682.000000	64.707398 
4681.000000	64.722824 
4680.000000	64.748239 
4679.000000	64.779877 
4678.000000	64.813280 
4677.000000	64.844775 
4676.000000	64.872384 
4675.000000	64.896106 
4674.000000	64.917826 
4673.000000	64.939951 
4672.000000	64.964842 
4671.000000	64.994311 
4670.000000	65.028285 
4669.000000	65.064477 
4668.000000	65.098857 
4667.000000	65.127253 
4666.000000	65.145063 
4665.000000	65.149164 
4664.000000	65.137362 
4663.000000	65.109395 
4662.000000	65.066075 
4661.000000	65.009450 
4660.000000	64.942693 
4659.000000	64.869904 
4658.000000	64.796113 
4657.000000	64.727234 
4656.000000	64.670133 
4655.000000	64.631986 
4654.000000	64.619469 
4653.000000	64.637017 
4652.000000	64.685630 
4651.000000	64.761424 
4650.000000	64.855575 
4649.000000	64.954781 
4648.000000	65.043401 
4647.000000	65.105986 
4646.000000	65.130043 
4645.000000	65.108704 
4644.000000	65.042161 
4643.000000	64.937567 
4642.000000	64.808082 
4641.000000	64.669561 
4640.000000	64.537930 
4639.000000	64.425635 
4638.000000	64.340257 
4637.000000	64.283013 
4636.000000	64.249682 
4635.000000	64.232730 
4634.000000	64.224123 
4633.000000	64.217758 
4632.000000	64.211273 
4631.000000	64.206552 
4630.000000	64.208459 
4629.000000	64.222764 
4628.000000	64.253592 
4627.000000	64.301371 
4626.000000	64.362049 
4625.000000	64.427399 
4624.000000	64.486980 
4623.000000	64.530754 
4622.000000	64.551758 
4621.000000	64.547395 
4620.000000	64.520597 
4619.000000	64.478683 
4618.000000	64.432001 
4617.000000	64.391112 
4616.000000	64.365077 
4615.000000	64.358949 
4614.000000	64.373874 
4613.000000	64.407300 
4612.000000	64.454436 
4611.000000	64.509606 
4610.000000	64.567971 
4609.000000	64.626097 
4608.000000	64.682602 
4607.000000	64.737796 
4606.000000	64.792037 
4605.000000	64.844679 
4604.000000	64.893794 
4603.000000	64.935898 
4602.000000	64.967131 
4601.000000	64.984130 
4600.000000	64.985108 
4599.000000	64.970564 
4598.000000	64.944100 
4597.000000	64.911627 
4596.000000	64.880156 
4595.000000	64.856505 
4594.000000	64.846801 
4593.000000	64.854288 
4592.000000	64.879369 
4591.000000	64.918208 
4590.000000	64.964199 
4589.000000	65.008211 
4588.000000	65.040588 
4587.000000	65.053319 
4586.000000	65.041637 
4585.000000	65.005683 
4584.000000	64.950251 
4583.000000	64.884424 
4582.000000	64.819478 
4581.000000	64.766216 
4580.000000	64.732503 
4579.000000	64.721250 
4578.000000	64.729857 
4577.000000	64.750647 
4576.000000	64.772558 
4575.000000	64.784121 
4574.000000	64.775991 
4573.000000	64.742922 
4572.000000	64.684700 
4571.000000	64.605236 
4570.000000	64.512014 
4569.000000	64.413428 
4568.000000	64.318013 
4567.000000	64.233040 
4566.000000	64.163947 
4565.000000	64.114642 
4564.000000	64.086675 
4563.000000	64.079618 
4562.000000	64.090967 
4561.000000	64.115834 
4560.000000	64.148211 
4559.000000	64.181041 
4558.000000	64.208054 
4557.000000	64.223933 
4556.000000	64.226222 
4555.000000	64.215183 
4554.000000	64.194035 
4553.000000	64.167928 
4552.000000	64.143466 
4551.000000	64.127016 
4550.000000	64.123773 
4549.000000	64.136409 
4548.000000	64.164447 
4547.000000	64.204287 
4546.000000	64.250636 
4545.000000	64.298033 
4544.000000	64.342379 
4543.000000	64.381599 
4542.000000	64.416646 
4541.000000	64.449787 
4540.000000	64.482355 
4539.000000	64.514231 
4538.000000	64.543342 
4537.000000	64.566111 
4536.000000	64.578294 
4535.000000	64.576554 
4534.000000	64.561343 
4533.000000	64.534926 
4532.000000	64.501786 
4531.000000	64.466190 
4530.000000	64.431834 
4529.000000	64.399695 
4528.000000	64.368104 
4527.000000	64.333653 
4526.000000	64.293169 
4525.000000	64.244508 
4524.000000	64.187741 
4523.000000	64.126753 
4522.000000	64.068841 
4521.000000	64.021205 
4520.000000	63.990259 
4519.000000	63.979291 
4518.000000	63.989615 
4517.000000	64.020514 
4516.000000	64.070916 
4515.000000	64.141130 
4514.000000	64.231967 
4513.000000	64.340901 
4512.000000	64.463949 
4511.000000	64.594197 
4510.000000	64.724135 
4509.000000	64.846968 
4508.000000	64.957308 
4507.000000	65.051984 
4506.000000	65.129685 
4505.000000	65.191268 
4504.000000	65.238428 
4503.000000	65.270757 
4502.000000	65.291905 
4501.000000	65.309786 
4500.000000	65.337944 
4499.000000	65.393328 
4498.000000	65.493988 
4497.000000	65.654301 
4496.000000	65.876960 
4495.000000	66.150760 
4494.000000	66.449952 
4493.000000	66.741561 
4492.000000	66.990065 
4491.000000	67.171025 
4490.000000	67.279934 
4489.000000	67.336010 
4488.000000	67.380809 
4487.000000	67.463397 
4486.000000	67.631363 
4485.000000	67.906665 
4484.000000	68.282151 
4483.000000	68.710064 
4482.000000	69.116401 
4481.000000	69.411039 
4480.000000	69.513416 
4479.000000	69.370985 
4478.000000	68.979048 
4477.000000	68.377757 
4476.000000	67.645287 
4475.000000	66.877532 
4474.000000	66.167116 
4473.000000	65.581488 
4472.000000	65.151762 
4471.000000	64.867448 
4470.000000	64.686632 
4469.000000	64.551091 
4468.000000	64.406585 
4467.000000	64.222931 
4466.000000	64.001750 
4465.000000	63.766002 
4464.000000	63.553285 
4463.000000	63.393950 
4462.000000	63.306188 
4461.000000	63.284969 
4460.000000	63.309788 
4459.000000	63.355278 
4458.000000	63.395690 
4457.000000	63.424015 
4456.000000	63.435888 
4455.000000	63.429427 
4454.000000	63.393616 
4453.000000	63.301086 
4452.000000	63.119745 
4451.000000	62.813138 
4450.000000	62.371945 
4449.000000	61.820077 
4448.000000	61.228561 
4447.000000	60.706257 
4446.000000	60.370159 
4445.000000	60.317873 
4444.000000	60.574436 
4443.000000	61.079049 
4442.000000	61.685490 
4441.000000	62.200999 
4440.000000	62.439417 
4439.000000	62.281179 
4438.000000	61.717867 
4437.000000	60.862851 
4436.000000	59.921693 
4435.000000	59.141325 
4434.000000	58.735942 
4433.000000	58.835339 
4432.000000	59.447860 
4431.000000	60.464763 
4430.000000	61.696767 
4429.000000	62.924027 
4428.000000	63.958597 
4427.000000	64.682984 
4426.000000	65.072727 
4425.000000	65.186643 
4424.000000	65.128684 
4423.000000	65.016603 
4422.000000	64.934945 
4421.000000	64.926552 
4420.000000	64.987134 
4419.000000	65.082979 
4418.000000	65.178179 
4417.000000	65.240883 
4416.000000	65.260529 
4415.000000	65.241670 
4414.000000	65.202522 
4413.000000	65.162062 
4412.000000	65.134549 
4411.000000	65.125751 
4410.000000	65.132379 
4409.000000	65.148353 
4408.000000	65.165805 
4407.000000	65.180087 
4406.000000	65.189528 
4405.000000	65.195727 
4404.000000	65.201878 
4403.000000	65.209245 
4402.000000	65.218329 
4401.000000	65.226769 
4400.000000	65.232849 
4399.000000	65.237069 
4398.000000	65.241813 
4397.000000	65.254783 
4396.000000	65.280270 
4395.000000	65.314912 
4394.000000	65.351772 
4393.000000	65.382051 
4392.000000	65.397191 
4391.000000	65.391612 
4390.000000	65.363836 
4389.000000	65.317082 
4388.000000	65.258359 
4387.000000	65.196824 
4386.000000	65.142536 
4385.000000	65.103769 
4384.000000	65.085506 
4383.000000	65.087914 
4382.000000	65.106987 
4381.000000	65.135169 
4380.000000	65.163493 
4379.000000	65.183615 
4378.000000	65.189552 
4377.000000	65.179133 
4376.000000	65.153431 
4375.000000	65.117049 
4374.000000	65.076398 
4373.000000	65.038323 
4372.000000	65.008592 
4371.000000	64.990472 
4370.000000	64.984297 
4369.000000	64.987134 
4368.000000	64.994287 
4367.000000	64.999771 
4366.000000	64.998054 
4365.000000	64.985322 
4364.000000	64.960169 
4363.000000	64.923930 
4362.000000	64.880108 
4361.000000	64.833664 
4360.000000	64.789605 
4359.000000	64.752173 
4358.000000	64.723658 
4357.000000	64.704251 
4356.000000	64.692068 
4355.000000	64.683747 
4354.000000	64.675331 
4353.000000	64.663267 
4352.000000	64.645528 
4351.000000	64.621877 
4350.000000	64.594435 
4349.000000	64.566326 
4348.000000	64.541625 
4347.000000	64.523983 
4346.000000	64.516186 
4345.000000	64.519143 
4344.000000	64.532279 
4343.000000	64.553451 
4342.000000	64.580059 
4341.000000	64.609479 
4340.000000	64.639735 
4339.000000	64.669299 
4338.000000	64.697813 
4337.000000	64.725446 
4336.000000	64.752697 
4335.000000	64.779758 
4334.000000	64.806556 
4333.000000	64.832472 
4332.000000	64.856123 
4331.000000	64.875268 
4330.000000	64.887666 
4329.000000	64.891052 
4328.000000	64.883470 
4327.000000	64.863777 
4326.000000	64.832186 
4325.000000	64.790391 
4324.000000	64.741587 
4323.000000	64.689970 
4322.000000	64.640283 
4321.000000	64.597201 
4320.000000	64.564561 
4319.000000	64.544844 
4318.000000	64.538645 
4317.000000	64.544916 
4316.000000	64.561057 
4315.000000	64.584159 
4314.000000	64.611029 
4313.000000	64.639925 
4312.000000	64.670133 
4311.000000	64.702415 
4310.000000	64.737915 
4309.000000	64.777731 
4308.000000	64.821863 
4307.000000	64.868974 
4306.000000	64.916038 
4305.000000	64.959216 
4304.000000	64.994645 
4303.000000	65.019512 
4302.000000	65.032458 
4301.000000	65.033864 
4300.000000	65.025091 
4299.000000	65.008282 
4298.000000	64.985275 
4297.000000	64.957427 
4296.000000	64.925336 
4295.000000	64.889192 
4294.000000	64.849352 
4293.000000	64.807295 
4292.000000	64.765596 
4291.000000	64.727663 
4290.000000	64.697337 
4289.000000	64.677882 
4288.000000	64.671206 
4287.000000	64.677000 
4286.000000	64.693140 
4285.000000	64.716029 
4284.000000	64.741754 
4283.000000	64.766955 
4282.000000	64.789700 
4281.000000	64.809489 
4280.000000	64.827179 
4279.000000	64.844083 
4278.000000	64.861464 
4277.000000	64.879655 
4276.000000	64.898061 
4275.000000	64.914846 
4274.000000	64.928007 
4273.000000	64.935183 
4272.000000	64.935207 
4271.000000	64.927053 
4270.000000	64.910674 
4269.000000	64.885711 
4268.000000	64.852309 
4267.000000	64.810109 
4266.000000	64.758658 
4265.000000	64.698195 
4264.000000	64.630079 
4263.000000	64.557480 
4262.000000	64.485335 
4261.000000	64.420342 
4260.000000	64.369463 
4259.000000	64.339280 
4258.000000	64.334225 
4257.000000	64.355707 
4256.000000	64.401316 
4255.000000	64.465689 
4254.000000	64.541220 
4253.000000	64.619421 
4252.000000	64.692258 
4251.000000	64.753603 
4250.000000	64.799904 
4249.000000	64.830183 
4248.000000	64.846110 
4247.000000	64.851379 
4246.000000	64.850831 
4245.000000	64.849567 
4244.000000	64.851641 
4243.000000	64.859867 
4242.000000	64.874815 
4241.000000	64.895629 
4240.000000	64.919710 
4239.000000	64.943981 
4238.000000	64.965105 
4237.000000	64.980792 
4236.000000	64.989590 
4235.000000	64.991188 
4234.000000	64.985871 
4233.000000	64.974737 
4232.000000	64.958572 
4231.000000	64.937686 
4230.000000	64.912128 
4229.000000	64.882135 
4228.000000	64.848637 
4227.000000	64.813566 
4226.000000	64.779853 
4225.000000	64.750933 
4224.000000	64.730143 
4223.000000	64.719486 
4222.000000	64.718723 
4221.000000	64.725327 
4220.000000	64.735293 
4219.000000	64.744091 
4218.000000	64.747405 
4217.000000	64.742708 
4216.000000	64.729976 
4215.000000	64.711380 
4214.000000	64.690303 
4213.000000	64.670705 
4212.000000	64.655566 
4211.000000	64.646792 
4210.000000	64.644360 
4209.000000	64.647364 
4208.000000	64.654469 
4207.000000	64.664840 
4206.000000	64.678692 
4205.000000	64.696645 
4204.000000	64.718985 
4203.000000	64.745116 
4202.000000	64.773130 
4201.000000	64.799380 
4200.000000	64.819025 
4199.000000	64.827656 
4198.000000	64.822673 
4197.000000	64.804029 
4196.000000	64.774441 
4195.000000	64.739418 
4194.000000	64.705181 
4193.000000	64.676976 
4192.000000	64.657020 
4191.000000	64.644241 
4190.000000	64.634251 
4189.000000	64.620566 
4188.000000	64.596748 
4187.000000	64.558339 
4186.000000	64.504671 
4185.000000	64.439082 
4184.000000	64.369249 
4183.000000	64.304256 
4182.000000	64.254689 
4181.000000	64.229226 
4180.000000	64.234399 
4179.000000	64.272570 
4178.000000	64.342546 
4177.000000	64.439821 
4176.000000	64.557218 
4175.000000	64.685940 
4174.000000	64.816308 
4173.000000	64.938616 
4172.000000	65.044236 
4171.000000	65.126585 
4170.000000	65.182137 
4169.000000	65.210509 
4168.000000	65.215325 
4167.000000	65.202569 
4166.000000	65.179848 
4165.000000	65.153765 
4164.000000	65.129899 
4163.000000	65.110707 
4162.000000	65.096330 
4161.000000	65.084195 
4160.000000	65.071439 
4159.000000	65.054821 
