PE IR       SPECTRUM    SPECTRUM    ASCII       PEDS        1.60        
  -1
BZ6EA1~1.ASC
17/04/07
14:30:22.00
17/04/07
14:30:22.00
tln
$BZ1503107-1_t0016$<tbV0>[2.6,-10.4,8.0,0.0,27,1,0]
370.000000
64









2002,4.07    
MIRTGS : RIGHTBACK : INTERNAL 2
MIR : ON : INTERNAL 2
OPTKBR

0.200000
8
8.000000
FILLER
RATIO
SPECTRUM
UNLOCKED 256

DOUBLE
64
COMBINED
1
0
0


1.000000
RATIO


1
0
TRUE
51149
0
LEFT NOT FITTED RIGHT NOT FITTED 0
NONE
NONE
15600
12.000000
4.427000
51148
TRUE
1 0 8 72 0 0 0 0 

15798.010000






#HDR
-1
-1
#GR
CM-1
%T
0.00002384185791015625
0.0
5000.000000
-1.000000
4631
8
75.354671
38.180375
#DATA
5000.000000	64.225554 
4999.000000	64.001202 
4998.000000	63.813614 
4997.000000	63.671565 
4996.000000	63.581252 
4995.000000	63.543939 
4994.000000	63.560581 
4993.000000	63.628983 
4992.000000	63.747644 
4991.000000	63.912034 
4990.000000	64.117074 
4989.000000	64.354920 
4988.000000	64.613437 
4987.000000	64.875411 
4986.000000	65.118741 
4985.000000	65.318918 
4984.000000	65.451526 
4983.000000	65.496993 
4982.000000	65.445041 
4981.000000	65.297698 
4980.000000	65.071129 
4979.000000	64.792728 
4978.000000	64.496326 
4977.000000	64.215707 
4976.000000	63.978886 
4975.000000	63.804745 
4974.000000	63.699197 
4973.000000	63.660526 
4972.000000	63.681960 
4971.000000	63.757848 
4970.000000	63.884329 
4969.000000	64.060926 
4968.000000	64.286589 
4967.000000	64.557313 
4966.000000	64.859223 
4965.000000	65.171861 
4964.000000	65.467762 
4963.000000	65.720367 
4962.000000	65.908098 
4961.000000	66.022944 
4960.000000	66.072845 
4959.000000	66.079235 
4958.000000	66.072130 
4957.000000	66.079068 
4956.000000	66.117262 
4955.000000	66.187787 
4954.000000	66.275262 
4953.000000	66.352820 
4952.000000	66.389679 
4951.000000	66.363406 
4950.000000	66.264557 
4949.000000	66.100072 
4948.000000	65.889453 
4947.000000	65.660619 
4946.000000	65.439844 
4945.000000	65.243840 
4944.000000	65.075898 
4943.000000	64.928555 
4942.000000	64.785385 
4941.000000	64.629650 
4940.000000	64.448428 
4939.000000	64.238047 
4938.000000	64.005303 
4937.000000	63.765072 
4936.000000	63.537621 
4935.000000	63.339376 
4934.000000	63.186383 
4933.000000	63.089895 
4932.000000	63.057971 
4931.000000	63.093495 
4930.000000	63.197517 
4929.000000	63.368105 
4928.000000	63.598513 
4927.000000	63.876318 
4926.000000	64.182400 
4925.000000	64.493417 
4924.000000	64.784336 
4923.000000	65.033483 
4922.000000	65.226697 
4921.000000	65.359473 
4920.000000	65.439510 
4919.000000	65.481090 
4918.000000	65.501570 
4917.000000	65.513920 
4916.000000	65.526294 
4915.000000	65.536832 
4914.000000	65.537428 
4913.000000	65.515303 
4912.000000	65.462636 
4911.000000	65.375590 
4910.000000	65.258026 
4909.000000	65.119600 
4908.000000	64.974141 
4907.000000	64.835810 
4906.000000	64.715623 
4905.000000	64.620471 
4904.000000	64.552259 
4903.000000	64.510369 
4902.000000	64.493203 
4901.000000	64.499950 
4900.000000	64.531183 
4899.000000	64.588189 
4898.000000	64.671993 
4897.000000	64.779591 
4896.000000	64.904451 
4895.000000	65.036988 
4894.000000	65.166544 
4893.000000	65.282797 
4892.000000	65.377902 
4891.000000	65.448951 
4890.000000	65.496873 
4889.000000	65.525579 
4888.000000	65.539813 
4887.000000	65.544915 
4886.000000	65.543413 
4885.000000	65.536832 
4884.000000	65.523099 
4883.000000	65.499353 
4882.000000	65.461421 
4881.000000	65.407323 
4880.000000	65.335798 
4879.000000	65.247488 
4878.000000	65.144705 
4877.000000	65.031743 
4876.000000	64.912962 
4875.000000	64.792585 
4874.000000	64.675378 
4873.000000	64.566993 
4872.000000	64.473628 
4871.000000	64.402294 
4870.000000	64.359617 
4869.000000	64.351296 
4868.000000	64.380717 
4867.000000	64.447855 
4866.000000	64.547562 
4865.000000	64.669895 
4864.000000	64.801287 
4863.000000	64.926481 
4862.000000	65.029644 
4861.000000	65.098237 
4860.000000	65.124940 
4859.000000	65.109324 
4858.000000	65.057420 
4857.000000	64.981317 
4856.000000	64.895844 
4855.000000	64.817237 
4854.000000	64.760184 
4853.000000	64.736080 
4852.000000	64.751648 
4851.000000	64.808201 
4850.000000	64.901947 
4849.000000	65.023779 
4848.000000	65.160822 
4847.000000	65.298032 
4846.000000	65.420770 
4845.000000	65.516614 
4844.000000	65.577125 
4843.000000	65.599703 
4842.000000	65.586781 
4841.000000	65.545344 
4840.000000	65.484428 
4839.000000	65.413284 
4838.000000	65.339422 
4837.000000	65.267968 
4836.000000	65.201783 
4835.000000	65.142869 
4834.000000	65.093612 
4833.000000	65.058135 
4832.000000	65.041565 
4831.000000	65.049767 
4830.000000	65.086030 
4829.000000	65.149378 
4828.000000	65.232753 
4827.000000	65.322828 
4826.000000	65.403509 
4825.000000	65.458822 
4824.000000	65.478229 
4823.000000	65.459084 
4822.000000	65.408110 
4821.000000	65.339517 
4820.000000	65.271329 
4819.000000	65.220046 
4818.000000	65.195703 
4817.000000	65.198969 
4816.000000	65.220141 
4815.000000	65.242648 
4814.000000	65.248608 
4813.000000	65.225005 
4812.000000	65.166735 
4811.000000	65.080785 
4810.000000	64.984035 
4809.000000	64.900541 
4808.000000	64.853930 
4807.000000	64.862513 
4806.000000	64.933729 
4805.000000	65.062403 
4804.000000	65.232515 
4803.000000	65.419554 
4802.000000	65.596914 
4801.000000	65.740656 
4800.000000	65.834212 
4799.000000	65.871429 
4798.000000	65.856599 
4797.000000	65.802550 
4796.000000	65.726256 
4795.000000	65.645313 
4794.000000	65.573668 
4793.000000	65.520381 
4792.000000	65.487837 
4791.000000	65.471982 
4790.000000	65.463376 
4789.000000	65.451073 
4788.000000	65.424585 
4787.000000	65.375304 
4786.000000	65.299725 
4785.000000	65.198493 
4784.000000	65.078902 
4783.000000	64.953064 
4782.000000	64.836645 
4781.000000	64.745926 
4780.000000	64.693808 
4779.000000	64.688086 
4778.000000	64.727592 
4777.000000	64.802622 
4776.000000	64.895081 
4775.000000	64.982080 
4774.000000	65.040469 
4773.000000	65.051174 
4772.000000	65.005159 
4771.000000	64.905023 
4770.000000	64.766192 
4769.000000	64.612889 
4768.000000	64.476299 
4767.000000	64.387416 
4766.000000	64.371442 
4765.000000	64.441251 
4764.000000	64.594578 
4763.000000	64.813113 
4762.000000	65.066790 
4761.000000	65.318942 
4760.000000	65.533041 
4759.000000	65.680074 
4758.000000	65.743541 
4757.000000	65.722155 
4756.000000	65.627765 
4755.000000	65.482449 
4754.000000	65.313100 
4753.000000	65.145421 
4752.000000	65.000152 
4751.000000	64.889073 
4750.000000	64.817023 
4749.000000	64.780473 
4748.000000	64.772462 
4747.000000	64.783143 
4746.000000	64.803528 
4745.000000	64.825463 
4744.000000	64.842224 
4743.000000	64.848613 
4742.000000	64.840030 
4741.000000	64.815187 
4740.000000	64.775753 
4739.000000	64.727234 
4738.000000	64.677762 
4737.000000	64.636683 
4736.000000	64.612531 
4735.000000	64.611315 
4734.000000	64.634943 
4733.000000	64.681196 
4732.000000	64.743900 
4731.000000	64.814877 
4730.000000	64.884805 
4729.000000	64.945697 
4728.000000	64.991068 
4727.000000	65.015983 
4726.000000	65.017795 
4725.000000	64.995622 
4724.000000	64.951133 
4723.000000	64.888405 
4722.000000	64.813685 
4721.000000	64.734554 
4720.000000	64.659142 
4719.000000	64.596462 
4718.000000	64.552021 
4717.000000	64.527082 
4716.000000	64.517688 
4715.000000	64.515709 
4714.000000	64.511227 
4713.000000	64.495563 
4712.000000	64.464020 
4711.000000	64.417934 
4710.000000	64.364528 
4709.000000	64.315581 
4708.000000	64.284181 
4707.000000	64.281368 
4706.000000	64.313101 
4705.000000	64.378499 
4704.000000	64.470267 
4703.000000	64.575982 
4702.000000	64.680981 
4701.000000	64.771914 
4700.000000	64.838910 
4699.000000	64.878606 
4698.000000	64.893531 
4697.000000	64.892077 
4696.000000	64.884972 
4695.000000	64.883255 
4694.000000	64.895558 
4693.000000	64.925909 
4692.000000	64.974045 
4691.000000	65.034198 
4690.000000	65.097641 
4689.000000	65.154027 
4688.000000	65.194606 
4687.000000	65.213465 
4686.000000	65.209150 
4685.000000	65.184688 
4684.000000	65.146827 
4683.000000	65.104675 
4682.000000	65.067648 
4681.000000	65.043497 
4680.000000	65.036630 
4679.000000	65.048074 
4678.000000	65.075016 
4677.000000	65.112209 
4676.000000	65.152597 
4675.000000	65.188932 
4674.000000	65.215015 
4673.000000	65.226316 
4672.000000	65.221238 
4671.000000	65.201044 
4670.000000	65.169858 
4669.000000	65.132975 
4668.000000	65.096473 
4667.000000	65.066385 
4666.000000	65.046930 
4665.000000	65.040278 
4664.000000	65.045452 
4663.000000	65.058946 
4662.000000	65.075039 
4661.000000	65.087223 
4660.000000	65.088963 
4659.000000	65.075111 
4658.000000	65.042757 
4657.000000	64.991879 
4656.000000	64.925551 
4655.000000	64.849662 
4654.000000	64.771509 
4653.000000	64.698791 
4652.000000	64.638566 
4651.000000	64.596009 
4650.000000	64.573788 
4649.000000	64.571547 
4648.000000	64.586234 
4647.000000	64.612555 
4646.000000	64.643931 
4645.000000	64.673876 
4644.000000	64.696693 
4643.000000	64.708781 
4642.000000	64.708328 
4641.000000	64.696645 
4640.000000	64.676880 
4639.000000	64.654254 
4638.000000	64.634394 
4637.000000	64.622974 
4636.000000	64.624381 
4635.000000	64.641332 
4634.000000	64.674329 
4633.000000	64.721250 
4632.000000	64.777612 
4631.000000	64.837241 
4630.000000	64.893007 
4629.000000	64.937782 
4628.000000	64.965391 
4627.000000	64.971661 
4626.000000	64.955163 
4625.000000	64.917111 
4624.000000	64.861655 
4623.000000	64.795613 
4622.000000	64.727044 
4621.000000	64.664340 
4620.000000	64.614439 
4619.000000	64.582681 
4618.000000	64.570736 
4617.000000	64.577341 
4616.000000	64.597630 
4615.000000	64.624714 
4614.000000	64.650702 
4613.000000	64.668297 
4612.000000	64.672660 
4611.000000	64.661526 
4610.000000	64.636516 
4609.000000	64.602255 
4608.000000	64.565491 
4607.000000	64.533376 
4606.000000	64.511609 
4605.000000	64.503097 
4604.000000	64.507603 
4603.000000	64.522194 
4602.000000	64.542555 
4601.000000	64.564347 
4600.000000	64.584159 
4599.000000	64.600419 
4598.000000	64.613485 
4597.000000	64.624929 
4596.000000	64.636158 
4595.000000	64.647769 
4594.000000	64.659118 
4593.000000	64.668369 
4592.000000	64.673399 
4591.000000	64.672565 
4590.000000	64.665460 
4589.000000	64.653325 
4588.000000	64.639139 
4587.000000	64.626431 
4586.000000	64.618134 
4585.000000	64.616036 
4584.000000	64.620113 
4583.000000	64.629554 
4582.000000	64.643430 
4581.000000	64.661216 
4580.000000	64.683055 
4579.000000	64.709019 
4578.000000	64.738726 
4577.000000	64.770174 
4576.000000	64.799571 
4575.000000	64.821600 
4574.000000	64.830708 
4573.000000	64.822721 
4572.000000	64.796090 
4571.000000	64.752578 
4570.000000	64.697384 
4569.000000	64.637994 
4568.000000	64.582681 
4567.000000	64.538717 
4566.000000	64.510560 
4565.000000	64.499568 
4564.000000	64.503502 
4563.000000	64.517927 
4562.000000	64.536833 
4561.000000	64.554595 
4560.000000	64.566469 
4559.000000	64.569115 
4558.000000	64.560842 
4557.000000	64.540982 
4556.000000	64.509916 
4555.000000	64.468669 
4554.000000	64.419126 
4553.000000	64.364027 
4552.000000	64.307022 
4551.000000	64.252424 
4550.000000	64.204668 
4549.000000	64.167857 
4548.000000	64.144635 
4547.000000	64.136195 
4546.000000	64.141464 
4545.000000	64.158248 
4544.000000	64.183831 
4543.000000	64.215946 
4542.000000	64.253163 
4541.000000	64.294934 
4540.000000	64.340376 
4539.000000	64.388132 
4538.000000	64.435815 
4537.000000	64.480280 
4536.000000	64.517593 
4535.000000	64.544248 
4534.000000	64.558529 
4533.000000	64.560317 
4532.000000	64.551258 
4531.000000	64.534449 
4530.000000	64.514136 
4529.000000	64.494180 
4528.000000	64.477324 
4527.000000	64.465522 
4526.000000	64.460182 
4525.000000	64.461469 
4524.000000	64.468073 
4523.000000	64.479351 
4522.000000	64.495015 
4521.000000	64.512753 
4520.000000	64.529085 
4519.000000	64.539480 
4518.000000	64.540743 
4517.000000	64.532136 
4516.000000	64.516830 
4515.000000	64.503574 
4514.000000	64.503097 
4513.000000	64.522624 
4512.000000	64.565396 
4511.000000	64.628744 
4510.000000	64.705729 
4509.000000	64.787650 
4508.000000	64.865660 
4507.000000	64.932680 
4506.000000	64.985179 
4505.000000	65.023279 
4504.000000	65.050911 
4503.000000	65.070605 
4502.000000	65.090751 
4501.000000	65.123581 
4500.000000	65.185451 
4499.000000	65.292763 
4498.000000	65.461254 
4497.000000	65.701007 
4496.000000	66.009092 
4495.000000	66.367769 
4494.000000	66.743421 
4493.000000	67.095279 
4492.000000	67.381048 
4491.000000	67.572689 
4490.000000	67.668485 
4489.000000	67.694997 
4488.000000	67.705726 
4487.000000	67.760848 
4486.000000	67.914247 
4485.000000	68.187952 
4484.000000	68.566322 
4483.000000	68.991136 
4482.000000	69.378900 
4481.000000	69.636201 
4480.000000	69.694852 
4479.000000	69.516682 
4478.000000	69.106435 
4477.000000	68.506407 
4476.000000	67.787861 
4475.000000	67.030811 
4474.000000	66.307282 
4473.000000	65.667414 
4472.000000	65.134787 
4471.000000	64.705014 
4470.000000	64.355301 
4469.000000	64.058160 
4468.000000	63.793301 
4467.000000	63.556075 
4466.000000	63.357567 
4465.000000	63.211703 
4464.000000	63.128805 
4463.000000	63.104319 
4462.000000	63.119363 
4461.000000	63.133192 
4460.000000	63.105368 
4459.000000	62.998914 
4458.000000	62.809586 
4457.000000	62.562513 
4456.000000	62.324452 
4455.000000	62.190675 
4454.000000	62.259936 
4453.000000	62.608814 
4452.000000	63.259887 
4451.000000	64.165210 
4450.000000	65.216231 
4449.000000	66.258955 
4448.000000	67.148375 
4447.000000	67.783904 
4446.000000	68.139815 
4445.000000	68.270492 
4444.000000	68.277812 
4443.000000	68.274426 
4442.000000	68.339514 
4441.000000	68.491554 
4440.000000	68.680310 
4439.000000	68.805956 
4438.000000	68.763518 
4437.000000	68.480587 
4436.000000	67.953419 
4435.000000	67.252326 
4434.000000	66.510796 
4433.000000	65.885877 
4432.000000	65.509223 
4431.000000	65.452671 
4430.000000	65.700697 
4429.000000	66.163635 
4428.000000	66.706585 
4427.000000	67.185902 
4426.000000	67.496681 
4425.000000	67.587971 
4424.000000	67.471885 
4423.000000	67.208147 
4422.000000	66.872334 
4421.000000	66.540169 
4420.000000	66.261816 
4419.000000	66.057395 
4418.000000	65.917277 
4417.000000	65.814328 
4416.000000	65.719962 
4415.000000	65.609812 
4414.000000	65.474057 
4413.000000	65.317130 
4412.000000	65.156745 
4411.000000	65.012431 
4410.000000	64.902067 
4409.000000	64.834809 
4408.000000	64.811515 
4407.000000	64.827132 
4406.000000	64.872431 
4405.000000	64.937329 
4404.000000	65.012264 
4403.000000	65.088343 
4402.000000	65.159225 
4401.000000	65.218591 
4400.000000	65.263319 
4399.000000	65.294408 
4398.000000	65.313911 
4397.000000	65.324211 
4396.000000	65.325665 
4395.000000	65.315413 
4394.000000	65.289783 
4393.000000	65.246868 
4392.000000	65.186595 
4391.000000	65.112543 
4390.000000	65.029883 
4389.000000	64.944863 
4388.000000	64.865016 
4387.000000	64.798140 
4386.000000	64.750504 
4385.000000	64.725875 
4384.000000	64.725947 
4383.000000	64.749789 
4382.000000	64.792990 
4381.000000	64.848613 
4380.000000	64.908289 
4379.000000	64.963674 
4378.000000	65.006446 
4377.000000	65.030694 
4376.000000	65.033912 
4375.000000	65.016531 
4374.000000	64.981555 
4373.000000	64.933109 
4372.000000	64.875650 
4371.000000	64.812684 
4370.000000	64.746665 
4369.000000	64.679145 
4368.000000	64.610981 
4367.000000	64.543986 
4366.000000	64.481616 
4365.000000	64.428853 
4364.000000	64.391517 
4363.000000	64.374852 
4362.000000	64.382243 
4361.000000	64.413619 
4360.000000	64.465379 
4359.000000	64.531254 
4358.000000	64.604067 
4357.000000	64.677405 
4356.000000	64.747405 
4355.000000	64.812803 
4354.000000	64.875221 
4353.000000	64.937543 
4352.000000	65.002918 
4351.000000	65.073275 
4350.000000	65.148210 
4349.000000	65.225219 
4348.000000	65.299177 
4347.000000	65.364503 
4346.000000	65.415072 
4345.000000	65.446996 
4344.000000	65.457892 
4343.000000	65.448331 
4342.000000	65.420651 
4341.000000	65.379452 
4340.000000	65.329289 
4339.000000	65.274238 
4338.000000	65.217351 
4337.000000	65.160965 
4336.000000	65.106368 
4335.000000	65.054368 
4334.000000	65.005898 
4333.000000	64.962601 
4332.000000	64.926338 
4331.000000	64.899086 
4330.000000	64.882063 
4329.000000	64.875316 
4328.000000	64.877557 
4327.000000	64.886522 
4326.000000	64.898228 
4325.000000	64.908599 
4324.000000	64.914202 
4323.000000	64.913415 
4322.000000	64.905691 
4321.000000	64.892935 
4320.000000	64.878582 
4319.000000	64.867329 
4318.000000	64.863324 
4317.000000	64.869642 
4316.000000	64.887404 
4315.000000	64.915823 
4314.000000	64.951944 
4313.000000	64.992189 
4312.000000	65.033149 
4311.000000	65.072393 
4310.000000	65.109014 
4309.000000	65.143036 
4308.000000	65.174818 
4307.000000	65.204548 
4306.000000	65.231609 
4305.000000	65.253853 
4304.000000	65.268015 
4303.000000	65.270972 
4302.000000	65.260505 
4301.000000	65.236353 
4300.000000	65.199995 
4299.000000	65.155506 
4298.000000	65.107870 
4297.000000	65.062165 
4296.000000	65.022230 
4295.000000	64.990139 
4294.000000	64.965987 
4293.000000	64.948797 
4292.000000	64.936900 
4291.000000	64.928865 
4290.000000	64.924073 
4289.000000	64.922595 
4288.000000	64.924979 
4287.000000	64.931249 
4286.000000	64.941024 
4285.000000	64.952921 
4284.000000	64.965200 
4283.000000	64.976072 
4282.000000	64.984703 
4281.000000	64.991188 
4280.000000	64.996838 
4279.000000	65.003752 
4278.000000	65.014100 
4277.000000	65.029406 
4276.000000	65.049386 
4275.000000	65.072083 
4274.000000	65.094375 
4273.000000	65.112662 
4272.000000	65.124034 
4271.000000	65.127015 
4270.000000	65.121889 
4269.000000	65.110421 
4268.000000	65.095615 
4267.000000	65.080571 
4266.000000	65.067458 
4265.000000	65.057206 
4264.000000	65.049552 
4263.000000	65.043234 
4262.000000	65.036749 
4261.000000	65.029287 
4260.000000	65.021133 
4259.000000	65.014147 
4258.000000	65.011525 
4257.000000	65.016651 
4256.000000	65.032005 
4255.000000	65.057945 
4254.000000	65.092134 
4253.000000	65.129590 
4252.000000	65.163493 
4251.000000	65.186452 
4250.000000	65.192317 
4249.000000	65.177750 
4248.000000	65.143322 
4247.000000	65.093421 
4246.000000	65.035843 
4245.000000	64.979910 
4244.000000	64.934659 
4243.000000	64.907169 
4242.000000	64.900970 
4241.000000	64.915895 
4240.000000	64.947962 
4239.000000	64.990711 
4238.000000	65.036511 
4237.000000	65.078234 
4236.000000	65.110254 
4235.000000	65.128970 
4234.000000	65.133357 
4233.000000	65.124487 
4232.000000	65.105128 
4231.000000	65.078830 
4230.000000	65.049839 
4229.000000	65.022253 
4228.000000	64.999914 
4227.000000	64.986133 
4226.000000	64.983177 
4225.000000	64.992022 
4224.000000	65.012168 
4223.000000	65.041708 
4222.000000	65.076875 
4221.000000	65.112876 
4220.000000	65.144491 
4219.000000	65.167260 
4218.000000	65.177750 
4217.000000	65.174865 
4216.000000	65.159964 
4215.000000	65.136885 
4214.000000	65.111136 
4213.000000	65.088629 
4212.000000	65.074610 
4211.000000	65.072536 
4210.000000	65.083670 
4209.000000	65.106773 
4208.000000	65.138864 
4207.000000	65.175485 
4206.000000	65.212154 
4205.000000	65.244340 
4204.000000	65.268158 
4203.000000	65.280556 
4202.000000	65.279746 
4201.000000	65.264701 
4200.000000	65.235328 
4199.000000	65.192723 
4198.000000	65.139150 
4197.000000	65.078115 
4196.000000	65.014076 
4195.000000	64.952015 
4194.000000	64.896607 
4193.000000	64.851808 
4192.000000	64.820075 
4191.000000	64.801788 
4190.000000	64.795780 
4189.000000	64.799499 
4188.000000	64.809751 
4187.000000	64.823007 
4186.000000	64.836335 
4185.000000	64.846992 
4184.000000	64.853906 
4183.000000	64.856433 
4182.000000	64.855885 
4181.000000	64.854383 
4180.000000	64.855742 
4179.000000	64.864087 
4178.000000	64.883804 
4177.000000	64.918422 
4176.000000	64.969253 
4175.000000	65.034651 
4174.000000	65.109300 
4173.000000	65.184926 
4172.000000	65.251445 
4171.000000	65.299129 
4170.000000	65.320611 
4169.000000	65.312719 
4168.000000	65.277886 
4167.000000	65.223193 
4166.000000	65.158390 
4165.000000	65.093660 
4164.000000	65.037798 
4163.000000	64.996433 
4162.000000	64.971542 
4161.000000	64.961671 
4160.000000	64.963984 
4159.000000	64.974570 
