PE IR       SPECTRUM    SPECTRUM    ASCII       PEDS        1.60        
  -1
BZ6F21~1.ASC
17/04/07
18:48:03.00
17/04/07
18:48:03.00
tln
$BZ1503107-1_t0067$<tbV0>[13.0,2.6,8.0,0.0,27,1,0]
370.000000
64









2002,4.07    
MIRTGS : RIGHTBACK : INTERNAL 2
MIR : ON : INTERNAL 2
OPTKBR

0.200000
8
8.000000
FILLER
RATIO
SPECTRUM
UNLOCKED 256

DOUBLE
64
COMBINED
1
0
0


1.000000
RATIO


1
0
TRUE
51149
0
LEFT NOT FITTED RIGHT NOT FITTED 0
NONE
NONE
15600
12.000000
4.427000
51148
TRUE
1 0 8 72 0 0 0 0 

15798.010000






#HDR
-1
-1
#GR
CM-1
%T
0.00002384185791015625
0.0
5000.000000
-1.000000
4631
8
72.464203
34.901714
#DATA
5000.000000	63.625931 
4999.000000	63.646674 
4998.000000	63.631510 
4997.000000	63.589334 
4996.000000	63.534569 
4995.000000	63.484239 
4994.000000	63.453221 
4993.000000	63.452911 
4992.000000	63.485646 
4991.000000	63.545370 
4990.000000	63.617396 
4989.000000	63.683056 
4988.000000	63.723039 
4987.000000	63.722991 
4986.000000	63.676452 
4985.000000	63.586735 
4984.000000	63.465189 
4983.000000	63.328218 
4982.000000	63.192486 
4981.000000	63.071441 
4980.000000	62.973737 
4979.000000	62.902522 
4978.000000	62.856507 
4977.000000	62.831664 
4976.000000	62.823772 
4975.000000	62.829613 
4974.000000	62.846708 
4973.000000	62.873911 
4972.000000	62.909984 
4971.000000	62.953615 
4970.000000	63.000726 
4969.000000	63.046836 
4968.000000	63.087224 
4967.000000	63.118505 
4966.000000	63.139462 
4965.000000	63.151216 
4964.000000	63.157081 
4963.000000	63.161087 
4962.000000	63.166999 
4961.000000	63.176655 
4960.000000	63.189744 
4959.000000	63.203310 
4958.000000	63.212847 
4957.000000	63.212776 
4956.000000	63.198089 
4955.000000	63.165307 
4954.000000	63.113927 
4953.000000	63.046598 
4952.000000	62.968873 
4951.000000	62.888717 
4950.000000	62.814331 
4949.000000	62.751770 
4948.000000	62.703752 
4947.000000	62.669396 
4946.000000	62.645006 
4945.000000	62.625169 
4944.000000	62.604975 
4943.000000	62.581276 
4942.000000	62.553691 
4941.000000	62.524437 
4940.000000	62.497258 
4939.000000	62.475466 
4938.000000	62.460947 
4937.000000	62.452483 
4936.000000	62.446618 
4935.000000	62.438321 
4934.000000	62.423157 
4933.000000	62.398624 
4932.000000	62.365579 
4931.000000	62.328243 
4930.000000	62.292385 
4929.000000	62.263917 
4928.000000	62.246727 
4927.000000	62.241983 
4926.000000	62.247824 
4925.000000	62.260603 
4924.000000	62.276601 
4923.000000	62.293338 
4922.000000	62.309789 
4921.000000	62.326622 
4920.000000	62.345433 
4919.000000	62.367987 
4918.000000	62.394475 
4917.000000	62.424087 
4916.000000	62.454390 
4915.000000	62.483119 
4914.000000	62.508463 
4913.000000	62.530374 
4912.000000	62.551188 
4911.000000	62.574577 
4910.000000	62.604713 
4909.000000	62.644553 
4908.000000	62.695026 
4907.000000	62.753987 
4906.000000	62.816381 
4905.000000	62.875318 
4904.000000	62.924027 
4903.000000	62.957406 
4902.000000	62.973475 
4901.000000	62.974238 
4900.000000	62.965273 
4899.000000	62.954950 
4898.000000	62.952232 
4897.000000	62.965106 
4896.000000	62.998104 
4895.000000	63.051724 
4894.000000	63.121414 
4893.000000	63.198566 
4892.000000	63.272118 
4891.000000	63.331174 
4890.000000	63.367342 
4889.000000	63.375878 
4888.000000	63.357686 
4887.000000	63.318777 
4886.000000	63.269233 
4885.000000	63.221120 
4884.000000	63.185572 
4883.000000	63.170647 
4882.000000	63.179326 
4881.000000	63.209462 
4880.000000	63.254165 
4879.000000	63.304185 
4878.000000	63.349819 
4877.000000	63.383579 
4876.000000	63.401412 
4875.000000	63.403320 
4874.000000	63.392615 
4873.000000	63.374328 
4872.000000	63.353657 
4871.000000	63.333940 
4870.000000	63.315916 
4869.000000	63.297104 
4868.000000	63.272953 
4867.000000	63.238096 
4866.000000	63.188195 
4865.000000	63.121867 
4864.000000	63.040947 
4863.000000	62.951588 
4862.000000	62.862110 
4861.000000	62.782692 
4860.000000	62.722897 
4859.000000	62.690424 
4858.000000	62.688517 
4857.000000	62.716484 
4856.000000	62.769532 
4855.000000	62.840175 
4854.000000	62.919259 
4853.000000	62.998247 
4852.000000	63.070201 
4851.000000	63.131189 
4850.000000	63.179945 
4849.000000	63.217902 
4848.000000	63.247799 
4847.000000	63.272762 
4846.000000	63.295078 
4845.000000	63.315677 
4844.000000	63.333821 
4843.000000	63.348197 
4842.000000	63.357114 
4841.000000	63.359832 
4840.000000	63.356471 
4839.000000	63.348889 
4838.000000	63.339543 
4837.000000	63.331246 
4836.000000	63.325595 
4835.000000	63.323068 
4834.000000	63.322305 
4833.000000	63.320612 
4832.000000	63.314700 
4831.000000	63.302040 
4830.000000	63.281178 
4829.000000	63.252520 
4828.000000	63.218379 
4827.000000	63.182210 
4826.000000	63.148117 
4825.000000	63.119411 
4824.000000	63.098597 
4823.000000	63.086819 
4822.000000	63.084769 
4821.000000	63.092827 
4820.000000	63.111400 
4819.000000	63.140630 
4818.000000	63.180160 
4817.000000	63.228440 
4816.000000	63.281726 
4815.000000	63.334250 
4814.000000	63.378810 
4813.000000	63.408017 
4812.000000	63.415884 
4811.000000	63.399147 
4810.000000	63.358879 
4809.000000	63.299894 
4808.000000	63.230609 
4807.000000	63.160514 
4806.000000	63.098406 
4805.000000	63.050603 
4804.000000	63.019871 
4803.000000	63.005757 
4802.000000	63.005352 
4801.000000	63.015031 
4800.000000	63.031911 
4799.000000	63.054776 
4798.000000	63.083791 
4797.000000	63.120245 
4796.000000	63.165092 
4795.000000	63.218045 
4794.000000	63.276696 
4793.000000	63.336539 
4792.000000	63.391280 
4791.000000	63.434314 
4790.000000	63.459634 
4789.000000	63.463377 
4788.000000	63.444519 
4787.000000	63.405323 
4786.000000	63.351249 
4785.000000	63.289594 
4784.000000	63.228487 
4783.000000	63.175487 
4782.000000	63.136434 
4781.000000	63.114881 
4780.000000	63.111710 
4779.000000	63.125181 
4778.000000	63.151669 
4777.000000	63.186502 
4776.000000	63.225269 
4775.000000	63.264083 
4774.000000	63.300752 
4773.000000	63.334393 
4772.000000	63.365221 
4771.000000	63.393664 
4770.000000	63.419651 
4769.000000	63.441967 
4768.000000	63.458275 
4767.000000	63.465356 
4766.000000	63.459825 
4765.000000	63.438892 
4764.000000	63.401246 
4763.000000	63.347744 
4762.000000	63.281464 
4761.000000	63.207983 
4760.000000	63.134336 
4759.000000	63.068532 
4758.000000	63.017988 
4757.000000	62.988448 
4756.000000	62.982678 
4755.000000	63.000249 
4754.000000	63.037562 
4753.000000	63.088631 
4752.000000	63.145899 
4751.000000	63.202023 
4750.000000	63.250660 
4749.000000	63.287711 
4748.000000	63.311290 
4747.000000	63.321805 
4746.000000	63.320851 
4745.000000	63.310790 
4744.000000	63.294196 
4743.000000	63.272929 
4742.000000	63.248205 
4741.000000	63.221096 
4740.000000	63.192915 
4739.000000	63.165426 
4738.000000	63.140702 
4737.000000	63.120889 
4736.000000	63.108205 
4735.000000	63.104057 
4734.000000	63.109207 
4733.000000	63.123679 
4732.000000	63.147091 
4731.000000	63.178968 
4730.000000	63.218569 
4729.000000	63.264465 
4728.000000	63.314604 
4727.000000	63.366246 
4726.000000	63.415884 
4725.000000	63.459396 
4724.000000	63.492584 
4723.000000	63.512396 
4722.000000	63.516807 
4721.000000	63.505935 
4720.000000	63.480997 
4719.000000	63.444638 
4718.000000	63.399744 
4717.000000	63.349294 
4716.000000	63.295722 
4715.000000	63.240623 
4714.000000	63.185143 
4713.000000	63.130521 
4712.000000	63.078379 
4711.000000	63.031077 
4710.000000	62.991404 
4709.000000	62.962388 
4708.000000	62.945914 
4707.000000	62.942862 
4706.000000	62.952399 
4705.000000	62.972760 
4704.000000	63.000893 
4703.000000	63.034009 
4702.000000	63.070034 
4701.000000	63.108277 
4700.000000	63.149046 
4699.000000	63.192796 
4698.000000	63.239383 
4697.000000	63.286709 
4696.000000	63.331127 
4695.000000	63.367033 
4694.000000	63.388562 
4693.000000	63.390660 
4692.000000	63.371229 
4691.000000	63.331532 
4690.000000	63.276505 
4689.000000	63.214182 
4688.000000	63.154172 
4687.000000	63.105082 
4686.000000	63.072681 
4685.000000	63.058686 
4684.000000	63.060593 
4683.000000	63.071990 
4682.000000	63.084554 
4681.000000	63.089632 
4680.000000	63.080859 
4679.000000	63.054966 
4678.000000	63.013362 
4677.000000	62.960886 
4676.000000	62.905788 
4675.000000	62.857651 
4674.000000	62.825822 
4673.000000	62.817478 
4672.000000	62.835812 
4671.000000	62.879753 
4670.000000	62.943863 
4669.000000	63.019394 
4668.000000	63.096451 
4667.000000	63.166117 
4666.000000	63.222575 
4665.000000	63.263487 
4664.000000	63.290643 
4663.000000	63.308691 
4662.000000	63.323259 
4661.000000	63.338899 
4660.000000	63.357496 
4659.000000	63.377332 
4658.000000	63.393878 
4657.000000	63.401150 
4656.000000	63.393473 
4655.000000	63.367366 
4654.000000	63.323354 
4653.000000	63.265633 
4652.000000	63.201308 
4651.000000	63.138628 
4650.000000	63.084912 
4649.000000	63.045382 
4648.000000	63.021945 
4647.000000	63.013768 
4646.000000	63.018083 
4645.000000	63.031268 
4644.000000	63.049721 
4643.000000	63.070917 
4642.000000	63.093447 
4641.000000	63.116788 
4640.000000	63.140559 
4639.000000	63.164019 
4638.000000	63.185453 
4637.000000	63.202738 
4636.000000	63.213825 
4635.000000	63.217115 
4634.000000	63.211941 
4633.000000	63.198971 
4632.000000	63.180422 
4631.000000	63.159155 
4630.000000	63.138246 
4629.000000	63.120150 
4628.000000	63.106346 
4627.000000	63.097357 
4626.000000	63.092875 
4625.000000	63.092017 
4624.000000	63.094139 
4623.000000	63.098955 
4622.000000	63.107180 
4621.000000	63.120055 
4620.000000	63.139390 
4619.000000	63.166666 
4618.000000	63.202929 
4617.000000	63.247942 
4616.000000	63.300037 
4615.000000	63.356375 
4614.000000	63.412642 
4613.000000	63.463926 
4612.000000	63.505101 
4611.000000	63.532042 
4610.000000	63.541913 
4609.000000	63.533926 
4608.000000	63.509559 
4607.000000	63.472485 
4606.000000	63.428020 
4605.000000	63.382339 
4604.000000	63.341665 
4603.000000	63.311386 
4602.000000	63.295412 
4601.000000	63.295793 
4600.000000	63.312435 
4599.000000	63.343095 
4598.000000	63.383841 
4597.000000	63.429117 
4596.000000	63.472843 
4595.000000	63.509202 
4594.000000	63.533115 
4593.000000	63.541722 
4592.000000	63.533902 
4591.000000	63.511633 
4590.000000	63.479328 
4589.000000	63.443493 
4588.000000	63.411235 
4587.000000	63.389086 
4586.000000	63.382053 
4585.000000	63.392114 
4584.000000	63.417911 
4583.000000	63.455390 
4582.000000	63.499188 
4581.000000	63.542914 
4580.000000	63.580560 
4579.000000	63.607430 
4578.000000	63.620901 
4577.000000	63.620162 
4576.000000	63.606238 
4575.000000	63.581848 
4574.000000	63.550925 
4573.000000	63.518285 
4572.000000	63.488674 
4571.000000	63.466525 
4570.000000	63.454604 
4569.000000	63.454174 
4568.000000	63.464069 
4567.000000	63.481163 
4566.000000	63.500928 
4565.000000	63.517999 
4564.000000	63.527727 
4563.000000	63.527846 
4562.000000	63.517880 
4561.000000	63.499498 
4560.000000	63.474988 
4559.000000	63.446426 
4558.000000	63.414192 
4557.000000	63.376808 
4556.000000	63.331747 
4555.000000	63.276553 
4554.000000	63.210558 
4553.000000	63.136172 
4552.000000	63.058590 
4551.000000	62.985205 
4550.000000	62.923836 
4549.000000	62.880992 
4548.000000	62.860012 
4547.000000	62.860393 
4546.000000	62.877655 
4545.000000	62.904810 
4544.000000	62.934064 
4543.000000	62.958478 
4542.000000	62.973833 
4541.000000	62.978792 
4540.000000	62.974143 
4539.000000	62.962031 
4538.000000	62.944793 
4537.000000	62.923765 
4536.000000	62.898993 
4535.000000	62.869215 
4534.000000	62.832903 
4533.000000	62.788963 
4532.000000	62.737631 
4531.000000	62.681245 
4530.000000	62.623810 
4529.000000	62.571239 
4528.000000	62.529802 
4527.000000	62.505769 
4526.000000	62.503862 
4525.000000	62.526631 
4524.000000	62.573766 
4523.000000	62.642002 
4522.000000	62.725448 
4521.000000	62.815761 
4520.000000	62.903928 
4519.000000	62.981677 
4518.000000	63.043189 
4517.000000	63.086152 
4516.000000	63.112211 
4515.000000	63.126420 
4514.000000	63.135337 
4513.000000	63.145756 
4512.000000	63.161516 
4511.000000	63.182902 
4510.000000	63.206171 
4509.000000	63.225269 
4508.000000	63.233470 
4507.000000	63.226246 
4506.000000	63.202571 
4505.000000	63.166141 
4504.000000	63.124036 
4503.000000	63.085341 
4502.000000	63.057732 
4501.000000	63.045191 
4500.000000	63.046884 
4499.000000	63.057446 
4498.000000	63.069653 
4497.000000	63.077020 
4496.000000	63.076496 
4495.000000	63.069605 
4494.000000	63.061809 
4493.000000	63.060593 
4492.000000	63.071537 
4491.000000	63.096213 
4490.000000	63.131928 
4489.000000	63.171148 
4488.000000	63.203215 
4487.000000	63.216757 
4486.000000	63.203334 
4485.000000	63.159322 
4484.000000	63.086485 
4483.000000	62.992358 
4482.000000	62.888669 
4481.000000	62.788844 
4480.000000	62.704920 
4479.000000	62.645483 
4478.000000	62.614440 
4477.000000	62.610054 
4476.000000	62.625741 
4475.000000	62.652683 
4474.000000	62.682509 
4473.000000	62.708568 
4472.000000	62.726712 
4471.000000	62.735772 
4470.000000	62.736511 
4469.000000	62.730216 
4468.000000	62.717056 
4467.000000	62.695407 
4466.000000	62.661027 
4465.000000	62.610459 
4464.000000	62.540769 
4463.000000	62.447834 
4462.000000	62.329411 
4461.000000	62.190246 
4460.000000	62.040281 
4459.000000	61.890578 
4458.000000	61.753153 
4457.000000	61.641430 
4456.000000	61.563897 
4455.000000	61.523747 
4454.000000	61.514949 
4453.000000	61.521005 
4452.000000	61.521315 
4451.000000	61.497712 
4450.000000	61.436915 
4449.000000	61.334156 
4448.000000	61.192607 
4447.000000	61.020469 
4446.000000	60.832357 
4445.000000	60.647249 
4444.000000	60.479497 
4443.000000	60.337424 
4442.000000	60.227656 
4441.000000	60.159182 
4440.000000	60.143351 
4439.000000	60.200548 
4438.000000	60.351538 
4437.000000	60.623192 
4436.000000	61.049318 
4435.000000	61.659789 
4434.000000	62.474393 
4433.000000	63.480448 
4432.000000	64.631772 
4431.000000	65.834164 
4430.000000	66.958713 
4429.000000	67.856264 
4428.000000	68.394494 
4427.000000	68.477249 
4426.000000	68.075752 
4425.000000	67.231941 
4424.000000	66.044521 
4423.000000	64.675140 
4422.000000	63.308262 
4421.000000	62.159872 
4420.000000	61.443614 
4419.000000	61.338973 
4418.000000	61.961174 
4417.000000	63.298845 
4416.000000	65.207529 
4415.000000	67.407727 
4414.000000	69.539546 
4413.000000	71.249508 
4412.000000	72.264552 
4411.000000	72.464203 
4410.000000	71.889138 
4409.000000	70.708894 
4408.000000	69.169974 
4407.000000	67.515683 
4406.000000	65.942692 
4405.000000	64.582538 
4404.000000	63.485145 
4403.000000	62.665462 
4402.000000	62.095260 
4401.000000	61.744666 
4400.000000	61.581039 
4399.000000	61.566615 
4398.000000	61.675143 
4397.000000	61.876416 
4396.000000	62.147355 
4395.000000	62.453436 
4394.000000	62.765836 
4393.000000	63.054347 
4392.000000	63.298654 
4391.000000	63.488006 
4390.000000	63.619232 
4389.000000	63.693690 
4388.000000	63.715577 
4387.000000	63.689541 
4386.000000	63.620805 
4385.000000	63.514995 
4384.000000	63.380861 
4383.000000	63.228917 
4382.000000	63.075995 
4381.000000	62.939524 
4380.000000	62.828707 
4379.000000	62.747550 
4378.000000	62.694978 
4377.000000	62.667894 
4376.000000	62.667584 
4375.000000	62.696123 
4374.000000	62.750101 
4373.000000	62.825894 
4372.000000	62.919664 
4371.000000	63.026070 
4370.000000	63.135457 
4369.000000	63.238811 
4368.000000	63.329052 
4367.000000	63.401818 
4366.000000	63.456153 
4365.000000	63.493323 
4364.000000	63.515973 
4363.000000	63.527035 
4362.000000	63.528847 
4361.000000	63.521289 
4360.000000	63.502430 
4359.000000	63.471341 
4358.000000	63.428878 
4357.000000	63.379120 
4356.000000	63.328409 
4355.000000	63.284277 
4354.000000	63.253068 
4353.000000	63.237929 
4352.000000	63.237786 
4351.000000	63.246870 
4350.000000	63.256978 
4349.000000	63.260006 
4348.000000	63.250732 
4347.000000	63.227772 
4346.000000	63.195109 
4345.000000	63.160395 
4344.000000	63.133931 
4343.000000	63.125467 
4342.000000	63.141489 
4341.000000	63.183069 
4340.000000	63.245296 
4339.000000	63.318538 
4338.000000	63.389682 
4337.000000	63.445377 
4336.000000	63.474798 
4335.000000	63.472175 
4334.000000	63.437533 
4333.000000	63.376283 
4332.000000	63.297653 
4331.000000	63.212490 
4330.000000	63.131403 
4329.000000	63.062691 
4328.000000	63.011646 
4327.000000	62.979960 
4326.000000	62.967014 
4325.000000	62.969946 
4324.000000	62.984657 
4323.000000	63.006567 
4322.000000	63.031148 
4321.000000	63.054609 
4320.000000	63.073468 
4319.000000	63.085269 
4318.000000	63.088226 
4317.000000	63.081502 
4316.000000	63.065028 
4315.000000	63.039565 
4314.000000	63.006639 
4313.000000	62.968826 
4312.000000	62.929439 
4311.000000	62.892651 
4310.000000	62.863087 
4309.000000	62.845420 
4308.000000	62.843585 
4307.000000	62.859869 
4306.000000	62.894392 
4305.000000	62.944746 
4304.000000	63.006043 
4303.000000	63.071513 
4302.000000	63.133859 
4301.000000	63.186335 
4300.000000	63.224315 
4299.000000	63.246440 
4298.000000	63.254594 
4297.000000	63.252973 
4296.000000	63.247203 
4295.000000	63.242912 
4294.000000	63.244199 
4293.000000	63.253140 
4292.000000	63.269019 
4291.000000	63.289260 
4290.000000	63.309693 
4289.000000	63.326311 
4288.000000	63.335728 
4287.000000	63.336300 
4286.000000	63.328337 
4285.000000	63.314008 
4284.000000	63.296723 
4283.000000	63.280129 
4282.000000	63.267660 
4281.000000	63.261651 
4280.000000	63.263368 
4279.000000	63.272953 
4278.000000	63.289618 
4277.000000	63.311958 
4276.000000	63.338446 
4275.000000	63.367295 
4274.000000	63.396573 
4273.000000	63.424134 
4272.000000	63.447332 
4271.000000	63.463354 
4270.000000	63.469815 
4269.000000	63.465118 
4268.000000	63.448572 
4267.000000	63.421130 
4266.000000	63.385820 
4265.000000	63.346791 
4264.000000	63.308930 
4263.000000	63.276553 
4262.000000	63.252496 
4261.000000	63.237690 
4260.000000	63.230824 
4259.000000	63.229131 
4258.000000	63.229370 
4257.000000	63.228821 
4256.000000	63.226103 
4255.000000	63.221287 
4254.000000	63.215637 
4253.000000	63.211226 
4252.000000	63.210153 
4251.000000	63.214087 
4250.000000	63.223600 
4249.000000	63.238453 
4248.000000	63.257431 
4247.000000	63.278579 
4246.000000	63.298988 
4245.000000	63.315629 
4244.000000	63.325095 
4243.000000	63.324213 
4242.000000	63.310408 
4241.000000	63.282227 
4240.000000	63.239860 
4239.000000	63.185238 
4238.000000	63.122415 
4237.000000	63.057112 
4236.000000	62.995862 
4235.000000	62.944960 
4234.000000	62.909603 
4233.000000	62.892937 
4232.000000	62.896132 
4231.000000	62.917995 
4230.000000	62.955880 
4229.000000	63.005995 
4228.000000	63.064265 
4227.000000	63.126492 
4226.000000	63.188767 
4225.000000	63.247489 
4224.000000	63.299393 
4223.000000	63.341689 
4222.000000	63.372087 
4221.000000	63.389015 
4220.000000	63.391900 
4219.000000	63.381409 
4218.000000	63.359737 
4217.000000	63.330554 
4216.000000	63.299179 
4215.000000	63.271546 
4214.000000	63.253402 
4213.000000	63.249254 
4212.000000	63.261842 
4211.000000	63.291001 
4210.000000	63.333940 
4209.000000	63.385391 
4208.000000	63.438892 
4207.000000	63.487768 
4206.000000	63.526654 
4205.000000	63.552355 
4204.000000	63.564252 
4203.000000	63.564443 
4202.000000	63.556814 
4201.000000	63.545846 
4200.000000	63.535380 
4199.000000	63.528037 
4198.000000	63.524627 
4197.000000	63.524580 
4196.000000	63.525938 
4195.000000	63.526773 
4194.000000	63.525271 
4193.000000	63.520431 
4192.000000	63.511800 
4191.000000	63.499283 
4190.000000	63.482880 
4189.000000	63.462352 
4188.000000	63.437104 
4187.000000	63.406658 
4186.000000	63.370728 
4185.000000	63.330054 
4184.000000	63.286042 
4183.000000	63.241100 
4182.000000	63.197898 
4181.000000	63.158845 
4180.000000	63.125801 
4179.000000	63.099360 
4178.000000	63.079833 
4177.000000	63.067102 
4176.000000	63.061547 
4175.000000	63.063955 
4174.000000	63.076090 
4173.000000	63.100314 
4172.000000	63.138437 
4171.000000	63.190841 
4170.000000	63.255739 
4169.000000	63.329029 
4168.000000	63.404822 
4167.000000	63.476252 
4166.000000	63.537240 
4165.000000	63.583302 
4164.000000	63.612961 
4163.000000	63.627004 
4162.000000	63.627743 
4161.000000	63.617968 
4160.000000	63.600325 
4159.000000	63.576722 
