PE IR       SPECTRUM    SPECTRUM    ASCII       PEDS        1.60        
  -1
BZ69A0~1.ASC
17/04/07
15:46:48.00
17/04/07
15:46:48.00
tln
$BZ1503107-1_t0031$<tbV0>[-7.8,-7.8,8.0,0.0,27,1,0]
370.000000
64









2002,4.07    
MIRTGS : RIGHTBACK : INTERNAL 2
MIR : ON : INTERNAL 2
OPTKBR

0.200000
8
8.000000
FILLER
RATIO
SPECTRUM
UNLOCKED 256

DOUBLE
64
COMBINED
1
0
0


1.000000
RATIO


1
0
TRUE
51149
0
LEFT NOT FITTED RIGHT NOT FITTED 0
NONE
NONE
15600
12.000000
4.427000
51148
TRUE
1 0 8 72 0 0 0 0 

15798.010000






#HDR
-1
-1
#GR
CM-1
%T
0.00002384185791015625
0.0
5000.000000
-1.000000
4631
8
87.686300
44.256567
#DATA
5000.000000	64.780426 
4999.000000	64.697527 
4998.000000	64.610815 
4997.000000	64.525580 
4996.000000	64.446973 
4995.000000	64.379453 
4994.000000	64.326763 
4993.000000	64.290523 
4992.000000	64.271759 
4991.000000	64.270663 
4990.000000	64.287042 
4989.000000	64.319252 
4988.000000	64.365553 
4987.000000	64.423561 
4986.000000	64.490795 
4985.000000	64.564156 
4984.000000	64.640927 
4983.000000	64.718365 
4982.000000	64.793848 
4981.000000	64.864420 
4980.000000	64.926600 
4979.000000	64.976429 
4978.000000	65.010547 
4977.000000	65.026426 
4976.000000	65.023422 
4975.000000	65.003228 
4974.000000	64.970612 
4973.000000	64.932489 
4972.000000	64.896655 
4971.000000	64.870262 
4970.000000	64.858984 
4969.000000	64.865350 
4968.000000	64.888858 
4967.000000	64.925694 
4966.000000	64.970445 
4965.000000	65.016365 
4964.000000	65.057301 
4963.000000	65.087842 
4962.000000	65.104126 
4961.000000	65.103840 
4960.000000	65.086221 
4959.000000	65.052080 
4958.000000	65.003633 
4957.000000	64.944958 
4956.000000	64.881801 
4955.000000	64.820981 
4954.000000	64.769530 
4953.000000	64.733314 
4952.000000	64.716076 
4951.000000	64.718031 
4950.000000	64.736509 
4949.000000	64.766764 
4948.000000	64.803528 
4947.000000	64.842200 
4946.000000	64.879488 
4945.000000	64.914345 
4944.000000	64.946722 
4943.000000	64.976763 
4942.000000	65.003013 
4941.000000	65.021967 
4940.000000	65.027976 
4939.000000	65.014743 
4938.000000	64.976739 
4937.000000	64.911556 
4936.000000	64.821100 
4935.000000	64.712858 
4934.000000	64.598369 
4933.000000	64.491128 
4932.000000	64.404010 
4931.000000	64.346504 
4930.000000	64.323139 
4929.000000	64.332866 
4928.000000	64.369869 
4927.000000	64.424991 
4926.000000	64.487791 
4925.000000	64.548659 
4924.000000	64.600181 
4923.000000	64.638161 
4922.000000	64.660906 
4921.000000	64.668869 
4920.000000	64.663934 
4919.000000	64.648342 
4918.000000	64.624214 
4917.000000	64.593148 
4916.000000	64.556670 
4915.000000	64.516377 
4914.000000	64.474678 
4913.000000	64.434766 
4912.000000	64.400458 
4911.000000	64.375901 
4910.000000	64.364695 
4909.000000	64.369392 
4908.000000	64.390468 
4907.000000	64.425992 
4906.000000	64.471530 
4905.000000	64.520668 
4904.000000	64.565920 
4903.000000	64.600086 
4902.000000	64.617562 
4901.000000	64.616012 
4900.000000	64.596962 
4899.000000	64.565777 
4898.000000	64.530587 
4897.000000	64.501285 
4896.000000	64.486813 
4895.000000	64.493250 
4894.000000	64.521980 
4893.000000	64.569830 
4892.000000	64.629173 
4891.000000	64.689660 
4890.000000	64.740705 
4889.000000	64.774131 
4888.000000	64.785933 
4887.000000	64.776897 
4886.000000	64.752292 
4885.000000	64.720153 
4884.000000	64.689135 
4883.000000	64.666247 
4882.000000	64.654731 
4881.000000	64.653849 
4880.000000	64.659166 
4879.000000	64.664673 
4878.000000	64.664196 
4877.000000	64.653539 
4876.000000	64.631748 
4875.000000	64.601373 
4874.000000	64.567780 
4873.000000	64.538025 
4872.000000	64.519309 
4871.000000	64.518070 
4870.000000	64.538407 
4869.000000	64.581966 
4868.000000	64.648199 
4867.000000	64.734649 
4866.000000	64.837360 
4865.000000	64.951086 
4864.000000	65.069484 
4863.000000	65.185475 
4862.000000	65.291523 
4861.000000	65.380334 
4860.000000	65.446138 
4859.000000	65.484166 
4858.000000	65.492653 
4857.000000	65.471220 
4856.000000	65.421915 
4855.000000	65.348076 
4854.000000	65.254950 
4853.000000	65.149092 
4852.000000	65.038442 
4851.000000	64.931964 
4850.000000	64.839220 
4849.000000	64.768934 
4848.000000	64.727830 
4847.000000	64.718818 
4846.000000	64.740490 
4845.000000	64.787197 
4844.000000	64.850449 
4843.000000	64.919543 
4842.000000	64.984536 
4841.000000	65.037965 
4840.000000	65.076208 
4839.000000	65.099239 
4838.000000	65.110015 
4837.000000	65.112853 
4836.000000	65.111780 
4835.000000	65.108919 
4834.000000	65.104341 
4833.000000	65.097069 
4832.000000	65.085697 
4831.000000	65.070247 
4830.000000	65.052413 
4829.000000	65.036487 
4828.000000	65.027332 
4827.000000	65.029215 
4826.000000	65.044093 
4825.000000	65.070557 
4824.000000	65.103554 
4823.000000	65.135526 
4822.000000	65.157771 
4821.000000	65.162658 
4820.000000	65.145993 
4819.000000	65.108156 
4818.000000	65.053653 
4817.000000	64.989709 
4816.000000	64.924812 
4815.000000	64.866352 
4814.000000	64.818572 
4813.000000	64.782595 
4812.000000	64.756488 
4811.000000	64.737296 
4810.000000	64.723014 
4809.000000	64.713859 
4808.000000	64.712333 
4807.000000	64.722418 
4806.000000	64.747619 
4805.000000	64.789032 
4804.000000	64.843487 
4803.000000	64.903783 
4802.000000	64.959645 
4801.000000	65.000247 
4800.000000	65.017056 
4799.000000	65.006351 
4798.000000	64.970374 
4797.000000	64.917278 
4796.000000	64.858913 
4795.000000	64.807987 
4794.000000	64.774942 
4793.000000	64.765739 
4792.000000	64.780735 
4791.000000	64.815831 
4790.000000	64.863777 
4789.000000	64.916944 
4788.000000	64.969086 
4787.000000	65.015888 
4786.000000	65.055608 
4785.000000	65.088152 
4784.000000	65.114569 
4783.000000	65.135693 
4782.000000	65.151739 
4781.000000	65.162396 
4780.000000	65.166378 
4779.000000	65.162515 
4778.000000	65.149474 
4777.000000	65.126895 
4776.000000	65.095400 
4775.000000	65.057325 
4774.000000	65.015959 
4773.000000	64.975261 
4772.000000	64.939141 
4771.000000	64.910769 
4770.000000	64.891624 
4769.000000	64.881467 
4768.000000	64.877986 
4767.000000	64.877820 
4766.000000	64.877295 
4765.000000	64.873743 
4764.000000	64.866685 
4763.000000	64.858198 
4762.000000	64.852714 
4761.000000	64.855623 
4760.000000	64.871382 
4759.000000	64.901542 
4758.000000	64.943742 
4757.000000	64.991760 
4756.000000	65.037250 
4755.000000	65.071272 
4754.000000	65.086722 
4753.000000	65.079617 
4752.000000	65.050315 
4751.000000	65.002727 
4750.000000	64.943814 
4749.000000	64.881467 
4748.000000	64.822673 
4747.000000	64.772677 
4746.000000	64.734816 
4745.000000	64.710259 
4744.000000	64.698624 
4743.000000	64.698886 
4742.000000	64.710092 
4741.000000	64.731168 
4740.000000	64.760780 
4739.000000	64.797043 
4738.000000	64.837455 
4737.000000	64.879369 
4736.000000	64.920139 
4735.000000	64.957666 
4734.000000	64.990234 
4733.000000	65.016722 
4732.000000	65.036177 
4731.000000	65.047121 
4730.000000	65.048027 
4729.000000	65.038013 
4728.000000	65.017294 
4727.000000	64.987540 
4726.000000	64.952898 
4725.000000	64.919400 
4724.000000	64.894914 
4723.000000	64.887189 
4722.000000	64.902925 
4721.000000	64.946198 
4720.000000	65.017151 
4719.000000	65.111660 
4718.000000	65.221667 
4717.000000	65.336179 
4716.000000	65.443396 
4715.000000	65.532732 
4714.000000	65.596318 
4713.000000	65.630054 
4712.000000	65.634202 
4711.000000	65.612435 
4710.000000	65.570926 
4709.000000	65.516209 
4708.000000	65.454363 
4707.000000	65.389227 
4706.000000	65.322566 
4705.000000	65.253996 
4704.000000	65.182256 
4703.000000	65.106511 
4702.000000	65.027928 
4701.000000	64.950251 
4700.000000	64.879131 
4699.000000	64.821505 
4698.000000	64.783596 
4697.000000	64.769673 
4696.000000	64.779758 
4695.000000	64.810514 
4694.000000	64.854955 
4693.000000	64.904499 
4692.000000	64.950275 
4691.000000	64.985322 
4690.000000	65.005683 
4689.000000	65.011048 
4688.000000	65.004110 
4687.000000	64.989948 
4686.000000	64.974355 
4685.000000	64.962387 
4684.000000	64.957094 
4683.000000	64.959454 
4682.000000	64.967989 
4681.000000	64.979743 
4680.000000	64.990711 
4679.000000	64.996695 
4678.000000	64.994430 
4677.000000	64.982342 
4676.000000	64.960861 
4675.000000	64.931917 
4674.000000	64.898991 
4673.000000	64.866542 
4672.000000	64.838743 
4671.000000	64.818549 
4670.000000	64.806985 
4669.000000	64.803266 
4668.000000	64.805030 
4667.000000	64.809036 
4666.000000	64.812302 
4665.000000	64.813041 
4664.000000	64.811372 
4663.000000	64.809060 
4662.000000	64.808964 
4661.000000	64.813733 
4660.000000	64.824938 
4659.000000	64.842391 
4658.000000	64.863586 
4657.000000	64.884543 
4656.000000	64.900875 
4655.000000	64.909267 
4654.000000	64.908599 
4653.000000	64.900588 
4652.000000	64.889264 
4651.000000	64.879918 
4650.000000	64.877820 
4649.000000	64.886474 
4648.000000	64.906382 
4647.000000	64.935040 
4646.000000	64.967846 
4645.000000	64.998674 
4644.000000	65.021967 
4643.000000	65.033435 
4642.000000	65.031814 
4641.000000	65.017914 
4640.000000	64.994215 
4639.000000	64.964008 
4638.000000	64.930629 
4637.000000	64.896893 
4636.000000	64.864659 
4635.000000	64.835238 
4634.000000	64.809727 
4633.000000	64.789295 
4632.000000	64.775466 
4631.000000	64.769196 
4630.000000	64.770603 
4629.000000	64.778637 
4628.000000	64.791250 
4627.000000	64.805078 
4626.000000	64.816832 
4625.000000	64.824366 
4624.000000	64.827489 
4623.000000	64.828014 
4622.000000	64.829611 
4621.000000	64.836525 
4620.000000	64.852833 
4619.000000	64.880347 
4618.000000	64.918923 
4617.000000	64.966225 
4616.000000	65.018796 
4615.000000	65.072894 
4614.000000	65.125250 
4613.000000	65.174221 
4612.000000	65.218782 
4611.000000	65.258932 
4610.000000	65.293741 
4609.000000	65.321063 
4608.000000	65.337252 
4607.000000	65.338134 
4606.000000	65.319585 
4605.000000	65.279245 
4604.000000	65.217757 
4603.000000	65.139484 
4602.000000	65.051984 
4601.000000	64.964485 
4600.000000	64.886331 
4599.000000	64.824914 
4598.000000	64.784336 
4597.000000	64.764785 
4596.000000	64.762711 
4595.000000	64.771723 
4594.000000	64.784455 
4593.000000	64.794278 
4592.000000	64.795875 
4591.000000	64.787244 
4590.000000	64.768552 
4589.000000	64.743494 
4588.000000	64.716410 
4587.000000	64.693212 
4586.000000	64.679455 
4585.000000	64.679741 
4584.000000	64.696478 
4583.000000	64.729642 
4582.000000	64.776945 
4581.000000	64.833450 
4580.000000	64.892435 
4579.000000	64.946532 
4578.000000	64.988875 
4577.000000	65.014410 
4576.000000	65.020775 
4575.000000	65.008258 
4574.000000	64.979410 
4573.000000	64.938950 
4572.000000	64.892435 
4571.000000	64.845132 
4570.000000	64.801192 
4569.000000	64.763903 
4568.000000	64.735221 
4567.000000	64.715909 
4566.000000	64.705538 
4565.000000	64.703702 
4564.000000	64.709115 
4563.000000	64.719915 
4562.000000	64.733266 
4561.000000	64.745378 
4560.000000	64.751911 
4559.000000	64.748287 
4558.000000	64.731025 
4557.000000	64.698481 
4556.000000	64.651679 
4555.000000	64.594459 
4554.000000	64.533329 
4553.000000	64.476299 
4552.000000	64.431810 
4551.000000	64.406895 
4550.000000	64.405894 
4549.000000	64.429426 
4548.000000	64.474487 
4547.000000	64.535093 
4546.000000	64.603447 
4545.000000	64.671492 
4544.000000	64.732289 
4543.000000	64.781188 
4542.000000	64.816117 
4541.000000	64.837551 
4540.000000	64.847373 
4539.000000	64.848256 
4538.000000	64.843106 
4537.000000	64.834356 
4536.000000	64.824104 
4535.000000	64.813876 
4534.000000	64.805555 
4533.000000	64.800524 
4532.000000	64.800667 
4531.000000	64.806866 
4530.000000	64.819097 
4529.000000	64.835762 
4528.000000	64.854121 
4527.000000	64.870309 
4526.000000	64.880156 
4525.000000	64.880585 
4524.000000	64.870476 
4523.000000	64.851450 
4522.000000	64.827680 
4521.000000	64.805054 
4520.000000	64.789891 
4519.000000	64.787602 
4518.000000	64.801239 
4517.000000	64.830851 
4516.000000	64.873099 
4515.000000	64.922261 
4514.000000	64.971160 
4513.000000	65.012955 
4512.000000	65.041923 
4511.000000	65.054726 
4510.000000	65.050172 
4509.000000	65.029287 
4508.000000	64.994192 
4507.000000	64.947628 
4506.000000	64.892148 
4505.000000	64.830470 
4504.000000	64.764618 
4503.000000	64.696836 
4502.000000	64.628815 
4501.000000	64.562058 
4500.000000	64.498090 
4499.000000	64.438629 
4498.000000	64.385724 
4497.000000	64.341831 
4496.000000	64.309597 
4495.000000	64.291548 
4494.000000	64.288902 
4493.000000	64.301490 
4492.000000	64.326906 
4491.000000	64.361763 
4490.000000	64.402198 
4489.000000	64.445161 
4488.000000	64.489221 
4487.000000	64.534020 
4486.000000	64.579868 
4485.000000	64.626193 
4484.000000	64.670705 
4483.000000	64.708971 
4482.000000	64.735507 
4481.000000	64.744424 
4480.000000	64.731478 
4479.000000	64.695024 
4478.000000	64.636635 
4477.000000	64.562225 
4476.000000	64.480710 
4475.000000	64.404320 
4474.000000	64.346146 
4473.000000	64.318370 
4472.000000	64.329743 
4471.000000	64.381861 
4470.000000	64.468574 
4469.000000	64.577770 
4468.000000	64.694237 
4467.000000	64.802742 
4466.000000	64.891123 
4465.000000	64.954924 
4464.000000	64.996576 
4463.000000	65.020728 
4462.000000	65.032267 
4461.000000	65.037822 
4460.000000	65.041422 
4459.000000	65.036797 
4458.000000	65.015363 
4457.000000	64.977121 
4456.000000	64.925718 
4455.000000	64.869165 
4454.000000	64.817619 
4453.000000	64.775466 
4452.000000	64.746761 
4451.000000	64.743113 
4450.000000	64.766979 
4449.000000	64.802789 
4448.000000	64.835238 
4447.000000	64.854192 
4446.000000	64.859700 
4445.000000	64.863824 
4444.000000	64.887666 
4443.000000	64.955615 
4442.000000	65.085268 
4441.000000	65.283703 
4440.000000	65.543246 
4439.000000	65.849423 
4438.000000	66.182255 
4437.000000	66.537404 
4436.000000	66.913080 
4435.000000	67.341709 
4434.000000	67.878937 
4433.000000	68.606424 
4432.000000	69.644212 
4431.000000	71.063780 
4430.000000	72.914195 
4429.000000	75.083494 
4428.000000	77.310705 
4427.000000	79.176831 
4426.000000	80.179882 
4425.000000	79.875326 
4424.000000	78.006839 
4423.000000	74.608325 
4422.000000	70.049023 
4421.000000	64.942312 
4420.000000	60.021376 
4419.000000	55.965590 
4418.000000	53.246712 
4417.000000	52.063655 
4416.000000	52.324533 
4415.000000	53.713250 
4414.000000	55.793452 
4413.000000	58.109307 
4412.000000	60.299324 
4411.000000	62.118077 
4410.000000	63.486289 
4409.000000	64.448094 
4408.000000	65.142869 
4407.000000	65.721702 
4406.000000	66.301155 
4405.000000	66.929173 
4404.000000	67.568564 
4403.000000	68.139791 
4402.000000	68.532299 
4401.000000	68.679118 
4400.000000	68.551874 
4399.000000	68.197441 
4398.000000	67.701601 
4397.000000	67.168879 
4396.000000	66.690659 
4395.000000	66.317248 
4394.000000	66.060733 
4393.000000	65.900850 
4392.000000	65.802597 
4391.000000	65.739798 
4390.000000	65.688014 
4389.000000	65.631484 
4388.000000	65.567898 
4387.000000	65.506100 
4386.000000	65.448546 
4385.000000	65.391898 
4384.000000	65.333914 
4383.000000	65.272855 
4382.000000	65.213704 
4381.000000	65.164947 
4380.000000	65.126657 
4379.000000	65.096688 
4378.000000	65.077304 
4377.000000	65.071296 
4376.000000	65.078306 
4375.000000	65.097141 
4374.000000	65.126061 
4373.000000	65.162181 
4372.000000	65.200996 
4371.000000	65.237593 
4370.000000	65.268349 
4369.000000	65.289640 
4368.000000	65.297722 
4367.000000	65.289998 
4366.000000	65.264797 
4365.000000	65.224099 
4364.000000	65.174126 
4363.000000	65.121722 
4362.000000	65.072941 
4361.000000	65.032267 
4360.000000	65.001964 
4359.000000	64.981579 
4358.000000	64.968514 
4357.000000	64.959502 
4356.000000	64.951682 
4355.000000	64.943003 
4354.000000	64.933252 
4353.000000	64.923191 
4352.000000	64.915251 
4351.000000	64.912223 
4350.000000	64.916896 
4349.000000	64.931154 
4348.000000	64.955353 
4347.000000	64.987635 
4346.000000	65.024423 
4345.000000	65.060734 
4344.000000	65.091824 
4343.000000	65.114331 
4342.000000	65.126919 
4341.000000	65.130686 
4340.000000	65.128111 
4339.000000	65.122461 
4338.000000	65.116381 
4337.000000	65.110993 
4336.000000	65.105628 
4335.000000	65.098428 
4334.000000	65.087032 
4333.000000	65.069651 
4332.000000	65.045309 
4331.000000	65.014195 
4330.000000	64.977955 
4329.000000	64.939236 
4328.000000	64.900875 
4327.000000	64.865469 
4326.000000	64.835238 
4325.000000	64.811491 
4324.000000	64.794278 
4323.000000	64.782714 
4322.000000	64.775466 
4321.000000	64.770817 
4320.000000	64.767193 
4319.000000	64.763426 
4318.000000	64.758443 
4317.000000	64.751720 
4316.000000	64.742636 
4315.000000	64.731001 
4314.000000	64.716410 
4313.000000	64.699196 
4312.000000	64.680361 
4311.000000	64.661669 
4310.000000	64.645433 
4309.000000	64.633822 
4308.000000	64.628434 
4307.000000	64.629864 
4306.000000	64.637613 
4305.000000	64.650011 
4304.000000	64.665126 
4303.000000	64.681172 
4302.000000	64.697504 
4301.000000	64.714503 
4300.000000	64.733839 
4299.000000	64.757895 
4298.000000	64.788866 
4297.000000	64.827966 
4296.000000	64.874482 
4295.000000	64.926004 
4294.000000	64.978122 
4293.000000	65.025687 
4292.000000	65.063571 
4291.000000	65.087771 
4290.000000	65.096330 
4289.000000	65.089702 
4288.000000	65.070748 
4287.000000	65.044069 
4286.000000	65.015316 
4285.000000	64.990234 
4284.000000	64.973354 
4283.000000	64.967632 
4282.000000	64.973568 
4281.000000	64.989638 
4280.000000	65.012478 
4279.000000	65.037894 
4278.000000	65.061974 
4277.000000	65.081977 
4276.000000	65.096831 
4275.000000	65.107083 
4274.000000	65.114688 
4273.000000	65.121889 
4272.000000	65.130519 
4271.000000	65.140652 
4270.000000	65.151000 
4269.000000	65.158700 
4268.000000	65.160131 
4267.000000	65.152096 
4266.000000	65.132927 
4265.000000	65.103030 
4264.000000	65.065217 
4263.000000	65.023756 
4262.000000	64.983582 
4261.000000	64.948940 
4260.000000	64.922285 
4259.000000	64.903855 
4258.000000	64.892101 
4257.000000	64.884066 
4256.000000	64.876532 
4255.000000	64.866733 
4254.000000	64.853215 
4253.000000	64.835834 
4252.000000	64.815855 
4251.000000	64.795231 
4250.000000	64.776158 
4249.000000	64.760375 
4248.000000	64.748787 
4247.000000	64.741468 
4246.000000	64.737701 
4245.000000	64.736366 
4244.000000	64.736390 
4243.000000	64.736843 
4242.000000	64.737582 
4241.000000	64.738535 
4240.000000	64.740514 
4239.000000	64.744305 
4238.000000	64.750885 
4237.000000	64.760947 
4236.000000	64.774513 
4235.000000	64.790987 
4234.000000	64.808797 
4233.000000	64.826250 
4232.000000	64.841246 
4231.000000	64.851784 
4230.000000	64.856529 
4229.000000	64.855217 
4228.000000	64.848446 
4227.000000	64.837360 
4226.000000	64.823698 
4225.000000	64.809346 
4224.000000	64.796280 
4223.000000	64.786267 
4222.000000	64.780712 
4221.000000	64.780521 
4220.000000	64.786219 
4219.000000	64.797639 
4218.000000	64.813876 
4217.000000	64.833521 
4216.000000	64.854454 
4215.000000	64.874601 
4214.000000	64.891862 
4213.000000	64.904952 
4212.000000	64.913225 
4211.000000	64.917373 
4210.000000	64.919042 
4209.000000	64.920830 
4208.000000	64.925622 
4207.000000	64.935946 
4206.000000	64.953327 
4205.000000	64.977622 
4204.000000	65.007138 
4203.000000	65.038609 
4202.000000	65.067911 
4201.000000	65.090799 
4200.000000	65.103816 
4199.000000	65.104985 
4198.000000	65.093946 
4197.000000	65.071749 
4196.000000	65.040349 
4195.000000	65.002202 
4194.000000	64.959907 
4193.000000	64.915919 
4192.000000	64.872527 
4191.000000	64.832043 
4190.000000	64.796924 
4189.000000	64.769887 
4188.000000	64.753437 
4187.000000	64.749526 
4186.000000	64.758896 
4185.000000	64.780545 
4184.000000	64.811658 
4183.000000	64.847517 
4182.000000	64.882445 
4181.000000	64.910793 
4180.000000	64.927935 
4179.000000	64.930987 
4178.000000	64.919805 
4177.000000	64.896631 
4176.000000	64.866089 
4175.000000	64.834141 
4174.000000	64.806914 
4173.000000	64.789581 
4172.000000	64.785695 
4171.000000	64.796519 
4170.000000	64.820766 
4169.000000	64.854741 
4168.000000	64.893150 
4167.000000	64.929962 
4166.000000	64.959239 
4165.000000	64.976763 
4164.000000	64.980101 
4163.000000	64.969801 
4162.000000	64.949131 
4161.000000	64.923167 
4160.000000	64.898490 
4159.000000	64.880442 
