PE IR       SPECTRUM    SPECTRUM    ASCII       PEDS        1.60        
  -1
BZ69A6~1.ASC
17/04/07
19:06:31.00
17/04/07
19:06:31.00
tln
$BZ1503107-1_t0071$<tbV0>[2.6,2.6,8.0,0.0,27,1,0]
370.000000
64









2002,4.07    
MIRTGS : RIGHTBACK : INTERNAL 2
MIR : ON : INTERNAL 2
OPTKBR

0.200000
8
8.000000
FILLER
RATIO
SPECTRUM
UNLOCKED 256

DOUBLE
64
COMBINED
1
0
0


1.000000
RATIO


1
0
TRUE
51149
0
LEFT NOT FITTED RIGHT NOT FITTED 0
NONE
NONE
15600
12.000000
4.427000
51148
TRUE
1 0 8 72 0 0 0 0 

15798.010000






#HDR
-1
-1
#GR
CM-1
%T
0.00002384185791015625
0.0
5000.000000
-1.000000
4631
8
71.023058
32.275152
#DATA
5000.000000	65.404653 
4999.000000	65.515995 
4998.000000	65.594983 
4997.000000	65.640306 
4996.000000	65.657091 
4995.000000	65.654826 
4994.000000	65.644145 
4993.000000	65.633940 
4992.000000	65.629100 
4991.000000	65.630888 
4990.000000	65.636324 
4989.000000	65.641832 
4988.000000	65.641474 
4987.000000	65.629792 
4986.000000	65.601778 
4985.000000	65.554165 
4984.000000	65.486407 
4983.000000	65.400958 
4982.000000	65.303087 
4981.000000	65.199780 
4980.000000	65.099000 
4979.000000	65.008091 
4978.000000	64.932107 
4977.000000	64.873099 
4976.000000	64.830017 
4975.000000	64.799404 
4974.000000	64.775896 
4973.000000	64.754557 
4972.000000	64.731669 
4971.000000	64.706373 
4970.000000	64.679169 
4969.000000	64.653301 
4968.000000	64.632678 
4967.000000	64.622402 
4966.000000	64.625597 
4965.000000	64.645004 
4964.000000	64.681816 
4963.000000	64.735817 
4962.000000	64.805555 
4961.000000	64.886951 
4960.000000	64.973425 
4959.000000	65.056133 
4958.000000	65.125179 
4957.000000	65.171098 
4956.000000	65.186929 
4955.000000	65.170264 
4954.000000	65.123748 
4953.000000	65.055060 
4952.000000	64.974713 
4951.000000	64.894366 
4950.000000	64.823484 
4949.000000	64.767527 
4948.000000	64.726877 
4947.000000	64.697289 
4946.000000	64.672064 
4945.000000	64.644622 
4944.000000	64.611077 
4943.000000	64.571332 
4942.000000	64.529991 
4941.000000	64.494371 
4940.000000	64.473366 
4939.000000	64.473557 
4938.000000	64.498805 
4937.000000	64.548039 
4936.000000	64.616489 
4935.000000	64.696550 
4934.000000	64.779782 
4933.000000	64.858603 
4932.000000	64.927196 
4931.000000	64.982271 
4930.000000	65.022516 
4929.000000	65.047693 
4928.000000	65.058088 
4927.000000	65.053558 
4926.000000	65.033292 
4925.000000	64.995622 
4924.000000	64.939904 
4923.000000	64.865899 
4922.000000	64.774680 
4921.000000	64.668226 
4920.000000	64.550256 
4919.000000	64.425897 
4918.000000	64.300370 
4917.000000	64.179944 
4916.000000	64.071059 
4915.000000	63.980865 
4914.000000	63.915681 
4913.000000	63.880872 
4912.000000	63.879394 
4911.000000	63.911056 
4910.000000	63.971471 
4909.000000	64.052677 
4908.000000	64.143252 
4907.000000	64.231443 
4906.000000	64.306449 
4905.000000	64.361357 
4904.000000	64.393782 
4903.000000	64.407229 
4902.000000	64.409589 
4901.000000	64.411139 
4900.000000	64.421391 
4899.000000	64.447569 
4898.000000	64.492654 
4897.000000	64.554882 
4896.000000	64.628696 
4895.000000	64.706563 
4894.000000	64.781141 
4893.000000	64.847230 
4892.000000	64.902782 
4891.000000	64.948463 
4890.000000	64.987206 
4889.000000	65.022706 
4888.000000	65.057969 
4887.000000	65.094208 
4886.000000	65.130424 
4885.000000	65.164780 
4884.000000	65.194368 
4883.000000	65.216803 
4882.000000	65.230393 
4881.000000	65.235495 
4880.000000	65.233254 
4879.000000	65.225887 
4878.000000	65.215039 
4877.000000	65.201520 
4876.000000	65.184855 
4875.000000	65.163731 
4874.000000	65.135955 
4873.000000	65.099310 
4872.000000	65.053105 
4871.000000	64.998722 
4870.000000	64.939260 
4869.000000	64.879536 
4868.000000	64.825129 
4867.000000	64.781308 
4866.000000	64.751839 
4865.000000	64.738225 
4864.000000	64.739513 
4863.000000	64.752388 
4862.000000	64.771461 
4861.000000	64.790749 
4860.000000	64.804935 
4859.000000	64.810132 
4858.000000	64.804244 
4857.000000	64.787626 
4856.000000	64.762663 
4855.000000	64.733195 
4854.000000	64.703369 
4853.000000	64.676690 
4852.000000	64.655327 
4851.000000	64.639377 
4850.000000	64.627385 
4849.000000	64.616084 
4848.000000	64.601635 
4847.000000	64.580607 
4846.000000	64.551329 
4845.000000	64.514064 
4844.000000	64.471602 
4843.000000	64.428544 
4842.000000	64.390802 
4841.000000	64.363956 
4840.000000	64.352130 
4839.000000	64.357161 
4838.000000	64.377808 
4837.000000	64.409947 
4836.000000	64.447283 
4835.000000	64.482998 
4834.000000	64.510989 
4833.000000	64.526414 
4832.000000	64.527201 
4831.000000	64.513707 
4830.000000	64.489126 
4829.000000	64.458417 
4828.000000	64.427685 
4827.000000	64.402842 
4826.000000	64.389204 
4825.000000	64.390492 
4824.000000	64.409017 
4823.000000	64.445447 
4822.000000	64.498376 
4821.000000	64.564323 
4820.000000	64.638352 
4819.000000	64.714574 
4818.000000	64.786243 
4817.000000	64.846730 
4816.000000	64.890527 
4815.000000	64.914202 
4814.000000	64.916801 
4813.000000	64.900326 
4812.000000	64.869642 
4811.000000	64.831447 
4810.000000	64.793634 
4809.000000	64.762949 
4808.000000	64.744853 
4807.000000	64.741182 
4806.000000	64.750623 
4805.000000	64.768671 
4804.000000	64.788722 
4803.000000	64.804482 
4802.000000	64.811468 
4801.000000	64.808797 
4800.000000	64.799070 
4799.000000	64.788293 
4798.000000	64.783835 
4797.000000	64.792943 
4796.000000	64.820456 
4795.000000	64.867591 
4794.000000	64.931440 
4793.000000	65.005588 
4792.000000	65.081453 
4791.000000	65.150046 
4790.000000	65.203595 
4789.000000	65.236759 
4788.000000	65.247082 
4787.000000	65.235447 
4786.000000	65.205264 
4785.000000	65.161275 
4784.000000	65.108704 
4783.000000	65.052890 
4782.000000	64.998173 
4781.000000	64.948415 
4780.000000	64.905977 
4779.000000	64.872360 
4778.000000	64.848089 
4777.000000	64.832925 
4776.000000	64.826416 
4775.000000	64.827752 
4774.000000	64.836144 
4773.000000	64.850568 
4772.000000	64.870238 
4771.000000	64.894199 
4770.000000	64.921259 
4769.000000	64.949512 
4768.000000	64.977025 
4767.000000	65.001606 
4766.000000	65.021252 
4765.000000	65.033864 
4764.000000	65.037751 
4763.000000	65.031576 
4762.000000	65.014791 
4761.000000	64.987611 
4760.000000	64.951157 
4759.000000	64.907455 
4758.000000	64.859747 
4757.000000	64.811897 
4756.000000	64.768290 
4755.000000	64.732909 
4754.000000	64.709186 
4753.000000	64.699077 
4752.000000	64.702582 
4751.000000	64.717864 
4750.000000	64.741754 
4749.000000	64.769864 
4748.000000	64.797449 
4747.000000	64.820218 
4746.000000	64.835023 
4745.000000	64.840030 
4744.000000	64.834642 
4743.000000	64.819264 
4742.000000	64.794802 
4741.000000	64.762830 
4740.000000	64.725589 
4739.000000	64.686036 
4738.000000	64.647936 
4737.000000	64.616107 
4736.000000	64.595937 
4735.000000	64.592790 
4734.000000	64.610719 
4733.000000	64.651584 
4732.000000	64.713859 
4731.000000	64.792418 
4730.000000	64.878726 
4729.000000	64.962053 
4728.000000	65.031766 
4727.000000	65.079164 
4726.000000	65.100026 
4725.000000	65.095281 
4724.000000	65.070962 
4723.000000	65.037393 
4722.000000	65.005493 
4721.000000	64.984607 
4720.000000	64.979362 
4719.000000	64.989209 
4718.000000	65.008187 
4717.000000	65.027356 
4716.000000	65.037131 
4715.000000	65.030336 
4714.000000	65.004515 
4713.000000	64.962792 
4712.000000	64.912796 
4711.000000	64.864611 
4710.000000	64.828348 
4709.000000	64.811444 
4708.000000	64.817047 
4707.000000	64.843511 
4706.000000	64.885163 
4705.000000	64.933896 
4704.000000	64.981651 
4703.000000	65.022158 
4702.000000	65.051674 
4701.000000	65.069794 
4700.000000	65.077972 
4699.000000	65.079236 
4698.000000	65.076828 
4697.000000	65.073251 
4696.000000	65.069890 
4695.000000	65.066790 
4694.000000	65.063714 
4693.000000	65.059661 
4692.000000	65.053987 
4691.000000	65.045666 
4690.000000	65.033507 
4689.000000	65.016102 
4688.000000	64.992022 
4687.000000	64.960050 
4686.000000	64.919662 
4685.000000	64.871668 
4684.000000	64.818406 
4683.000000	64.764094 
4682.000000	64.714241 
4681.000000	64.674878 
4680.000000	64.651131 
4679.000000	64.646100 
4678.000000	64.660286 
4677.000000	64.691376 
4676.000000	64.734816 
4675.000000	64.784526 
4674.000000	64.834237 
4673.000000	64.878225 
4672.000000	64.912319 
4671.000000	64.933991 
4670.000000	64.942693 
4669.000000	64.938974 
4668.000000	64.924979 
4667.000000	64.903664 
4666.000000	64.878702 
4665.000000	64.854216 
4664.000000	64.833688 
4663.000000	64.819979 
4662.000000	64.814329 
4661.000000	64.816498 
4660.000000	64.824104 
4659.000000	64.833259 
4658.000000	64.839506 
4657.000000	64.839267 
4656.000000	64.830422 
4655.000000	64.813327 
4654.000000	64.791011 
4653.000000	64.768505 
4652.000000	64.751243 
4651.000000	64.743995 
4650.000000	64.749264 
4649.000000	64.767122 
4648.000000	64.794921 
4647.000000	64.828300 
4646.000000	64.862418 
4645.000000	64.892721 
4644.000000	64.915800 
4643.000000	64.929723 
4642.000000	64.933967 
4641.000000	64.929246 
4640.000000	64.917087 
4639.000000	64.899754 
4638.000000	64.879488 
4637.000000	64.859008 
4636.000000	64.841365 
4635.000000	64.829754 
4634.000000	64.827156 
4633.000000	64.835929 
4632.000000	64.857411 
4631.000000	64.890980 
4630.000000	64.933919 
4629.000000	64.981794 
4628.000000	65.028834 
4627.000000	65.068912 
4626.000000	65.096855 
4625.000000	65.109109 
4624.000000	65.104913 
4623.000000	65.086150 
4622.000000	65.057539 
4621.000000	65.025663 
4620.000000	64.997911 
4619.000000	64.981102 
4618.000000	64.979791 
4617.000000	64.995741 
4616.000000	65.026855 
4615.000000	65.068197 
4614.000000	65.112400 
4613.000000	65.151739 
4612.000000	65.179014 
4611.000000	65.189409 
4610.000000	65.180420 
4609.000000	65.152359 
4608.000000	65.107798 
4607.000000	65.050840 
4606.000000	64.986324 
4605.000000	64.919161 
4604.000000	64.854025 
4603.000000	64.795184 
4602.000000	64.746618 
4601.000000	64.711976 
4600.000000	64.693856 
4599.000000	64.693331 
4598.000000	64.709329 
4597.000000	64.738416 
4596.000000	64.774394 
4595.000000	64.809751 
4594.000000	64.836764 
4593.000000	64.849400 
4592.000000	64.844393 
4591.000000	64.822292 
4590.000000	64.786839 
4589.000000	64.744615 
4588.000000	64.703154 
4587.000000	64.669656 
4586.000000	64.649438 
4585.000000	64.645242 
4584.000000	64.656901 
4583.000000	64.682030 
4582.000000	64.717173 
4581.000000	64.758062 
4580.000000	64.800381 
4579.000000	64.840221 
4578.000000	64.873957 
4577.000000	64.898228 
4576.000000	64.910054 
4575.000000	64.907145 
4574.000000	64.888381 
4573.000000	64.854884 
4572.000000	64.810180 
4571.000000	64.759612 
4570.000000	64.709997 
4569.000000	64.668655 
4568.000000	64.642167 
4567.000000	64.634943 
4566.000000	64.648127 
4565.000000	64.679956 
4564.000000	64.725494 
4563.000000	64.777946 
4562.000000	64.829540 
4561.000000	64.872694 
4560.000000	64.901208 
4559.000000	64.911293 
4558.000000	64.901685 
4557.000000	64.873456 
4556.000000	64.829587 
4555.000000	64.774203 
4554.000000	64.712071 
4553.000000	64.648151 
4552.000000	64.587020 
4551.000000	64.532542 
4550.000000	64.487719 
4549.000000	64.454722 
4548.000000	64.434814 
4547.000000	64.428782 
4546.000000	64.436388 
4545.000000	64.456963 
4544.000000	64.489221 
4543.000000	64.531564 
4542.000000	64.581871 
4541.000000	64.637231 
4540.000000	64.694142 
4539.000000	64.748311 
4538.000000	64.795160 
4537.000000	64.829874 
4536.000000	64.847993 
4535.000000	64.845991 
4534.000000	64.822459 
4533.000000	64.778661 
4532.000000	64.718794 
4531.000000	64.649820 
4530.000000	64.580607 
4529.000000	64.520168 
4528.000000	64.476299 
4527.000000	64.453983 
4526.000000	64.454698 
4525.000000	64.476323 
4524.000000	64.513897 
4523.000000	64.560890 
4522.000000	64.610743 
4521.000000	64.657068 
4520.000000	64.695072 
4519.000000	64.721989 
4518.000000	64.737534 
4517.000000	64.742732 
4516.000000	64.740061 
4515.000000	64.732766 
4514.000000	64.723849 
4513.000000	64.715862 
4512.000000	64.709758 
4511.000000	64.705324 
4510.000000	64.701223 
4509.000000	64.696025 
4508.000000	64.688992 
4507.000000	64.679694 
4506.000000	64.669871 
4505.000000	64.663243 
4504.000000	64.664483 
4503.000000	64.677739 
4502.000000	64.705324 
4501.000000	64.746546 
4500.000000	64.797234 
4499.000000	64.850449 
4498.000000	64.898991 
4497.000000	64.937281 
4496.000000	64.963293 
4495.000000	64.979219 
4494.000000	64.990901 
4493.000000	65.006184 
4492.000000	65.032243 
4491.000000	65.073227 
4490.000000	65.129685 
4489.000000	65.197300 
4488.000000	65.269160 
4487.000000	65.335774 
4486.000000	65.388083 
4485.000000	65.417814 
4484.000000	65.420341 
4483.000000	65.393877 
4482.000000	65.340209 
4481.000000	65.263247 
4480.000000	65.168929 
4479.000000	65.063691 
4478.000000	64.954519 
4477.000000	64.847278 
4476.000000	64.747166 
4475.000000	64.657616 
4474.000000	64.581131 
4473.000000	64.518022 
4472.000000	64.467024 
4471.000000	64.424800 
4470.000000	64.386963 
4469.000000	64.348363 
4468.000000	64.304757 
4467.000000	64.254307 
4466.000000	64.198660 
4465.000000	64.143729 
4464.000000	64.098691 
4463.000000	64.071297 
4462.000000	64.067506 
4461.000000	64.091992 
4460.000000	64.145684 
4459.000000	64.225292 
4458.000000	64.322948 
4457.000000	64.426112 
4456.000000	64.520835 
4455.000000	64.597702 
4454.000000	64.649176 
4453.000000	64.668631 
4452.000000	64.653134 
4451.000000	64.604568 
4450.000000	64.528322 
4449.000000	64.429974 
4448.000000	64.320921 
4447.000000	64.220046 
4446.000000	64.142918 
4445.000000	64.099431 
4444.000000	64.088559 
4443.000000	64.099693 
4442.000000	64.117550 
4441.000000	64.131689 
4440.000000	64.138317 
4439.000000	64.149141 
4438.000000	64.202952 
4437.000000	64.352989 
4436.000000	64.654946 
4435.000000	65.138506 
4434.000000	65.800118 
4433.000000	66.579461 
4432.000000	67.364764 
4431.000000	68.008399 
4430.000000	68.360161 
4429.000000	68.303179 
4428.000000	67.795634 
4427.000000	66.870498 
4426.000000	65.650463 
4425.000000	64.287877 
4424.000000	62.936782 
4423.000000	61.698436 
4422.000000	60.602164 
4421.000000	59.611415 
4420.000000	58.649134 
4419.000000	57.651090 
4418.000000	56.603193 
4417.000000	55.583071 
4416.000000	54.754424 
4415.000000	54.335165 
4414.000000	54.537963 
4413.000000	55.506563 
4412.000000	57.262110 
4411.000000	59.674096 
4410.000000	62.474966 
4409.000000	65.313386 
4408.000000	67.823529 
4407.000000	69.706082 
4406.000000	70.782876 
4405.000000	71.023058 
4404.000000	70.538759 
4403.000000	69.542360 
4402.000000	68.294763 
4401.000000	67.052817 
4400.000000	66.010928 
4399.000000	65.296649 
4398.000000	64.932966 
4397.000000	64.877104 
4396.000000	65.024685 
4395.000000	65.263581 
4394.000000	65.488696 
4393.000000	65.628242 
4392.000000	65.655112 
4391.000000	65.581798 
4390.000000	65.447044 
4389.000000	65.294361 
4388.000000	65.164041 
4387.000000	65.079855 
4386.000000	65.050578 
4385.000000	65.069413 
4384.000000	65.123534 
4383.000000	65.196990 
4382.000000	65.276384 
4381.000000	65.353107 
4380.000000	65.416836 
4379.000000	65.461564 
4378.000000	65.489745 
4377.000000	65.508365 
4376.000000	65.519571 
4375.000000	65.525937 
4374.000000	65.534782 
4373.000000	65.551376 
4372.000000	65.577435 
4371.000000	65.611267 
4370.000000	65.646457 
4369.000000	65.677189 
4368.000000	65.702676 
4367.000000	65.723705 
4366.000000	65.741705 
4365.000000	65.760040 
4364.000000	65.782546 
4363.000000	65.812206 
4362.000000	65.849852 
4361.000000	65.892672 
4360.000000	65.934371 
4359.000000	65.967488 
4358.000000	65.984606 
4357.000000	65.981364 
4356.000000	65.956282 
4355.000000	65.910339 
4354.000000	65.846109 
4353.000000	65.767359 
4352.000000	65.678071 
4351.000000	65.582680 
4350.000000	65.485167 
4349.000000	65.390229 
4348.000000	65.301895 
4347.000000	65.224194 
4346.000000	65.160012 
4345.000000	65.110325 
4344.000000	65.074849 
4343.000000	65.052151 
4342.000000	65.040111 
4341.000000	65.036106 
4340.000000	65.037369 
4339.000000	65.041112 
4338.000000	65.044403 
4337.000000	65.043950 
4336.000000	65.036702 
4335.000000	65.020132 
4334.000000	64.992809 
4333.000000	64.955163 
4332.000000	64.910149 
4331.000000	64.863252 
4330.000000	64.821791 
4329.000000	64.793658 
4328.000000	64.785861 
4327.000000	64.802789 
4326.000000	64.844894 
4325.000000	64.908146 
4324.000000	64.984798 
4323.000000	65.064477 
4322.000000	65.136790 
4321.000000	65.192747 
4320.000000	65.225791 
4319.000000	65.233349 
4318.000000	65.217041 
4317.000000	65.181994 
4316.000000	65.135288 
4315.000000	65.085053 
4314.000000	65.039038 
4313.000000	65.003609 
4312.000000	64.983129 
4311.000000	64.979386 
4310.000000	64.992189 
4309.000000	65.019059 
4308.000000	65.055942 
4307.000000	65.097737 
4306.000000	65.139031 
4305.000000	65.174436 
4304.000000	65.199613 
4303.000000	65.211534 
4302.000000	65.209078 
4301.000000	65.192890 
4300.000000	65.165615 
4299.000000	65.130853 
4298.000000	65.093517 
4297.000000	65.059328 
4296.000000	65.033721 
4295.000000	65.021300 
4294.000000	65.024471 
4293.000000	65.043854 
4292.000000	65.076780 
4291.000000	65.117883 
4290.000000	65.159893 
4289.000000	65.194916 
4288.000000	65.215873 
4287.000000	65.217661 
4286.000000	65.198802 
4285.000000	65.161371 
4284.000000	65.111088 
4283.000000	65.056228 
4282.000000	65.005803 
4281.000000	64.967560 
4280.000000	64.947009 
4279.000000	64.945936 
4278.000000	64.962410 
4277.000000	64.990854 
4276.000000	65.023446 
4275.000000	65.051412 
4274.000000	65.066432 
4273.000000	65.062093 
4272.000000	65.034651 
4271.000000	64.984130 
4270.000000	64.913749 
4269.000000	64.829921 
4268.000000	64.741063 
4267.000000	64.656615 
4266.000000	64.585280 
4265.000000	64.534044 
4264.000000	64.507198 
4263.000000	64.505672 
4262.000000	64.527130 
4261.000000	64.566659 
4260.000000	64.617586 
4259.000000	64.673256 
4258.000000	64.728069 
4257.000000	64.778184 
4256.000000	64.821600 
4255.000000	64.858031 
4254.000000	64.888262 
4253.000000	64.913272 
4252.000000	64.933872 
4251.000000	64.950919 
4250.000000	64.965176 
4249.000000	64.977931 
4248.000000	64.990496 
4247.000000	65.004324 
4246.000000	65.020298 
4245.000000	65.038657 
4244.000000	65.058541 
4243.000000	65.078234 
4242.000000	65.095376 
4241.000000	65.108013 
4240.000000	65.114736 
4239.000000	65.115237 
4238.000000	65.110373 
4237.000000	65.102481 
4236.000000	65.094017 
4235.000000	65.086913 
4234.000000	65.082144 
4233.000000	65.080046 
4232.000000	65.079689 
4231.000000	65.079641 
4230.000000	65.077900 
4229.000000	65.072607 
4228.000000	65.061759 
4227.000000	65.043449 
4226.000000	65.015459 
4225.000000	64.975857 
4224.000000	64.923763 
4223.000000	64.860129 
4222.000000	64.787912 
4221.000000	64.712309 
4220.000000	64.640259 
4219.000000	64.579367 
4218.000000	64.535975 
4217.000000	64.514374 
4216.000000	64.515614 
4215.000000	64.537978 
4214.000000	64.576292 
4213.000000	64.624524 
4212.000000	64.676570 
4211.000000	64.728069 
4210.000000	64.776587 
4209.000000	64.822006 
4208.000000	64.865422 
4207.000000	64.908194 
4206.000000	64.950752 
4205.000000	64.991950 
4204.000000	65.028858 
4203.000000	65.057778 
4202.000000	65.075469 
4201.000000	65.079808 
4200.000000	65.070748 
4199.000000	65.050721 
4198.000000	65.024161 
4197.000000	64.996027 
4196.000000	64.970660 
4195.000000	64.950847 
4194.000000	64.937067 
4193.000000	64.927601 
4192.000000	64.918994 
4191.000000	64.907550 
4190.000000	64.890265 
4189.000000	64.865589 
4188.000000	64.834380 
4187.000000	64.799070 
4186.000000	64.764022 
4185.000000	64.734268 
4184.000000	64.714908 
4183.000000	64.709520 
4182.000000	64.719724 
4181.000000	64.744925 
4180.000000	64.782381 
4179.000000	64.827394 
4178.000000	64.874911 
4177.000000	64.920473 
4176.000000	64.961361 
4175.000000	64.996552 
4174.000000	65.027189 
4173.000000	65.055727 
4172.000000	65.085005 
4171.000000	65.117096 
4170.000000	65.152287 
4169.000000	65.188646 
4168.000000	65.222644 
4167.000000	65.249252 
4166.000000	65.264129 
4165.000000	65.263581 
4164.000000	65.246748 
4163.000000	65.214443 
4162.000000	65.169095 
4161.000000	65.113759 
4160.000000	65.051555 
4159.000000	64.985108 
