PE IR       SPECTRUM    SPECTRUM    ASCII       PEDS        1.60        
  -1
BZCBF9~1.ASC
17/04/07
22:09:47.00
17/04/07
22:09:47.00
tln
$BZ1503107-1_t0109$<tbV0>[-10.4,10.4,8.0,0.0,27,1,0]
370.000000
64









2002,4.07    
MIRTGS : RIGHTBACK : INTERNAL 2
MIR : ON : INTERNAL 2
OPTKBR

0.200000
8
8.000000
FILLER
RATIO
SPECTRUM
UNLOCKED 256

DOUBLE
64
COMBINED
1
0
0


1.000000
RATIO


1
0
TRUE
51149
0
LEFT NOT FITTED RIGHT NOT FITTED 0
NONE
NONE
15600
12.000000
4.427000
51148
TRUE
1 0 8 72 0 0 0 0 

15798.010000






#HDR
-1
-1
#GR
CM-1
%T
0.00002384185791015625
0.0
5000.000000
-1.000000
4631
8
77.739477
56.799650
#DATA
5000.000000	64.235568 
4999.000000	64.262127 
4998.000000	64.321708 
4997.000000	64.408826 
4996.000000	64.511013 
4995.000000	64.610052 
4994.000000	64.686346 
4993.000000	64.723038 
4992.000000	64.710497 
4991.000000	64.648270 
4990.000000	64.546275 
4989.000000	64.423346 
4988.000000	64.301323 
4987.000000	64.199638 
4986.000000	64.130496 
4985.000000	64.096832 
4984.000000	64.089322 
4983.000000	64.088988 
4982.000000	64.073419 
4981.000000	64.022564 
4980.000000	63.920807 
4979.000000	63.761711 
4978.000000	63.549017 
4977.000000	63.297438 
4976.000000	63.027930 
4975.000000	62.766790 
4974.000000	62.538027 
4973.000000	62.364125 
4972.000000	62.262129 
4971.000000	62.243795 
4970.000000	62.312173 
4969.000000	62.463808 
4968.000000	62.687110 
4967.000000	62.966156 
4966.000000	63.277888 
4965.000000	63.600373 
4964.000000	63.912749 
4963.000000	64.200496 
4962.000000	64.454245 
4961.000000	64.672660 
4960.000000	64.859366 
4959.000000	65.023374 
4958.000000	65.175914 
4957.000000	65.329241 
4956.000000	65.493297 
4955.000000	65.675997 
4954.000000	65.879702 
4953.000000	66.098904 
4952.000000	66.318106 
4951.000000	66.515135 
4950.000000	66.662406 
4949.000000	66.732478 
4948.000000	66.703104 
4947.000000	66.564822 
4946.000000	66.322755 
4945.000000	65.999126 
4944.000000	65.627932 
4943.000000	65.251612 
4942.000000	64.910125 
4941.000000	64.633727 
4940.000000	64.437675 
4939.000000	64.320635 
4938.000000	64.269018 
4937.000000	64.262223 
4936.000000	64.280676 
4935.000000	64.309239 
4934.000000	64.343357 
4933.000000	64.387750 
4932.000000	64.451527 
4931.000000	64.540910 
4930.000000	64.657950 
4929.000000	64.797163 
4928.000000	64.945864 
4927.000000	65.086483 
4926.000000	65.203452 
4925.000000	65.285754 
4924.000000	65.330338 
4923.000000	65.340209 
4922.000000	65.322446 
4921.000000	65.284895 
4920.000000	65.231490 
4919.000000	65.164113 
4918.000000	65.083646 
4917.000000	64.993047 
4916.000000	64.901089 
4915.000000	64.820766 
4914.000000	64.768528 
4913.000000	64.758706 
4912.000000	64.801144 
4911.000000	64.894342 
4910.000000	65.023732 
4909.000000	65.164637 
4908.000000	65.287733 
4907.000000	65.365266 
4906.000000	65.377855 
4905.000000	65.319919 
4904.000000	65.200901 
4903.000000	65.043115 
4902.000000	64.875984 
4901.000000	64.728450 
4900.000000	64.621877 
4899.000000	64.566349 
4898.000000	64.558959 
4897.000000	64.586615 
4896.000000	64.630031 
4895.000000	64.669895 
4894.000000	64.691805 
4893.000000	64.687705 
4892.000000	64.659094 
4891.000000	64.613747 
4890.000000	64.565086 
4889.000000	64.526343 
4888.000000	64.508724 
4887.000000	64.518046 
4886.000000	64.554405 
4885.000000	64.613366 
4884.000000	64.686632 
4883.000000	64.764714 
4882.000000	64.838314 
4881.000000	64.899992 
4880.000000	64.944672 
4879.000000	64.969849 
4878.000000	64.975333 
4877.000000	64.962220 
4876.000000	64.933729 
4875.000000	64.894509 
4874.000000	64.850640 
4873.000000	64.808535 
4872.000000	64.773750 
4871.000000	64.749813 
4870.000000	64.738225 
4869.000000	64.737939 
4868.000000	64.744901 
4867.000000	64.753603 
4866.000000	64.758682 
4865.000000	64.756393 
4864.000000	64.745640 
4863.000000	64.728879 
4862.000000	64.710593 
4861.000000	64.696931 
4860.000000	64.694023 
4859.000000	64.705419 
4858.000000	64.731526 
4857.000000	64.767408 
4856.000000	64.804029 
4855.000000	64.829540 
4854.000000	64.832186 
4853.000000	64.803671 
4852.000000	64.741587 
4851.000000	64.650988 
4850.000000	64.543771 
4849.000000	64.436817 
4848.000000	64.348292 
4847.000000	64.293861 
4846.000000	64.283084 
4845.000000	64.317297 
4844.000000	64.389467 
4843.000000	64.486026 
4842.000000	64.589977 
4841.000000	64.684557 
4840.000000	64.756751 
4839.000000	64.799308 
4838.000000	64.811611 
4837.000000	64.797568 
4836.000000	64.764714 
4835.000000	64.721179 
4834.000000	64.674377 
4833.000000	64.629983 
4832.000000	64.591312 
4831.000000	64.560914 
4830.000000	64.539337 
4829.000000	64.526605 
4828.000000	64.522099 
4827.000000	64.524912 
4826.000000	64.534616 
4825.000000	64.550948 
4824.000000	64.574074 
4823.000000	64.604115 
4822.000000	64.640641 
4821.000000	64.682221 
4820.000000	64.726233 
4819.000000	64.769148 
4818.000000	64.806604 
4817.000000	64.834499 
4816.000000	64.850115 
4815.000000	64.852929 
4814.000000	64.844703 
4813.000000	64.829254 
4812.000000	64.812088 
4811.000000	64.798927 
4810.000000	64.794826 
4809.000000	64.803194 
4808.000000	64.824652 
4807.000000	64.857769 
4806.000000	64.900040 
4805.000000	64.948129 
4804.000000	64.998722 
4803.000000	65.048313 
4802.000000	65.093517 
4801.000000	65.131211 
4800.000000	65.158367 
4799.000000	65.173196 
4798.000000	65.175533 
4797.000000	65.167474 
4796.000000	65.153384 
4795.000000	65.138840 
4794.000000	65.129256 
4793.000000	65.128731 
4792.000000	65.138959 
4791.000000	65.159106 
4790.000000	65.186166 
4789.000000	65.215897 
4788.000000	65.243911 
4787.000000	65.267348 
4786.000000	65.284895 
4785.000000	65.297055 
4784.000000	65.304613 
4783.000000	65.308451 
4782.000000	65.307927 
4781.000000	65.300965 
4780.000000	65.284085 
4779.000000	65.253591 
4778.000000	65.206646 
4777.000000	65.143179 
4776.000000	65.066218 
4775.000000	64.982008 
4774.000000	64.899206 
4773.000000	64.826774 
4772.000000	64.773225 
4771.000000	64.744544 
4770.000000	64.743256 
4769.000000	64.767765 
4768.000000	64.813065 
4767.000000	64.871406 
4766.000000	64.933252 
4765.000000	64.989042 
4764.000000	65.030264 
4763.000000	65.050888 
4762.000000	65.047478 
4761.000000	65.020155 
4760.000000	64.971995 
4759.000000	64.909124 
4758.000000	64.839529 
4757.000000	64.772152 
4756.000000	64.715957 
4755.000000	64.678168 
4754.000000	64.663839 
4753.000000	64.674544 
4752.000000	64.708423 
4751.000000	64.760589 
4750.000000	64.823698 
4749.000000	64.890027 
4748.000000	64.952230 
4747.000000	65.005016 
4746.000000	65.045452 
4745.000000	65.072941 
4744.000000	65.088295 
4743.000000	65.093183 
4742.000000	65.089368 
4741.000000	65.077614 
4740.000000	65.057706 
4739.000000	65.029001 
4738.000000	64.991164 
4737.000000	64.944577 
4736.000000	64.890956 
4735.000000	64.833402 
4734.000000	64.776301 
4733.000000	64.724993 
4732.000000	64.684796 
4731.000000	64.659953 
4730.000000	64.652776 
4729.000000	64.663124 
4728.000000	64.688348 
4727.000000	64.723634 
4726.000000	64.762735 
4725.000000	64.798760 
4724.000000	64.825868 
4723.000000	64.839720 
4722.000000	64.839005 
4721.000000	64.824724 
4720.000000	64.800715 
4719.000000	64.772319 
4718.000000	64.745426 
4717.000000	64.725160 
4716.000000	64.714765 
4715.000000	64.715170 
4714.000000	64.724969 
4713.000000	64.741230 
4712.000000	64.760136 
4711.000000	64.778161 
4710.000000	64.792323 
4709.000000	64.801120 
4708.000000	64.804315 
4707.000000	64.803218 
4706.000000	64.800286 
4705.000000	64.798092 
4704.000000	64.799404 
4703.000000	64.805746 
4702.000000	64.816927 
4701.000000	64.830946 
4700.000000	64.844441 
4699.000000	64.853930 
4698.000000	64.856457 
4697.000000	64.851164 
4696.000000	64.839458 
4695.000000	64.825153 
4694.000000	64.813923 
4693.000000	64.811348 
4692.000000	64.821600 
4691.000000	64.846038 
4690.000000	64.882731 
4689.000000	64.926767 
4688.000000	64.971709 
4687.000000	65.011191 
4686.000000	65.040683 
4685.000000	65.058779 
4684.000000	65.067267 
4683.000000	65.070152 
4682.000000	65.072131 
4681.000000	65.076994 
4680.000000	65.086460 
4679.000000	65.100193 
4678.000000	65.115904 
4677.000000	65.130829 
4676.000000	65.142512 
4675.000000	65.150141 
4674.000000	65.154194 
4673.000000	65.156388 
4672.000000	65.158700 
4671.000000	65.162348 
4670.000000	65.167284 
4669.000000	65.171885 
4668.000000	65.173792 
4667.000000	65.170764 
4666.000000	65.161871 
4665.000000	65.148115 
4664.000000	65.132594 
4663.000000	65.119743 
4662.000000	65.114307 
4661.000000	65.119767 
4660.000000	65.137553 
4659.000000	65.166401 
4658.000000	65.202450 
4657.000000	65.240073 
4656.000000	65.273332 
4655.000000	65.297198 
4654.000000	65.308499 
4653.000000	65.306210 
4652.000000	65.291476 
4651.000000	65.266895 
4650.000000	65.235757 
4649.000000	65.201091 
4648.000000	65.165591 
4647.000000	65.131068 
4646.000000	65.098595 
4645.000000	65.068626 
4644.000000	65.041518 
4643.000000	65.017628 
4642.000000	64.997267 
4641.000000	64.981365 
4640.000000	64.971041 
4639.000000	64.967775 
4638.000000	64.972805 
4637.000000	64.986562 
4636.000000	65.008020 
4635.000000	65.034914 
4634.000000	65.063595 
4633.000000	65.089774 
4632.000000	65.109205 
4631.000000	65.118885 
4630.000000	65.117740 
4629.000000	65.107011 
4628.000000	65.089821 
4627.000000	65.070748 
4626.000000	65.054345 
4625.000000	65.043902 
4624.000000	65.040254 
4623.000000	65.041565 
4622.000000	65.043687 
4621.000000	65.041971 
4620.000000	65.031957 
4619.000000	65.011072 
4618.000000	64.979195 
4617.000000	64.938449 
4616.000000	64.893221 
4615.000000	64.848446 
4614.000000	64.809679 
4613.000000	64.781808 
4612.000000	64.768671 
4611.000000	64.772534 
4610.000000	64.793467 
4609.000000	64.829468 
4608.000000	64.876675 
4607.000000	64.929866 
4606.000000	64.984083 
4605.000000	65.035271 
4604.000000	65.081048 
4603.000000	65.120768 
4602.000000	65.155696 
4601.000000	65.187788 
4600.000000	65.218758 
4599.000000	65.248799 
4598.000000	65.276145 
4597.000000	65.296697 
4596.000000	65.305399 
4595.000000	65.297222 
4594.000000	65.268850 
4593.000000	65.219497 
4592.000000	65.152144 
4591.000000	65.072751 
4590.000000	64.989209 
4589.000000	64.910221 
4588.000000	64.843058 
4587.000000	64.793372 
4586.000000	64.764451 
4585.000000	64.756917 
4584.000000	64.769244 
4583.000000	64.797472 
4582.000000	64.835858 
4581.000000	64.877152 
4580.000000	64.913582 
4579.000000	64.937782 
4578.000000	64.944124 
4577.000000	64.929795 
4576.000000	64.895415 
4575.000000	64.845442 
4574.000000	64.787125 
4573.000000	64.729523 
4572.000000	64.681482 
4571.000000	64.649891 
4570.000000	64.638018 
4569.000000	64.645075 
4568.000000	64.666366 
4567.000000	64.694571 
4566.000000	64.721226 
4565.000000	64.738917 
4564.000000	64.742445 
4563.000000	64.729309 
4562.000000	64.700603 
4561.000000	64.659523 
4560.000000	64.611315 
4559.000000	64.561605 
4558.000000	64.515900 
4557.000000	64.478898 
4556.000000	64.453363 
4555.000000	64.440035 
4554.000000	64.437818 
4553.000000	64.444446 
4552.000000	64.457392 
4551.000000	64.474558 
4550.000000	64.494609 
4549.000000	64.517092 
4548.000000	64.542531 
4547.000000	64.572048 
4546.000000	64.606380 
4545.000000	64.645385 
4544.000000	64.688014 
4543.000000	64.731955 
4542.000000	64.774465 
4541.000000	64.812278 
4540.000000	64.842486 
4539.000000	64.862656 
4538.000000	64.871788 
4537.000000	64.869809 
4536.000000	64.857482 
4535.000000	64.836502 
4534.000000	64.809393 
4533.000000	64.779400 
4532.000000	64.750552 
4531.000000	64.726805 
4530.000000	64.711999 
4529.000000	64.708113 
4528.000000	64.715147 
4527.000000	64.730095 
4526.000000	64.747524 
4525.000000	64.760708 
4524.000000	64.763188 
4523.000000	64.750146 
4522.000000	64.719629 
4521.000000	64.673113 
4520.000000	64.615249 
4519.000000	64.552330 
4518.000000	64.490914 
4517.000000	64.436626 
4516.000000	64.393067 
4515.000000	64.361166 
4514.000000	64.340162 
4513.000000	64.328241 
4512.000000	64.324212 
4511.000000	64.327406 
4510.000000	64.338612 
4509.000000	64.359211 
4508.000000	64.390683 
4507.000000	64.433169 
4506.000000	64.484834 
4505.000000	64.541316 
4504.000000	64.595937 
4503.000000	64.641261 
4502.000000	64.669609 
4501.000000	64.674830 
4500.000000	64.653253 
4499.000000	64.604854 
4498.000000	64.532613 
4497.000000	64.442396 
4496.000000	64.341640 
4495.000000	64.238452 
4494.000000	64.140987 
4493.000000	64.056324 
4492.000000	63.989877 
4491.000000	63.944530 
4490.000000	63.919806 
4489.000000	63.912701 
4488.000000	63.917231 
4487.000000	63.927578 
4486.000000	63.938927 
4485.000000	63.949584 
4484.000000	63.960886 
4483.000000	63.976740 
4482.000000	63.999485 
4481.000000	64.031267 
4480.000000	64.073753 
4479.000000	64.126348 
4478.000000	64.182472 
4477.000000	64.236664 
4476.000000	64.290428 
4475.000000	64.343190 
4474.000000	64.389705 
4473.000000	64.424753 
4472.000000	64.444065 
4471.000000	64.444351 
4470.000000	64.425349 
4469.000000	64.384579 
4468.000000	64.318990 
4467.000000	64.233374 
4466.000000	64.138579 
4465.000000	64.050793 
4464.000000	63.984942 
4463.000000	63.949060 
4462.000000	63.942933 
4461.000000	63.944864 
4460.000000	63.931155 
4459.000000	63.891148 
4458.000000	63.832402 
4457.000000	63.780093 
4456.000000	63.776659 
4455.000000	63.847589 
4454.000000	64.031672 
4453.000000	64.340496 
4452.000000	64.814496 
4451.000000	65.520691 
4450.000000	66.537380 
4449.000000	67.952060 
4448.000000	69.768118 
4447.000000	71.883702 
4446.000000	74.065709 
4445.000000	75.981307 
4444.000000	77.292895 
4443.000000	77.739477 
4442.000000	77.230262 
4441.000000	75.867104 
4440.000000	73.903179 
4439.000000	71.673107 
4438.000000	69.493722 
4437.000000	67.591238 
4436.000000	66.069531 
4435.000000	64.902472 
4434.000000	63.995051 
4433.000000	63.218283 
4432.000000	62.466740 
4431.000000	61.698532 
4430.000000	60.926032 
4429.000000	60.235857 
4428.000000	59.734439 
4427.000000	59.537124 
4426.000000	59.702610 
4425.000000	60.234808 
4424.000000	61.062240 
4423.000000	62.063455 
4422.000000	63.088011 
4421.000000	63.997721 
4420.000000	64.697122 
4419.000000	65.143918 
4418.000000	65.348482 
4417.000000	65.361976 
4416.000000	65.254378 
4415.000000	65.092277 
4414.000000	64.921450 
4413.000000	64.771461 
4412.000000	64.652085 
4411.000000	64.565896 
4410.000000	64.510011 
4409.000000	64.481091 
4408.000000	64.476490 
4407.000000	64.497995 
4406.000000	64.548397 
4405.000000	64.618730 
4404.000000	64.697027 
4403.000000	64.774346 
4402.000000	64.842772 
4401.000000	64.894366 
4400.000000	64.923858 
4399.000000	64.929747 
4398.000000	64.912986 
4397.000000	64.875578 
4396.000000	64.821481 
4395.000000	64.756584 
4394.000000	64.687085 
4393.000000	64.619255 
4392.000000	64.557647 
4391.000000	64.504361 
4390.000000	64.460706 
4389.000000	64.427924 
4388.000000	64.403104 
4387.000000	64.380383 
4386.000000	64.354014 
4385.000000	64.319682 
4384.000000	64.276003 
4383.000000	64.224791 
4382.000000	64.169239 
4381.000000	64.113426 
4380.000000	64.061212 
4379.000000	64.015650 
4378.000000	63.977575 
4377.000000	63.947057 
4376.000000	63.923549 
4375.000000	63.907194 
4374.000000	63.899135 
4373.000000	63.901567 
4372.000000	63.916420 
4371.000000	63.945436 
4370.000000	63.988709 
4369.000000	64.044666 
4368.000000	64.109063 
4367.000000	64.176535 
4366.000000	64.241480 
4365.000000	64.299345 
4364.000000	64.347386 
4363.000000	64.384722 
4362.000000	64.412117 
4361.000000	64.431548 
4360.000000	64.445662 
4359.000000	64.457392 
4358.000000	64.469695 
4357.000000	64.485955 
4356.000000	64.509367 
4355.000000	64.543032 
4354.000000	64.588713 
4353.000000	64.647269 
4352.000000	64.716744 
4351.000000	64.792823 
4350.000000	64.868664 
4349.000000	64.936184 
4348.000000	64.987349 
4347.000000	65.015912 
4346.000000	65.018558 
4345.000000	64.996409 
4344.000000	64.953923 
4343.000000	64.898133 
4342.000000	64.837002 
4341.000000	64.778113 
4340.000000	64.727330 
4339.000000	64.688372 
4338.000000	64.662218 
4337.000000	64.647889 
4336.000000	64.642071 
4335.000000	64.640498 
4334.000000	64.637923 
4333.000000	64.629650 
4332.000000	64.612579 
4331.000000	64.586138 
4330.000000	64.552402 
4329.000000	64.515447 
4328.000000	64.480543 
4327.000000	64.452552 
4326.000000	64.434599 
4325.000000	64.427471 
4324.000000	64.429187 
4323.000000	64.436221 
4322.000000	64.443850 
4321.000000	64.448618 
4320.000000	64.449024 
4319.000000	64.446544 
4318.000000	64.444613 
4317.000000	64.448285 
4316.000000	64.462447 
4315.000000	64.490342 
4314.000000	64.532041 
4313.000000	64.584517 
4312.000000	64.642071 
4311.000000	64.697980 
4310.000000	64.746189 
4309.000000	64.782428 
4308.000000	64.805173 
4307.000000	64.815831 
4306.000000	64.818358 
4305.000000	64.817976 
4304.000000	64.819645 
4303.000000	64.827179 
4302.000000	64.842247 
4301.000000	64.864683 
4300.000000	64.892530 
4299.000000	64.923000 
4298.000000	64.953041 
4297.000000	64.980435 
4296.000000	65.003800 
4295.000000	65.022754 
4294.000000	65.037155 
4293.000000	65.046858 
4292.000000	65.051364 
4291.000000	65.049743 
4290.000000	65.040874 
4289.000000	65.024018 
4288.000000	64.999389 
4287.000000	64.968729 
4286.000000	64.934897 
4285.000000	64.901876 
4284.000000	64.873814 
4283.000000	64.854311 
4282.000000	64.845347 
4281.000000	64.847064 
4280.000000	64.857196 
4279.000000	64.871644 
4278.000000	64.885377 
4277.000000	64.893531 
4276.000000	64.891934 
4275.000000	64.878010 
4274.000000	64.850902 
4273.000000	64.811515 
4272.000000	64.762330 
4271.000000	64.706707 
4270.000000	64.648461 
4269.000000	64.591407 
4268.000000	64.538812 
4267.000000	64.493584 
4266.000000	64.458107 
4265.000000	64.434456 
4264.000000	64.423441 
4263.000000	64.425587 
4262.000000	64.440584 
4261.000000	64.467787 
4260.000000	64.505791 
4259.000000	64.552617 
4258.000000	64.605426 
4257.000000	64.660882 
4256.000000	64.715123 
4255.000000	64.763927 
4254.000000	64.803266 
4253.000000	64.829683 
4252.000000	64.841198 
4251.000000	64.838004 
4250.000000	64.822530 
4249.000000	64.799904 
4248.000000	64.776659 
4247.000000	64.759945 
4246.000000	64.755225 
4245.000000	64.766025 
4244.000000	64.791631 
4243.000000	64.827322 
4242.000000	64.864897 
4241.000000	64.894580 
4240.000000	64.907336 
4239.000000	64.896893 
4238.000000	64.861965 
4237.000000	64.806556 
4236.000000	64.740133 
4235.000000	64.675188 
4234.000000	64.624810 
4233.000000	64.599704 
4232.000000	64.605474 
4231.000000	64.641666 
4230.000000	64.701366 
4229.000000	64.773058 
4228.000000	64.843201 
4227.000000	64.899635 
4226.000000	64.933514 
4225.000000	64.941596 
4224.000000	64.926290 
4223.000000	64.895105 
4222.000000	64.858126 
4221.000000	64.825940 
4220.000000	64.807510 
4219.000000	64.808154 
4218.000000	64.829707 
4217.000000	64.869499 
4216.000000	64.922022 
4215.000000	64.979338 
4214.000000	65.033650 
4213.000000	65.077710 
4212.000000	65.106081 
4211.000000	65.115809 
4210.000000	65.106153 
4209.000000	65.078735 
4208.000000	65.037202 
4207.000000	64.986300 
4206.000000	64.931464 
4205.000000	64.877510 
4204.000000	64.828634 
4203.000000	64.787650 
4202.000000	64.756298 
4201.000000	64.735007 
4200.000000	64.723348 
4199.000000	64.720439 
4198.000000	64.725065 
4197.000000	64.736247 
4196.000000	64.753270 
4195.000000	64.775109 
4194.000000	64.800930 
4193.000000	64.829802 
4192.000000	64.861035 
4191.000000	64.893841 
4190.000000	64.927411 
4189.000000	64.960956 
4188.000000	64.993309 
4187.000000	65.023326 
4186.000000	65.049481 
4185.000000	65.070033 
4184.000000	65.083074 
4183.000000	65.087199 
4182.000000	65.081763 
4181.000000	65.067458 
4180.000000	65.046238 
4179.000000	65.021443 
4178.000000	64.996600 
4177.000000	64.975047 
4176.000000	64.958906 
4175.000000	64.948916 
4174.000000	64.944291 
4173.000000	64.943289 
4172.000000	64.943790 
4171.000000	64.943981 
4170.000000	64.942979 
4169.000000	64.940953 
4168.000000	64.938879 
4167.000000	64.938020 
4166.000000	64.939403 
4165.000000	64.943599 
4164.000000	64.950180 
4163.000000	64.958429 
4162.000000	64.967489 
4161.000000	64.977288 
4160.000000	64.988303 
4159.000000	65.002131 
