PE IR       SPECTRUM    SPECTRUM    ASCII       PEDS        1.60        
  -1
BZ69A3~1.ASC
17/04/07
17:26:46.00
17/04/07
17:26:46.00
tln
$BZ1503107-1_t0051$<tbV0>[-2.6,-2.6,8.0,0.0,27,1,0]
370.000000
64









2002,4.07    
MIRTGS : RIGHTBACK : INTERNAL 2
MIR : ON : INTERNAL 2
OPTKBR

0.200000
8
8.000000
FILLER
RATIO
SPECTRUM
UNLOCKED 256

DOUBLE
64
COMBINED
1
0
0


1.000000
RATIO


1
0
TRUE
51149
0
LEFT NOT FITTED RIGHT NOT FITTED 0
NONE
NONE
15600
12.000000
4.427000
51148
TRUE
1 0 8 72 0 0 0 0 

15798.010000






#HDR
-1
-1
#GR
CM-1
%T
0.00002384185791015625
0.0
5000.000000
-1.000000
4631
8
70.282959
39.933204
#DATA
5000.000000	64.871621 
4999.000000	65.038466 
4998.000000	65.178751 
4997.000000	65.271258 
4996.000000	65.307569 
4995.000000	65.293097 
4994.000000	65.246033 
4993.000000	65.189313 
4992.000000	65.147352 
4991.000000	65.137386 
4990.000000	65.170145 
4989.000000	65.248727 
4988.000000	65.369987 
4987.000000	65.526509 
4986.000000	65.710115 
4985.000000	65.913844 
4984.000000	66.129779 
4983.000000	66.348433 
4982.000000	66.557526 
4981.000000	66.741609 
4980.000000	66.884970 
4979.000000	66.972661 
4978.000000	66.993141 
4977.000000	66.939926 
4976.000000	66.815018 
4975.000000	66.627860 
4974.000000	66.394019 
4973.000000	66.133832 
4972.000000	65.870881 
4971.000000	65.629029 
4970.000000	65.430736 
4969.000000	65.293025 
4968.000000	65.226793 
4967.000000	65.233111 
4966.000000	65.302681 
4965.000000	65.417194 
4964.000000	65.551972 
4963.000000	65.680599 
4962.000000	65.778183 
4961.000000	65.827631 
4960.000000	65.821218 
4959.000000	65.762948 
4958.000000	65.666103 
4957.000000	65.549635 
4956.000000	65.432620 
4955.000000	65.329194 
4954.000000	65.245103 
4953.000000	65.177583 
4952.000000	65.117192 
4951.000000	65.051174 
4950.000000	64.968681 
4949.000000	64.865064 
4948.000000	64.744400 
4947.000000	64.617848 
4946.000000	64.501810 
4945.000000	64.412045 
4944.000000	64.360547 
4943.000000	64.351177 
4942.000000	64.379882 
4941.000000	64.434480 
4940.000000	64.500045 
4939.000000	64.562487 
4938.000000	64.613103 
4937.000000	64.649486 
4936.000000	64.676713 
4935.000000	64.704012 
4934.000000	64.741945 
4933.000000	64.797902 
4932.000000	64.873671 
4931.000000	64.963817 
4930.000000	65.057277 
4929.000000	65.140199 
4928.000000	65.199398 
4927.000000	65.225887 
4926.000000	65.216016 
4925.000000	65.172743 
4924.000000	65.104794 
4923.000000	65.024709 
4922.000000	64.946246 
4921.000000	64.881205 
4920.000000	64.838910 
4919.000000	64.823126 
4918.000000	64.832878 
4917.000000	64.861774 
4916.000000	64.900541 
4915.000000	64.938449 
4914.000000	64.965224 
4913.000000	64.973664 
4912.000000	64.960455 
4911.000000	64.927053 
4910.000000	64.878129 
4909.000000	64.820981 
4908.000000	64.763116 
4907.000000	64.711189 
4906.000000	64.669752 
4905.000000	64.640641 
4904.000000	64.623260 
4903.000000	64.615917 
4902.000000	64.616918 
4901.000000	64.625096 
4900.000000	64.640021 
4899.000000	64.661574 
4898.000000	64.688968 
4897.000000	64.719676 
4896.000000	64.749217 
4895.000000	64.772343 
4894.000000	64.783859 
4893.000000	64.780163 
4892.000000	64.760422 
4891.000000	64.726471 
4890.000000	64.683556 
4889.000000	64.638972 
4888.000000	64.601182 
4887.000000	64.577841 
4886.000000	64.574408 
4885.000000	64.593267 
4884.000000	64.632987 
4883.000000	64.688754 
4882.000000	64.753079 
4881.000000	64.817214 
4880.000000	64.872908 
4879.000000	64.914035 
4878.000000	64.937520 
4877.000000	64.943528 
4876.000000	64.934921 
4875.000000	64.915943 
4874.000000	64.891242 
4873.000000	64.864468 
4872.000000	64.837312 
4871.000000	64.809203 
4870.000000	64.778304 
4869.000000	64.742565 
4868.000000	64.701104 
4867.000000	64.655137 
4866.000000	64.608359 
4865.000000	64.566278 
4864.000000	64.534735 
4863.000000	64.518523 
4862.000000	64.519524 
4861.000000	64.536452 
4860.000000	64.565014 
4859.000000	64.598774 
4858.000000	64.630556 
4857.000000	64.654231 
4856.000000	64.665651 
4855.000000	64.663529 
4854.000000	64.649271 
4853.000000	64.626598 
4852.000000	64.600372 
4851.000000	64.575529 
4850.000000	64.555811 
4849.000000	64.543581 
4848.000000	64.539575 
4847.000000	64.542889 
4846.000000	64.551496 
4845.000000	64.563059 
4844.000000	64.575624 
4843.000000	64.587759 
4842.000000	64.598941 
4841.000000	64.609575 
4840.000000	64.620494 
4839.000000	64.632892 
4838.000000	64.647459 
4837.000000	64.664292 
4836.000000	64.682340 
4835.000000	64.699792 
4834.000000	64.714145 
4833.000000	64.722800 
4832.000000	64.723539 
4831.000000	64.715576 
4830.000000	64.699292 
4829.000000	64.676308 
4828.000000	64.649200 
4827.000000	64.621067 
4826.000000	64.594697 
4825.000000	64.572072 
4824.000000	64.553904 
4823.000000	64.539885 
4822.000000	64.528751 
4821.000000	64.518976 
4820.000000	64.509129 
4819.000000	64.498353 
4818.000000	64.486265 
4817.000000	64.473128 
4816.000000	64.459419 
4815.000000	64.445352 
4814.000000	64.430356 
4813.000000	64.413261 
4812.000000	64.392471 
4811.000000	64.366817 
4810.000000	64.335584 
4809.000000	64.299774 
4808.000000	64.261937 
4807.000000	64.226436 
4806.000000	64.197826 
4805.000000	64.181375 
4804.000000	64.180970 
4803.000000	64.199280 
4802.000000	64.236617 
4801.000000	64.291238 
4800.000000	64.359354 
4799.000000	64.435195 
4798.000000	64.511466 
4797.000000	64.580297 
4796.000000	64.634251 
4795.000000	64.667463 
4794.000000	64.676523 
4793.000000	64.661407 
4792.000000	64.625597 
4791.000000	64.575934 
4790.000000	64.521384 
4789.000000	64.471912 
4788.000000	64.436507 
4787.000000	64.421963 
4786.000000	64.431762 
4785.000000	64.465403 
4784.000000	64.519071 
4783.000000	64.586758 
4782.000000	64.661788 
4781.000000	64.737272 
4780.000000	64.808392 
4779.000000	64.871835 
4778.000000	64.927005 
4777.000000	64.974689 
4776.000000	65.017127 
4775.000000	65.057158 
4774.000000	65.097284 
4773.000000	65.139555 
4772.000000	65.183687 
4771.000000	65.227484 
4770.000000	65.266442 
4769.000000	65.295410 
4768.000000	65.309333 
4767.000000	65.304803 
4766.000000	65.280914 
4765.000000	65.239858 
4764.000000	65.186691 
4763.000000	65.127921 
4762.000000	65.070152 
4761.000000	65.018153 
4760.000000	64.974188 
4759.000000	64.937305 
4758.000000	64.903950 
4757.000000	64.869236 
4756.000000	64.828681 
4755.000000	64.779829 
4754.000000	64.722442 
4753.000000	64.659810 
4752.000000	64.597415 
4751.000000	64.542770 
4750.000000	64.501905 
4749.000000	64.480447 
4748.000000	64.481902 
4747.000000	64.507746 
4746.000000	64.556479 
4745.000000	64.624643 
4744.000000	64.707255 
4743.000000	64.797925 
4742.000000	64.889383 
4741.000000	64.974474 
4740.000000	65.046834 
4739.000000	65.101504 
4738.000000	65.135240 
4737.000000	65.146780 
4736.000000	65.136694 
4735.000000	65.107369 
4734.000000	65.061974 
4733.000000	65.004611 
4732.000000	64.938712 
4731.000000	64.868235 
4730.000000	64.796066 
4729.000000	64.724183 
4728.000000	64.653420 
4727.000000	64.584732 
4726.000000	64.518880 
4725.000000	64.456486 
4724.000000	64.398598 
4723.000000	64.346456 
4722.000000	64.301729 
4721.000000	64.265179 
4720.000000	64.237427 
4719.000000	64.218211 
4718.000000	64.206695 
4717.000000	64.201354 
4716.000000	64.200425 
4715.000000	64.202189 
4714.000000	64.205121 
4713.000000	64.207935 
4712.000000	64.209771 
4711.000000	64.209985 
4710.000000	64.208006 
4709.000000	64.203572 
4708.000000	64.196491 
4707.000000	64.187264 
4706.000000	64.177274 
4705.000000	64.168763 
4704.000000	64.164590 
4703.000000	64.167761 
4702.000000	64.180636 
4701.000000	64.204764 
4700.000000	64.240002 
4699.000000	64.284968 
4698.000000	64.337205 
4697.000000	64.393806 
4696.000000	64.451956 
4695.000000	64.508962 
4694.000000	64.562463 
4693.000000	64.610481 
4692.000000	64.651393 
4691.000000	64.684176 
4690.000000	64.708352 
4689.000000	64.724874 
4688.000000	64.736151 
4687.000000	64.746356 
4686.000000	64.760398 
4685.000000	64.783501 
4684.000000	64.819741 
4683.000000	64.870548 
4682.000000	64.933609 
4681.000000	65.003490 
4680.000000	65.071725 
4679.000000	65.128588 
4678.000000	65.164470 
4677.000000	65.173101 
4676.000000	65.151691 
4675.000000	65.101575 
4674.000000	65.027379 
4673.000000	64.936447 
4672.000000	64.836573 
4671.000000	64.735174 
4670.000000	64.637947 
4669.000000	64.548897 
4668.000000	64.470648 
4667.000000	64.405035 
4666.000000	64.353585 
4665.000000	64.317440 
4664.000000	64.297962 
4663.000000	64.296007 
4662.000000	64.311337 
4661.000000	64.341497 
4660.000000	64.382624 
4659.000000	64.429807 
4658.000000	64.477896 
4657.000000	64.522838 
4656.000000	64.563226 
4655.000000	64.600682 
4654.000000	64.639258 
4653.000000	64.684462 
4652.000000	64.741349 
4651.000000	64.813017 
4650.000000	64.898943 
4649.000000	64.995026 
4648.000000	65.094637 
4647.000000	65.189647 
4646.000000	65.272641 
4645.000000	65.337753 
4644.000000	65.382504 
4643.000000	65.406847 
4642.000000	65.413713 
4641.000000	65.406560 
4640.000000	65.388274 
4639.000000	65.360951 
4638.000000	65.326285 
4637.000000	65.285491 
4636.000000	65.240335 
4635.000000	65.193629 
4634.000000	65.150070 
4633.000000	65.114092 
4632.000000	65.089416 
4631.000000	65.077519 
4630.000000	65.077424 
4629.000000	65.085744 
4628.000000	65.097761 
4627.000000	65.108466 
4626.000000	65.113544 
4625.000000	65.110278 
4624.000000	65.097546 
4623.000000	65.075135 
4622.000000	65.043473 
4621.000000	65.003228 
4620.000000	64.955401 
4619.000000	64.900922 
4618.000000	64.841842 
4617.000000	64.781522 
4616.000000	64.724731 
4615.000000	64.676785 
4614.000000	64.643144 
4613.000000	64.627933 
4612.000000	64.633131 
4611.000000	64.657425 
4610.000000	64.697504 
4609.000000	64.748430 
4608.000000	64.805173 
4607.000000	64.863538 
4606.000000	64.920592 
4605.000000	64.974474 
4604.000000	65.024113 
4603.000000	65.068554 
4602.000000	65.106749 
4601.000000	65.137314 
4600.000000	65.159058 
4599.000000	65.171170 
4598.000000	65.173745 
4597.000000	65.167737 
4596.000000	65.155625 
4595.000000	65.140485 
4594.000000	65.125918 
4593.000000	65.114974 
4592.000000	65.109920 
4591.000000	65.111541 
4590.000000	65.118861 
4589.000000	65.129613 
4588.000000	65.141201 
4587.000000	65.151262 
4586.000000	65.158057 
4585.000000	65.161395 
4584.000000	65.162467 
4583.000000	65.163683 
4582.000000	65.167832 
4581.000000	65.177273 
4580.000000	65.193176 
4579.000000	65.214896 
4578.000000	65.239810 
4577.000000	65.263843 
4576.000000	65.282392 
4575.000000	65.291786 
4574.000000	65.290188 
4573.000000	65.278172 
4572.000000	65.258455 
4571.000000	65.235209 
4570.000000	65.213012 
4569.000000	65.195274 
4568.000000	65.184283 
4567.000000	65.180897 
4566.000000	65.185022 
4565.000000	65.196323 
4564.000000	65.214228 
4563.000000	65.238189 
4562.000000	65.267562 
4561.000000	65.301394 
4560.000000	65.338158 
4559.000000	65.375375 
4558.000000	65.409994 
4557.000000	65.438485 
4556.000000	65.457701 
4555.000000	65.465712 
4554.000000	65.462207 
4553.000000	65.448760 
4552.000000	65.429019 
4551.000000	65.408158 
4550.000000	65.391683 
4549.000000	65.384364 
4548.000000	65.389323 
4547.000000	65.407013 
4546.000000	65.435123 
4545.000000	65.469002 
4544.000000	65.502285 
4543.000000	65.528869 
4542.000000	65.543699 
4541.000000	65.545034 
4540.000000	65.534925 
4539.000000	65.519142 
4538.000000	65.505909 
4537.000000	65.503454 
4536.000000	65.518045 
4535.000000	65.551590 
4534.000000	65.601587 
4533.000000	65.660762 
4532.000000	65.719127 
4531.000000	65.766024 
4530.000000	65.793347 
4529.000000	65.796279 
4528.000000	65.774393 
4527.000000	65.731143 
4526.000000	65.672731 
4525.000000	65.606713 
4524.000000	65.540337 
4523.000000	65.479850 
4522.000000	65.429663 
4521.000000	65.392398 
4520.000000	65.368938 
4519.000000	65.359091 
4518.000000	65.361690 
4517.000000	65.374374 
4516.000000	65.393757 
4515.000000	65.414881 
4514.000000	65.432596 
4513.000000	65.441489 
4512.000000	65.438365 
4511.000000	65.421676 
4510.000000	65.394139 
4509.000000	65.362024 
4508.000000	65.334796 
4507.000000	65.322875 
4506.000000	65.335297 
4505.000000	65.377759 
4504.000000	65.450263 
4503.000000	65.546631 
4502.000000	65.655589 
4501.000000	65.763354 
4500.000000	65.856099 
4499.000000	65.923023 
4498.000000	65.958738 
4497.000000	65.964174 
4496.000000	65.945744 
4495.000000	65.913462 
4494.000000	65.878391 
4493.000000	65.849709 
4492.000000	65.833544 
4491.000000	65.831089 
4490.000000	65.838909 
4489.000000	65.850043 
4488.000000	65.857362 
4487.000000	65.854954 
4486.000000	65.839767 
4485.000000	65.812230 
4484.000000	65.776109 
4483.000000	65.736556 
4482.000000	65.698242 
4481.000000	65.663480 
4480.000000	65.631699 
4479.000000	65.599632 
4478.000000	65.562701 
4477.000000	65.516710 
4476.000000	65.460610 
4475.000000	65.395522 
4474.000000	65.323758 
4473.000000	65.251231 
4472.000000	65.186548 
4471.000000	65.135192 
4470.000000	65.098619 
4469.000000	65.070796 
4468.000000	65.040445 
4467.000000	65.004062 
4466.000000	64.967155 
4465.000000	64.935374 
4464.000000	64.915728 
4463.000000	64.919877 
4462.000000	64.959812 
4461.000000	65.034031 
4460.000000	65.135169 
4459.000000	65.260815 
4458.000000	65.406537 
4457.000000	65.569376 
4456.000000	65.740704 
4455.000000	65.902256 
4454.000000	66.032385 
4453.000000	66.103053 
4452.000000	66.101789 
4451.000000	66.026854 
4450.000000	65.913724 
4449.000000	65.831470 
4448.000000	65.869331 
4447.000000	66.114783 
4446.000000	66.621541 
4445.000000	67.391037 
4444.000000	68.335556 
4443.000000	69.285130 
4442.000000	70.013427 
4441.000000	70.282959 
4440.000000	69.894051 
4439.000000	68.730521 
4438.000000	66.799306 
4437.000000	64.227271 
4436.000000	61.233735 
4435.000000	58.088302 
4434.000000	55.053949 
4433.000000	52.353286 
4432.000000	50.130271 
4431.000000	48.463225 
4430.000000	47.360467 
4429.000000	46.807289 
4428.000000	46.775102 
4427.000000	47.249794 
4426.000000	48.204278 
4425.000000	49.611210 
4424.000000	51.393961 
4423.000000	53.447246 
4422.000000	55.602502 
4421.000000	57.691192 
4420.000000	59.555387 
4419.000000	61.095356 
4418.000000	62.281680 
4417.000000	63.149905 
4416.000000	63.780260 
4415.000000	64.266300 
4414.000000	64.684510 
4413.000000	65.078926 
4412.000000	65.450000 
4411.000000	65.778803 
4410.000000	66.030383 
4409.000000	66.178321 
4408.000000	66.207695 
4407.000000	66.132283 
4406.000000	65.983653 
4405.000000	65.797352 
4404.000000	65.608811 
4403.000000	65.451669 
4402.000000	65.348219 
4401.000000	65.302133 
4400.000000	65.307140 
4399.000000	65.360760 
4398.000000	65.455937 
4397.000000	65.584325 
4396.000000	65.733718 
4395.000000	65.883922 
4394.000000	66.016983 
4393.000000	66.120123 
4392.000000	66.185927 
4391.000000	66.211342 
4390.000000	66.203022 
4389.000000	66.175818 
4388.000000	66.139006 
4387.000000	66.093850 
4386.000000	66.041374 
4385.000000	65.981912 
4384.000000	65.915012 
4383.000000	65.841031 
4382.000000	65.763854 
4381.000000	65.689778 
4380.000000	65.623998 
4379.000000	65.571355 
4378.000000	65.535712 
4377.000000	65.519380 
4376.000000	65.521740 
4375.000000	65.540552 
4374.000000	65.572094 
4373.000000	65.612435 
4372.000000	65.657758 
4371.000000	65.704703 
4370.000000	65.749835 
4369.000000	65.790748 
4368.000000	65.825510 
4367.000000	65.853643 
4366.000000	65.875792 
4365.000000	65.894103 
4364.000000	65.911459 
4363.000000	65.930700 
4362.000000	65.953803 
4361.000000	65.980339 
4360.000000	66.007137 
4359.000000	66.028833 
4358.000000	66.038608 
4357.000000	66.030335 
4356.000000	65.999650 
4355.000000	65.945482 
4354.000000	65.869879 
4353.000000	65.778422 
4352.000000	65.678596 
4351.000000	65.578269 
4350.000000	65.484333 
4349.000000	65.401434 
4348.000000	65.332174 
4347.000000	65.277194 
4346.000000	65.236473 
4345.000000	65.209341 
4344.000000	65.196371 
4343.000000	65.198969 
4342.000000	65.219378 
4341.000000	65.258574 
4340.000000	65.316295 
4339.000000	65.389943 
4338.000000	65.474605 
4337.000000	65.562891 
4336.000000	65.646791 
4335.000000	65.718889 
4334.000000	65.773677 
4333.000000	65.808153 
4332.000000	65.822005 
4331.000000	65.817093 
4330.000000	65.797162 
4329.000000	65.766668 
4328.000000	65.730452 
4327.000000	65.692210 
4326.000000	65.655875 
4325.000000	65.623521 
4324.000000	65.596175 
4323.000000	65.572309 
4322.000000	65.549850 
4321.000000	65.524935 
4320.000000	65.492868 
4319.000000	65.449404 
4318.000000	65.392041 
4317.000000	65.320873 
4316.000000	65.238833 
4315.000000	65.151619 
4314.000000	65.066671 
4313.000000	64.991474 
4312.000000	64.932036 
4311.000000	64.891624 
4310.000000	64.870262 
4309.000000	64.865899 
4308.000000	64.875364 
4307.000000	64.895582 
4306.000000	64.924383 
4305.000000	64.961051 
4304.000000	65.006113 
4303.000000	65.059399 
4302.000000	65.120053 
4301.000000	65.185761 
4300.000000	65.253186 
4299.000000	65.318346 
4298.000000	65.377593 
4297.000000	65.428972 
4296.000000	65.471935 
4295.000000	65.508365 
4294.000000	65.540480 
4293.000000	65.570187 
4292.000000	65.597486 
4291.000000	65.620732 
4290.000000	65.636229 
4289.000000	65.640282 
4288.000000	65.629792 
4287.000000	65.604496 
4286.000000	65.566754 
4285.000000	65.521478 
4284.000000	65.475082 
4283.000000	65.434288 
4282.000000	65.404248 
4281.000000	65.387415 
4280.000000	65.383481 
4279.000000	65.389418 
4278.000000	65.400099 
4277.000000	65.409612 
4276.000000	65.412378 
4275.000000	65.404701 
4274.000000	65.385055 
4273.000000	65.354728 
4272.000000	65.317010 
4271.000000	65.276741 
4270.000000	65.239286 
4269.000000	65.209102 
4268.000000	65.189075 
4267.000000	65.179204 
4266.000000	65.177345 
4265.000000	65.178894 
4264.000000	65.177893 
4263.000000	65.168571 
4262.000000	65.147089 
4261.000000	65.112495 
4260.000000	65.066671 
4259.000000	65.014767 
4258.000000	64.963865 
4257.000000	64.921259 
4256.000000	64.892697 
4255.000000	64.881420 
4254.000000	64.887523 
4253.000000	64.908385 
4252.000000	64.939618 
4251.000000	64.976263 
4250.000000	65.014362 
4249.000000	65.051603 
4248.000000	65.087723 
4247.000000	65.123796 
4246.000000	65.161466 
4245.000000	65.201783 
4244.000000	65.244269 
4243.000000	65.286850 
4242.000000	65.325760 
4241.000000	65.357112 
4240.000000	65.376830 
4239.000000	65.382432 
4238.000000	65.372467 
4237.000000	65.347933 
4236.000000	65.310406 
4235.000000	65.261983 
4234.000000	65.204572 
4233.000000	65.140032 
4232.000000	65.070176 
4231.000000	64.997506 
4230.000000	64.925432 
4229.000000	64.858675 
4228.000000	64.802289 
4227.000000	64.760947 
4226.000000	64.737772 
4225.000000	64.733695 
4224.000000	64.746737 
4223.000000	64.772748 
4222.000000	64.805722 
4221.000000	64.839649 
4220.000000	64.869546 
4219.000000	64.892530 
4218.000000	64.907622 
4217.000000	64.915823 
4216.000000	64.918947 
4215.000000	64.918994 
4214.000000	64.916849 
4213.000000	64.912748 
4212.000000	64.906358 
4211.000000	64.897465 
4210.000000	64.886379 
4209.000000	64.874196 
4208.000000	64.863133 
4207.000000	64.855837 
4206.000000	64.854788 
4205.000000	64.861726 
4204.000000	64.877009 
4203.000000	64.899778 
4202.000000	64.928221 
4201.000000	64.959502 
4200.000000	64.990329 
4199.000000	65.017580 
4198.000000	65.038895 
4197.000000	65.052747 
4196.000000	65.058875 
4195.000000	65.058469 
4194.000000	65.053915 
4193.000000	65.048885 
4192.000000	65.046977 
4191.000000	65.051722 
4190.000000	65.064454 
4189.000000	65.084767 
4188.000000	65.108895 
4187.000000	65.130782 
4186.000000	65.142989 
4185.000000	65.138649 
4184.000000	65.113306 
4183.000000	65.066289 
4182.000000	65.001678 
4181.000000	64.927744 
4180.000000	64.855408 
4179.000000	64.795875 
4178.000000	64.757966 
4177.000000	64.746069 
4176.000000	64.759135 
4175.000000	64.791154 
4174.000000	64.832949 
4173.000000	64.874529 
4172.000000	64.907598 
4171.000000	64.927315 
4170.000000	64.932990 
4169.000000	64.927816 
4168.000000	64.916872 
4167.000000	64.905500 
4166.000000	64.897894 
4165.000000	64.895796 
4164.000000	64.898610 
4163.000000	64.903092 
4162.000000	64.905309 
4161.000000	64.900994 
4160.000000	64.887452 
4159.000000	64.863419 
