PE IR       SPECTRUM    SPECTRUM    ASCII       PEDS        1.60        
  -1
BZ6034~1.ASC
17/04/07
17:12:54.00
17/04/07
17:12:54.00
tln
$BZ1503107-1_t0048$<tbV0>[5.2,-2.6,8.0,0.0,27,1,0]
370.000000
64









2002,4.07    
MIRTGS : RIGHTBACK : INTERNAL 2
MIR : ON : INTERNAL 2
OPTKBR

0.200000
8
8.000000
FILLER
RATIO
SPECTRUM
UNLOCKED 256

DOUBLE
64
COMBINED
1
0
0


1.000000
RATIO


1
0
TRUE
51149
0
LEFT NOT FITTED RIGHT NOT FITTED 0
NONE
NONE
15600
12.000000
4.427000
51148
TRUE
1 0 8 72 0 0 0 0 

15798.010000






#HDR
-1
-1
#GR
CM-1
%T
0.00002384185791015625
0.0
5000.000000
-1.000000
4631
8
67.473745
41.505885
#DATA
5000.000000	64.010667 
4999.000000	64.254379 
4998.000000	64.498114 
4997.000000	64.703464 
4996.000000	64.841032 
4995.000000	64.896059 
4994.000000	64.871835 
4993.000000	64.786648 
4992.000000	64.669370 
4991.000000	64.549994 
4990.000000	64.455723 
4989.000000	64.404320 
4988.000000	64.405870 
4987.000000	64.463376 
4986.000000	64.575052 
4985.000000	64.736485 
4984.000000	64.942741 
4983.000000	65.188527 
4982.000000	65.465521 
4981.000000	65.761017 
4980.000000	66.058087 
4979.000000	66.335725 
4978.000000	66.572570 
4977.000000	66.748499 
4976.000000	66.848373 
4975.000000	66.863632 
4974.000000	66.795372 
4973.000000	66.653752 
4972.000000	66.458177 
4971.000000	66.233706 
4970.000000	66.009569 
4969.000000	65.811991 
4968.000000	65.663313 
4967.000000	65.575218 
4966.000000	65.549254 
4965.000000	65.575003 
4964.000000	65.634703 
4963.000000	65.704941 
4962.000000	65.761470 
4961.000000	65.784430 
4960.000000	65.761327 
4959.000000	65.689849 
4958.000000	65.576934 
4957.000000	65.437793 
4956.000000	65.291762 
4955.000000	65.158271 
4954.000000	65.052366 
4953.000000	64.983296 
4952.000000	64.952635 
4951.000000	64.954662 
4950.000000	64.978456 
4949.000000	65.011262 
4948.000000	65.041494 
4947.000000	65.059542 
4946.000000	65.060591 
4945.000000	65.044283 
4944.000000	65.014982 
4943.000000	64.978170 
4942.000000	64.940547 
4941.000000	64.907336 
4940.000000	64.882278 
4939.000000	64.867830 
4938.000000	64.864659 
4937.000000	64.872241 
4936.000000	64.888978 
4935.000000	64.913463 
4934.000000	64.942979 
4933.000000	64.973545 
4932.000000	64.999699 
4931.000000	65.015268 
4930.000000	65.014791 
4929.000000	64.994907 
4928.000000	64.956092 
4927.000000	64.903235 
4926.000000	64.844465 
4925.000000	64.789795 
4924.000000	64.749789 
4923.000000	64.732432 
4922.000000	64.740705 
4921.000000	64.771652 
4920.000000	64.817118 
4919.000000	64.865612 
4918.000000	64.905238 
4917.000000	64.926195 
4916.000000	64.923262 
4915.000000	64.896702 
4914.000000	64.851498 
4913.000000	64.796066 
4912.000000	64.739871 
4911.000000	64.690804 
4910.000000	64.653635 
4909.000000	64.628911 
4908.000000	64.613842 
4907.000000	64.603352 
4906.000000	64.592123 
4905.000000	64.576530 
4904.000000	64.555931 
4903.000000	64.534449 
4902.000000	64.520001 
4901.000000	64.522767 
4900.000000	64.552283 
4899.000000	64.614701 
4898.000000	64.709997 
4897.000000	64.831209 
4896.000000	64.964818 
4895.000000	65.092968 
4894.000000	65.197300 
4893.000000	65.262818 
4892.000000	65.281748 
4891.000000	65.254759 
4890.000000	65.191507 
4889.000000	65.108489 
4888.000000	65.024781 
4887.000000	64.958357 
4886.000000	64.920902 
4885.000000	64.916753 
4884.000000	64.940714 
4883.000000	64.981365 
4882.000000	65.022921 
4881.000000	65.050244 
4880.000000	65.051841 
4879.000000	65.022635 
4878.000000	64.964962 
4877.000000	64.887404 
4876.000000	64.803123 
4875.000000	64.726233 
4874.000000	64.668822 
4873.000000	64.638113 
4872.000000	64.635658 
4871.000000	64.657044 
4870.000000	64.693379 
4869.000000	64.733600 
4868.000000	64.767050 
4867.000000	64.786291 
4866.000000	64.787745 
4865.000000	64.773106 
4864.000000	64.748430 
4863.000000	64.722132 
4862.000000	64.702701 
4861.000000	64.695692 
4860.000000	64.702677 
4859.000000	64.720106 
4858.000000	64.740896 
4857.000000	64.755797 
4856.000000	64.756584 
4855.000000	64.738392 
4854.000000	64.701509 
4853.000000	64.650940 
4852.000000	64.595055 
4851.000000	64.542961 
4850.000000	64.502048 
4849.000000	64.475846 
4848.000000	64.463114 
4847.000000	64.458513 
4846.000000	64.454746 
4845.000000	64.444541 
4844.000000	64.423418 
4843.000000	64.391016 
4842.000000	64.351630 
4841.000000	64.311766 
4840.000000	64.279365 
4839.000000	64.260530 
4838.000000	64.258861 
4837.000000	64.274787 
4836.000000	64.305520 
4835.000000	64.346528 
4834.000000	64.391732 
4833.000000	64.435338 
4832.000000	64.472079 
4831.000000	64.497947 
4830.000000	64.510536 
4829.000000	64.508581 
4828.000000	64.492750 
4827.000000	64.465355 
4826.000000	64.430189 
4825.000000	64.392137 
4824.000000	64.356589 
4823.000000	64.328575 
4822.000000	64.311814 
4821.000000	64.308214 
4820.000000	64.317655 
4819.000000	64.338445 
4818.000000	64.368033 
4817.000000	64.403629 
4816.000000	64.443159 
4815.000000	64.484930 
4814.000000	64.526963 
4813.000000	64.567017 
4812.000000	64.601659 
4811.000000	64.627122 
4810.000000	64.639949 
4809.000000	64.638161 
4808.000000	64.622521 
4807.000000	64.596486 
4806.000000	64.565992 
4805.000000	64.537835 
4804.000000	64.518737 
4803.000000	64.512991 
4802.000000	64.521741 
4801.000000	64.542317 
4800.000000	64.569330 
4799.000000	64.595699 
4798.000000	64.614844 
4797.000000	64.621973 
4796.000000	64.615559 
4795.000000	64.596962 
4794.000000	64.569878 
4793.000000	64.539051 
4792.000000	64.509010 
4791.000000	64.483141 
4790.000000	64.463114 
4789.000000	64.449286 
4788.000000	64.440703 
4787.000000	64.435791 
4786.000000	64.432644 
4785.000000	64.429187 
4784.000000	64.424133 
4783.000000	64.416980 
4782.000000	64.408397 
4781.000000	64.399313 
4780.000000	64.391374 
4779.000000	64.386487 
4778.000000	64.386868 
4777.000000	64.394211 
4776.000000	64.410185 
4775.000000	64.435911 
4774.000000	64.471864 
4773.000000	64.517688 
4772.000000	64.571356 
4771.000000	64.629125 
4770.000000	64.685797 
4769.000000	64.735364 
4768.000000	64.771890 
4767.000000	64.790654 
4766.000000	64.789605 
4765.000000	64.770054 
4764.000000	64.737153 
4763.000000	64.698743 
4762.000000	64.664363 
4761.000000	64.642119 
4760.000000	64.637112 
4759.000000	64.649105 
4758.000000	64.673113 
4757.000000	64.700222 
4756.000000	64.720320 
4755.000000	64.724588 
4754.000000	64.707922 
4753.000000	64.670181 
4752.000000	64.616250 
4751.000000	64.554858 
4750.000000	64.495539 
4749.000000	64.447355 
4748.000000	64.416575 
4747.000000	64.406108 
4746.000000	64.415264 
4745.000000	64.441061 
4744.000000	64.479470 
4743.000000	64.526462 
4742.000000	64.578747 
4741.000000	64.633703 
4740.000000	64.689278 
4739.000000	64.743161 
4738.000000	64.792537 
4737.000000	64.835000 
4736.000000	64.868497 
4735.000000	64.892482 
4734.000000	64.906978 
4733.000000	64.913296 
4732.000000	64.912533 
4731.000000	64.905881 
4730.000000	64.893388 
4729.000000	64.874434 
4728.000000	64.847731 
4727.000000	64.812707 
4726.000000	64.769482 
4725.000000	64.719414 
4724.000000	64.665269 
4723.000000	64.611005 
4722.000000	64.561152 
4721.000000	64.519262 
4720.000000	64.488244 
4719.000000	64.469289 
4718.000000	64.462518 
4717.000000	64.466929 
4716.000000	64.481091 
4715.000000	64.503312 
4714.000000	64.531540 
4713.000000	64.563298 
4712.000000	64.595627 
4711.000000	64.625215 
4710.000000	64.648866 
4709.000000	64.664077 
4708.000000	64.669442 
4707.000000	64.664793 
4706.000000	64.651083 
4705.000000	64.630126 
4704.000000	64.603877 
4703.000000	64.574813 
4702.000000	64.545726 
4701.000000	64.520478 
4700.000000	64.503192 
4699.000000	64.498662 
4698.000000	64.511656 
4697.000000	64.545631 
4696.000000	64.601826 
4695.000000	64.677786 
4694.000000	64.767003 
4693.000000	64.859652 
4692.000000	64.943933 
4691.000000	65.008926 
4690.000000	65.046906 
4689.000000	65.055990 
4688.000000	65.040612 
4687.000000	65.010523 
4686.000000	64.978480 
4685.000000	64.957141 
4684.000000	64.955878 
4683.000000	64.979171 
4682.000000	65.025138 
4681.000000	65.086817 
4680.000000	65.153503 
4679.000000	65.213775 
4678.000000	65.257954 
4677.000000	65.279960 
4676.000000	65.278482 
4675.000000	65.256834 
4674.000000	65.221476 
4673.000000	65.180516 
4672.000000	65.140986 
4671.000000	65.107560 
4670.000000	65.081453 
4669.000000	65.061402 
4668.000000	65.044307 
4667.000000	65.026903 
4666.000000	65.007376 
4665.000000	64.986133 
4664.000000	64.966154 
4663.000000	64.951920 
4662.000000	64.947962 
4661.000000	64.956927 
4660.000000	64.978551 
4659.000000	65.009212 
4658.000000	65.042066 
4657.000000	65.068435 
4656.000000	65.080070 
4655.000000	65.071320 
4654.000000	65.040421 
4653.000000	64.989995 
4652.000000	64.926171 
4651.000000	64.857578 
4650.000000	64.792990 
4649.000000	64.740419 
4648.000000	64.706063 
4647.000000	64.693474 
4646.000000	64.703416 
4645.000000	64.734292 
4644.000000	64.782619 
4643.000000	64.843988 
4642.000000	64.912843 
4641.000000	64.984035 
4640.000000	65.052723 
4639.000000	65.115118 
4638.000000	65.168547 
4637.000000	65.211367 
4636.000000	65.242552 
4635.000000	65.261530 
4634.000000	65.268254 
4633.000000	65.262484 
4632.000000	65.244102 
4631.000000	65.213632 
4630.000000	65.172791 
4629.000000	65.124869 
4628.000000	65.074372 
4627.000000	65.027070 
4626.000000	64.988327 
4625.000000	64.962220 
4624.000000	64.950060 
4623.000000	64.949989 
4622.000000	64.957618 
4621.000000	64.966917 
4620.000000	64.972138 
4619.000000	64.969301 
4618.000000	64.957070 
4617.000000	64.936780 
4616.000000	64.912176 
4615.000000	64.887762 
4614.000000	64.868330 
4613.000000	64.856886 
4612.000000	64.855265 
4611.000000	64.863204 
4610.000000	64.879846 
4609.000000	64.904284 
4608.000000	64.935970 
4607.000000	64.974665 
4606.000000	65.019965 
4605.000000	65.070652 
4604.000000	65.124034 
4603.000000	65.175819 
4602.000000	65.221071 
4601.000000	65.255022 
4600.000000	65.274572 
4599.000000	65.278553 
4598.000000	65.268421 
4597.000000	65.247559 
4596.000000	65.220546 
4595.000000	65.192174 
4594.000000	65.166449 
4593.000000	65.145969 
4592.000000	65.131974 
4591.000000	65.124273 
4590.000000	65.121912 
4589.000000	65.123581 
4588.000000	65.128397 
4587.000000	65.135788 
4586.000000	65.145492 
4585.000000	65.157818 
4584.000000	65.173268 
4583.000000	65.192437 
4582.000000	65.215277 
4581.000000	65.241432 
4580.000000	65.270066 
4579.000000	65.299296 
4578.000000	65.326237 
4577.000000	65.347218 
4576.000000	65.358424 
4575.000000	65.356898 
4574.000000	65.341043 
4573.000000	65.311288 
4572.000000	65.269827 
4571.000000	65.220808 
4570.000000	65.169167 
4569.000000	65.119194 
4568.000000	65.074539 
4567.000000	65.037393 
4566.000000	65.009045 
4565.000000	64.989662 
4564.000000	64.979839 
4563.000000	64.980030 
4562.000000	64.992308 
4561.000000	65.018892 
4560.000000	65.062761 
4559.000000	65.125465 
4558.000000	65.207290 
4557.000000	65.305685 
4556.000000	65.415859 
4555.000000	65.530943 
4554.000000	65.642857 
4553.000000	65.743422 
4552.000000	65.825557 
4551.000000	65.884208 
4550.000000	65.916872 
4549.000000	65.923523 
4548.000000	65.906167 
4547.000000	65.867924 
4546.000000	65.813064 
4545.000000	65.745973 
4544.000000	65.671038 
4543.000000	65.592336 
4542.000000	65.514349 
4541.000000	65.441846 
4540.000000	65.379166 
4539.000000	65.330982 
4538.000000	65.301489 
4537.000000	65.294456 
4536.000000	65.311717 
4535.000000	65.353131 
4534.000000	65.415930 
4533.000000	65.494179 
4532.000000	65.579199 
4531.000000	65.660166 
4530.000000	65.725278 
4529.000000	65.764594 
4528.000000	65.771722 
4527.000000	65.745234 
4526.000000	65.688729 
4525.000000	65.611124 
4524.000000	65.525054 
4523.000000	65.443849 
4522.000000	65.379023 
4521.000000	65.339016 
4520.000000	65.327978 
4519.000000	65.344929 
4518.000000	65.385270 
4517.000000	65.442276 
4516.000000	65.509438 
4515.000000	65.581226 
4514.000000	65.654706 
4513.000000	65.728855 
4512.000000	65.804386 
4511.000000	65.882468 
4510.000000	65.963292 
4509.000000	66.045188 
4508.000000	66.123867 
4507.000000	66.194272 
4506.000000	66.249728 
4505.000000	66.284918 
4504.000000	66.295313 
4503.000000	66.279673 
4502.000000	66.238760 
4501.000000	66.176223 
4500.000000	66.097164 
4499.000000	66.007828 
4498.000000	65.913915 
4497.000000	65.820240 
4496.000000	65.730166 
4495.000000	65.645909 
4494.000000	65.568900 
4493.000000	65.500235 
4492.000000	65.441250 
4491.000000	65.393829 
4490.000000	65.358853 
4489.000000	65.337395 
4488.000000	65.329146 
4487.000000	65.334153 
4486.000000	65.353083 
4485.000000	65.386438 
4484.000000	65.433859 
4483.000000	65.492820 
4482.000000	65.558648 
4481.000000	65.624070 
4480.000000	65.678286 
4479.000000	65.711379 
4478.000000	65.716552 
4477.000000	65.693306 
4476.000000	65.648412 
4475.000000	65.594387 
4474.000000	65.547275 
4473.000000	65.520501 
4472.000000	65.519547 
4471.000000	65.547537 
4470.000000	65.606498 
4469.000000	65.686392 
4468.000000	65.768551 
4467.000000	65.842437 
4466.000000	65.906739 
4465.000000	65.961885 
4464.000000	66.010475 
4463.000000	66.057682 
4462.000000	66.106033 
4461.000000	66.155672 
4460.000000	66.200065 
4459.000000	66.225957 
4458.000000	66.215634 
4457.000000	66.157269 
4456.000000	66.044116 
4455.000000	65.868902 
4454.000000	65.638685 
4453.000000	65.376138 
4452.000000	65.118837 
4451.000000	64.914512 
4450.000000	64.805507 
4449.000000	64.830279 
4448.000000	64.978981 
4447.000000	65.196442 
4446.000000	65.360903 
4445.000000	65.313053 
4444.000000	64.857912 
4443.000000	63.814902 
4442.000000	62.061405 
4441.000000	59.580564 
4440.000000	56.480097 
4439.000000	52.996635 
4438.000000	49.460196 
4437.000000	46.246862 
4436.000000	43.699622 
4435.000000	42.080855 
4434.000000	41.505885 
4433.000000	41.955709 
4432.000000	43.277263 
4431.000000	45.248007 
4430.000000	47.602057 
4429.000000	50.106310 
4428.000000	52.567505 
4427.000000	54.869174 
4426.000000	56.932973 
4425.000000	58.729982 
4424.000000	60.234165 
4423.000000	61.433100 
4422.000000	62.313175 
4421.000000	62.877726 
4420.000000	63.159012 
4419.000000	63.225173 
4418.000000	63.187623 
4417.000000	63.161802 
4416.000000	63.249588 
4415.000000	63.510012 
4414.000000	63.949131 
4413.000000	64.518666 
4412.000000	65.130996 
4411.000000	65.696430 
4410.000000	66.141676 
4409.000000	66.421604 
4408.000000	66.528320 
4407.000000	66.491365 
4406.000000	66.364574 
4405.000000	66.199898 
4404.000000	66.041135 
4403.000000	65.922379 
4402.000000	65.856385 
4401.000000	65.842866 
4400.000000	65.865874 
4399.000000	65.903544 
4398.000000	65.934419 
4397.000000	65.952205 
4396.000000	65.954947 
4395.000000	65.937590 
4394.000000	65.902137 
4393.000000	65.856814 
4392.000000	65.809941 
4391.000000	65.766406 
4390.000000	65.731477 
4389.000000	65.710306 
4388.000000	65.703606 
4387.000000	65.708422 
4386.000000	65.721106 
4385.000000	65.738368 
4384.000000	65.758204 
4383.000000	65.779900 
4382.000000	65.804409 
4381.000000	65.833139 
4380.000000	65.863990 
4379.000000	65.893125 
4378.000000	65.917563 
4377.000000	65.934467 
4376.000000	65.941572 
4375.000000	65.938043 
4374.000000	65.924715 
4373.000000	65.904307 
4372.000000	65.880942 
4371.000000	65.859818 
4370.000000	65.845704 
4369.000000	65.843343 
4368.000000	65.856432 
4367.000000	65.887832 
4366.000000	65.938878 
4365.000000	66.009068 
4364.000000	66.095829 
4363.000000	66.194009 
4362.000000	66.296172 
4361.000000	66.392946 
4360.000000	66.473793 
4359.000000	66.527962 
4358.000000	66.545724 
4357.000000	66.520404 
4356.000000	66.449761 
4355.000000	66.336798 
4354.000000	66.189956 
4353.000000	66.022419 
4352.000000	65.850281 
4351.000000	65.690779 
4350.000000	65.558767 
4349.000000	65.465283 
4348.000000	65.414929 
4347.000000	65.405893 
4346.000000	65.430283 
4345.000000	65.475416 
4344.000000	65.527677 
4343.000000	65.574717 
4342.000000	65.608406 
4341.000000	65.625095 
4340.000000	65.626740 
4339.000000	65.618753 
4338.000000	65.608549 
4337.000000	65.602421 
4336.000000	65.604615 
4335.000000	65.616083 
4334.000000	65.634489 
4333.000000	65.654993 
4332.000000	65.671968 
4331.000000	65.680456 
4330.000000	65.677332 
4329.000000	65.662097 
4328.000000	65.636801 
4327.000000	65.605640 
4326.000000	65.573453 
4325.000000	65.544772 
4324.000000	65.523076 
4323.000000	65.509724 
4322.000000	65.504908 
4321.000000	65.506696 
4320.000000	65.511655 
4319.000000	65.515732 
4318.000000	65.515708 
4317.000000	65.509414 
4316.000000	65.496230 
4315.000000	65.476751 
4314.000000	65.452885 
4313.000000	65.426421 
4312.000000	65.398597 
4311.000000	65.369367 
4310.000000	65.337514 
4309.000000	65.301871 
4308.000000	65.262365 
4307.000000	65.220713 
4306.000000	65.180611 
4305.000000	65.147137 
4304.000000	65.125536 
4303.000000	65.119600 
4302.000000	65.130329 
4301.000000	65.155076 
4300.000000	65.188002 
4299.000000	65.221142 
4298.000000	65.246629 
4297.000000	65.258932 
4296.000000	65.256214 
4295.000000	65.240859 
4294.000000	65.218329 
4293.000000	65.195488 
4292.000000	65.178632 
4291.000000	65.171432 
4290.000000	65.174460 
4289.000000	65.185284 
4288.000000	65.199351 
4287.000000	65.212011 
4286.000000	65.219187 
4285.000000	65.218687 
4284.000000	65.210247 
4283.000000	65.195417 
4282.000000	65.176892 
4281.000000	65.157866 
4280.000000	65.141487 
4279.000000	65.130543 
4278.000000	65.127348 
4277.000000	65.133285 
4276.000000	65.149140 
4275.000000	65.174269 
4274.000000	65.206646 
4273.000000	65.242934 
4272.000000	65.278220 
4271.000000	65.307450 
4270.000000	65.325951 
4269.000000	65.330719 
4268.000000	65.321040 
4267.000000	65.298700 
4266.000000	65.267586 
4265.000000	65.232968 
4264.000000	65.199899 
4263.000000	65.172624 
4262.000000	65.153884 
4261.000000	65.144753 
4260.000000	65.144968 
4259.000000	65.153527 
4258.000000	65.169215 
4257.000000	65.190744 
4256.000000	65.216875 
4255.000000	65.245699 
4254.000000	65.274381 
4253.000000	65.299010 
4252.000000	65.315008 
4251.000000	65.318012 
4250.000000	65.304803 
4249.000000	65.274667 
4248.000000	65.229773 
4247.000000	65.174937 
4246.000000	65.116906 
4245.000000	65.062761 
4244.000000	65.018796 
4243.000000	64.989280 
4242.000000	64.975738 
4241.000000	64.976835 
4240.000000	64.988994 
4239.000000	65.007829 
4238.000000	65.028595 
4237.000000	65.047240 
4236.000000	65.060687 
4235.000000	65.066838 
4234.000000	65.064978 
4233.000000	65.055131 
4232.000000	65.038776 
4231.000000	65.017890 
4230.000000	64.995741 
4229.000000	64.976406 
4228.000000	64.963841 
4227.000000	64.961171 
4226.000000	64.969897 
4225.000000	64.989256 
4224.000000	65.016531 
4223.000000	65.047240 
4222.000000	65.076041 
4221.000000	65.097570 
4220.000000	65.107703 
4219.000000	65.103960 
4218.000000	65.085864 
4217.000000	65.054869 
4216.000000	65.013527 
4215.000000	64.965486 
4214.000000	64.914631 
4213.000000	64.865088 
4212.000000	64.820671 
4211.000000	64.785099 
4210.000000	64.761543 
4209.000000	64.752745 
4208.000000	64.760398 
4207.000000	64.784669 
4206.000000	64.823818 
4205.000000	64.874386 
4204.000000	64.931249 
4203.000000	64.988422 
4202.000000	65.039706 
4201.000000	65.079426 
4200.000000	65.103220 
4199.000000	65.108442 
4198.000000	65.094614 
4197.000000	65.063190 
4196.000000	65.017247 
4195.000000	64.961314 
4194.000000	64.900588 
4193.000000	64.840674 
4192.000000	64.786624 
4191.000000	64.742970 
4190.000000	64.712381 
4189.000000	64.695692 
4188.000000	64.691424 
4187.000000	64.696049 
4186.000000	64.704728 
4185.000000	64.711737 
4184.000000	64.712262 
4183.000000	64.702725 
4182.000000	64.682602 
4181.000000	64.653730 
4180.000000	64.620971 
4179.000000	64.590477 
4178.000000	64.569044 
4177.000000	64.562225 
4176.000000	64.573287 
4175.000000	64.602327 
4174.000000	64.645910 
4173.000000	64.697861 
4172.000000	64.750289 
4171.000000	64.795255 
4170.000000	64.826321 
4169.000000	64.839792 
4168.000000	64.835381 
4167.000000	64.816236 
4166.000000	64.788007 
4165.000000	64.757561 
4164.000000	64.731693 
4163.000000	64.715456 
4162.000000	64.711284 
4161.000000	64.718341 
4160.000000	64.733958 
4159.000000	64.753532 
