PE IR       SPECTRUM    SPECTRUM    ASCII       PEDS        1.60        
  -1
BZCB7A~1.ASC
17/04/07
21:46:41.00
17/04/07
21:46:41.00
tln
$BZ1503107-1_t0104$<tbV0>[2.6,10.4,8.0,0.0,27,1,0]
370.000000
64









2002,4.07    
MIRTGS : RIGHTBACK : INTERNAL 2
MIR : ON : INTERNAL 2
OPTKBR

0.200000
8
8.000000
FILLER
RATIO
SPECTRUM
UNLOCKED 256

DOUBLE
64
COMBINED
1
0
0


1.000000
RATIO


1
0
TRUE
51149
0
LEFT NOT FITTED RIGHT NOT FITTED 0
NONE
NONE
15600
12.000000
4.427000
51148
TRUE
1 0 8 72 0 0 0 0 

15798.010000






#HDR
-1
-1
#GR
CM-1
%T
0.00002384185791015625
0.0
5000.000000
-1.000000
4631
8
84.127831
39.100384
#DATA
5000.000000	62.928438 
4999.000000	63.162088 
4998.000000	63.541936 
4997.000000	63.984632 
4996.000000	64.400362 
4995.000000	64.708662 
4994.000000	64.860296 
4993.000000	64.837956 
4992.000000	64.668822 
4991.000000	64.410471 
4990.000000	64.141368 
4989.000000	63.939094 
4988.000000	63.863372 
4987.000000	63.942813 
4986.000000	64.169502 
4985.000000	64.504957 
4984.000000	64.885449 
4983.000000	65.239310 
4982.000000	65.502452 
4981.000000	65.633511 
4980.000000	65.618872 
4979.000000	65.474891 
4978.000000	65.240836 
4977.000000	64.968919 
4976.000000	64.711666 
4975.000000	64.510154 
4974.000000	64.389991 
4973.000000	64.354753 
4972.000000	64.392113 
4971.000000	64.474749 
4970.000000	64.574050 
4969.000000	64.661097 
4968.000000	64.711570 
4967.000000	64.710736 
4966.000000	64.649724 
4965.000000	64.533066 
4964.000000	64.373922 
4963.000000	64.196729 
4962.000000	64.029026 
4961.000000	63.903880 
4960.000000	63.853311 
4959.000000	63.903832 
4958.000000	64.070487 
4957.000000	64.352917 
4956.000000	64.733505 
4955.000000	65.178990 
4954.000000	65.644574 
4953.000000	66.081333 
4952.000000	66.443157 
4951.000000	66.693234 
4950.000000	66.809439 
4949.000000	66.787981 
4948.000000	66.642403 
4947.000000	66.400980 
4946.000000	66.100835 
4945.000000	65.782976 
4944.000000	65.484094 
4943.000000	65.237593 
4942.000000	65.062999 
4941.000000	64.968061 
4940.000000	64.945220 
4939.000000	64.977216 
4938.000000	65.038824 
4937.000000	65.102219 
4936.000000	65.143561 
4935.000000	65.144729 
4934.000000	65.100979 
4933.000000	65.019297 
4932.000000	64.917922 
4931.000000	64.819884 
4930.000000	64.747333 
4929.000000	64.715051 
4928.000000	64.726519 
4927.000000	64.772891 
4926.000000	64.836812 
4925.000000	64.896988 
4924.000000	64.933156 
4923.000000	64.931631 
4922.000000	64.888000 
4921.000000	64.809083 
4920.000000	64.706587 
4919.000000	64.598584 
4918.000000	64.504623 
4917.000000	64.443922 
4916.000000	64.432382 
4915.000000	64.479017 
4914.000000	64.584851 
4913.000000	64.741134 
4912.000000	64.932823 
4911.000000	65.137410 
4910.000000	65.328431 
4909.000000	65.479922 
4908.000000	65.570783 
4907.000000	65.589213 
4906.000000	65.534734 
4905.000000	65.418958 
4904.000000	65.263009 
4903.000000	65.093135 
4902.000000	64.935088 
4901.000000	64.809107 
4900.000000	64.726114 
4899.000000	64.686346 
4898.000000	64.680504 
4897.000000	64.694046 
4896.000000	64.711189 
4895.000000	64.717960 
4894.000000	64.706730 
4893.000000	64.675164 
4892.000000	64.628815 
4891.000000	64.577722 
4890.000000	64.535045 
4889.000000	64.512777 
4888.000000	64.519047 
4887.000000	64.555883 
4886.000000	64.618206 
4885.000000	64.695644 
4884.000000	64.774346 
4883.000000	64.840769 
4882.000000	64.884185 
4881.000000	64.898467 
4880.000000	64.883565 
4879.000000	64.845037 
4878.000000	64.792013 
4877.000000	64.734554 
4876.000000	64.682650 
4875.000000	64.644217 
4874.000000	64.624762 
4873.000000	64.627003 
4872.000000	64.650583 
4871.000000	64.692831 
4870.000000	64.750027 
4869.000000	64.817833 
4868.000000	64.890933 
4867.000000	64.963960 
4866.000000	65.031528 
4865.000000	65.089344 
4864.000000	65.134930 
4863.000000	65.167212 
4862.000000	65.187239 
4861.000000	65.196299 
4860.000000	65.196418 
4859.000000	65.188169 
4858.000000	65.171313 
4857.000000	65.143871 
4856.000000	65.103769 
4855.000000	65.049314 
4854.000000	64.981079 
4853.000000	64.902234 
4852.000000	64.818716 
4851.000000	64.738678 
4850.000000	64.671230 
4849.000000	64.625334 
4848.000000	64.608049 
4847.000000	64.623403 
4846.000000	64.671254 
4845.000000	64.746785 
4844.000000	64.841103 
4843.000000	64.942741 
4842.000000	65.039157 
4841.000000	65.118980 
4840.000000	65.173387 
4839.000000	65.197372 
4838.000000	65.189933 
4837.000000	65.154027 
4836.000000	65.095090 
4835.000000	65.019845 
4834.000000	64.935159 
4833.000000	64.847803 
4832.000000	64.763784 
4831.000000	64.688491 
4830.000000	64.626598 
4829.000000	64.582324 
4828.000000	64.559292 
4827.000000	64.560055 
4826.000000	64.585804 
4825.000000	64.635229 
4824.000000	64.704871 
4823.000000	64.788985 
4822.000000	64.880347 
4821.000000	64.971327 
4820.000000	65.055561 
4819.000000	65.128731 
4818.000000	65.189051 
4817.000000	65.236759 
4816.000000	65.274024 
4815.000000	65.302872 
4814.000000	65.324878 
4813.000000	65.339016 
4812.000000	65.342998 
4811.000000	65.332436 
4810.000000	65.303063 
4809.000000	65.251970 
4808.000000	65.178990 
4807.000000	65.088272 
4806.000000	64.988565 
4805.000000	64.891886 
4804.000000	64.811134 
4803.000000	64.757442 
4802.000000	64.736986 
4801.000000	64.750051 
4800.000000	64.790654 
4799.000000	64.848804 
4798.000000	64.912724 
4797.000000	64.972329 
4796.000000	65.021109 
4795.000000	65.057063 
4794.000000	65.082073 
4793.000000	65.100026 
4792.000000	65.115070 
4791.000000	65.130066 
4790.000000	65.145921 
4789.000000	65.161681 
4788.000000	65.175151 
4787.000000	65.185594 
4786.000000	65.193080 
4785.000000	65.199446 
4784.000000	65.206456 
4783.000000	65.214705 
4782.000000	65.222287 
4781.000000	65.224528 
4780.000000	65.215229 
4779.000000	65.188074 
4778.000000	65.139102 
4777.000000	65.069031 
4776.000000	64.983320 
4775.000000	64.891409 
4774.000000	64.805030 
4773.000000	64.735388 
4772.000000	64.691019 
4771.000000	64.675855 
4770.000000	64.689421 
4769.000000	64.727139 
4768.000000	64.782285 
4767.000000	64.847445 
4766.000000	64.915490 
4765.000000	64.980149 
4764.000000	65.036225 
4763.000000	65.079307 
4762.000000	65.104913 
4761.000000	65.109276 
4760.000000	65.090203 
4759.000000	65.048265 
4758.000000	64.987921 
4757.000000	64.917302 
4756.000000	64.847636 
4755.000000	64.790678 
4754.000000	64.756941 
4753.000000	64.752411 
4752.000000	64.777326 
4751.000000	64.825868 
4750.000000	64.887523 
4749.000000	64.949846 
4748.000000	65.001225 
4747.000000	65.033864 
4746.000000	65.045309 
4745.000000	65.038037 
4744.000000	65.018129 
4743.000000	64.993023 
4742.000000	64.969158 
4741.000000	64.950060 
4740.000000	64.935612 
4739.000000	64.923048 
4738.000000	64.908051 
4737.000000	64.886736 
4736.000000	64.856934 
4735.000000	64.818716 
4734.000000	64.774870 
4733.000000	64.729642 
4732.000000	64.688515 
4731.000000	64.656043 
4730.000000	64.635801 
4729.000000	64.629864 
4728.000000	64.638924 
4727.000000	64.662456 
4726.000000	64.698815 
4725.000000	64.745116 
4724.000000	64.797639 
4723.000000	64.851665 
4722.000000	64.902424 
4721.000000	64.945220 
4720.000000	64.976859 
4719.000000	64.995765 
4718.000000	65.002322 
4717.000000	64.998507 
4716.000000	64.987301 
4715.000000	64.972186 
4714.000000	64.955925 
4713.000000	64.940166 
4712.000000	64.925408 
4711.000000	64.911341 
4710.000000	64.896821 
4709.000000	64.880537 
4708.000000	64.862036 
4707.000000	64.841914 
4706.000000	64.821863 
4705.000000	64.804315 
4704.000000	64.791917 
4703.000000	64.786815 
4702.000000	64.789843 
4701.000000	64.800071 
4700.000000	64.815044 
4699.000000	64.831113 
4698.000000	64.844179 
4697.000000	64.850664 
4696.000000	64.848017 
4695.000000	64.836168 
4694.000000	64.817309 
4693.000000	64.796257 
4692.000000	64.778852 
4691.000000	64.771819 
4690.000000	64.780926 
4689.000000	64.810299 
4688.000000	64.861106 
4687.000000	64.931583 
4686.000000	65.017247 
4685.000000	65.111660 
4684.000000	65.207386 
4683.000000	65.296959 
4682.000000	65.373826 
4681.000000	65.433692 
4680.000000	65.474963 
4679.000000	65.498471 
4678.000000	65.506958 
4677.000000	65.504837 
4676.000000	65.496158 
4675.000000	65.484476 
4674.000000	65.471172 
4673.000000	65.456128 
4672.000000	65.437388 
4671.000000	65.413022 
4670.000000	65.381550 
4669.000000	65.343308 
4668.000000	65.300488 
4667.000000	65.257191 
4666.000000	65.218377 
4665.000000	65.188598 
4664.000000	65.171003 
4663.000000	65.166425 
4662.000000	65.173411 
4661.000000	65.188574 
4660.000000	65.207958 
4659.000000	65.228223 
4658.000000	65.247941 
4657.000000	65.267777 
4656.000000	65.290331 
4655.000000	65.318965 
4654.000000	65.356254 
4653.000000	65.402317 
4652.000000	65.454339 
4651.000000	65.505909 
4650.000000	65.548348 
4649.000000	65.572023 
4648.000000	65.569233 
4647.000000	65.535736 
4646.000000	65.472221 
4645.000000	65.384578 
4644.000000	65.283274 
4643.000000	65.181398 
4642.000000	65.092039 
4641.000000	65.025877 
4640.000000	64.989376 
4639.000000	64.983797 
4638.000000	65.005421 
4637.000000	65.047001 
4636.000000	65.099430 
4635.000000	65.154147 
4634.000000	65.204620 
4633.000000	65.247464 
4632.000000	65.282440 
4631.000000	65.311717 
4630.000000	65.338492 
4629.000000	65.366148 
4628.000000	65.396499 
4627.000000	65.429997 
4626.000000	65.464544 
4625.000000	65.496921 
4624.000000	65.522623 
4623.000000	65.537524 
4622.000000	65.537786 
4621.000000	65.521335 
4620.000000	65.487456 
4619.000000	65.437364 
4618.000000	65.373659 
4617.000000	65.300226 
4616.000000	65.221858 
4615.000000	65.143871 
4614.000000	65.071630 
4613.000000	65.009951 
4612.000000	64.962649 
4611.000000	64.932227 
4610.000000	64.919137 
4609.000000	64.921641 
4608.000000	64.936065 
4607.000000	64.957475 
4606.000000	64.980840 
4605.000000	65.001893 
4604.000000	65.017914 
4603.000000	65.027999 
4602.000000	65.033030 
4601.000000	65.035009 
4600.000000	65.036010 
4599.000000	65.037298 
4598.000000	65.038895 
4597.000000	65.039324 
4596.000000	65.036344 
4595.000000	65.027666 
4594.000000	65.011882 
4593.000000	64.989423 
4592.000000	64.962482 
4591.000000	64.934921 
4590.000000	64.911413 
4589.000000	64.896273 
4588.000000	64.892339 
4587.000000	64.900326 
4586.000000	64.918422 
4585.000000	64.942789 
4584.000000	64.968609 
4583.000000	64.990806 
4582.000000	65.004968 
4581.000000	65.008521 
4580.000000	65.001249 
4579.000000	64.985227 
4578.000000	64.964437 
4577.000000	64.944028 
4576.000000	64.928960 
4575.000000	64.923501 
4574.000000	64.930057 
4573.000000	64.948916 
4572.000000	64.978122 
4571.000000	65.013837 
4570.000000	65.051150 
4569.000000	65.085244 
4568.000000	65.111875 
4567.000000	65.128350 
4566.000000	65.133452 
4565.000000	65.127778 
4564.000000	65.112757 
4563.000000	65.090155 
4562.000000	65.061736 
4561.000000	65.029191 
4560.000000	64.994263 
4559.000000	64.958953 
4558.000000	64.925765 
4557.000000	64.898109 
4556.000000	64.878964 
4555.000000	64.870285 
4554.000000	64.872312 
4553.000000	64.883089 
4552.000000	64.898896 
4551.000000	64.914894 
4550.000000	64.926338 
4549.000000	64.930009 
4548.000000	64.924931 
4547.000000	64.912867 
4546.000000	64.897751 
4545.000000	64.884567 
4544.000000	64.877796 
4543.000000	64.880299 
4542.000000	64.892387 
4541.000000	64.911842 
4540.000000	64.934539 
4539.000000	64.956021 
4538.000000	64.972639 
4537.000000	64.982819 
4536.000000	64.987206 
4535.000000	64.988827 
4534.000000	64.991712 
4533.000000	65.000343 
4532.000000	65.018010 
4531.000000	65.046095 
4530.000000	65.083885 
4529.000000	65.128564 
4528.000000	65.175890 
4527.000000	65.221428 
4526.000000	65.261292 
4525.000000	65.293049 
4524.000000	65.316033 
4523.000000	65.330815 
4522.000000	65.338635 
4521.000000	65.341281 
4520.000000	65.340232 
4519.000000	65.335965 
4518.000000	65.327978 
4517.000000	65.315485 
4516.000000	65.298032 
4515.000000	65.276169 
4514.000000	65.251970 
4513.000000	65.229105 
4512.000000	65.212154 
4511.000000	65.205764 
4510.000000	65.213251 
4509.000000	65.235662 
4508.000000	65.271210 
4507.000000	65.315175 
4506.000000	65.360903 
4505.000000	65.401268 
4504.000000	65.430235 
4503.000000	65.444540 
4502.000000	65.443730 
4501.000000	65.430188 
4500.000000	65.407562 
4499.000000	65.379595 
4498.000000	65.346717 
4497.000000	65.305972 
4496.000000	65.250897 
4495.000000	65.174078 
4494.000000	65.070700 
4493.000000	64.941239 
4492.000000	64.793443 
4491.000000	64.641404 
4490.000000	64.502406 
4489.000000	64.393281 
4488.000000	64.325165 
4487.000000	64.302086 
4486.000000	64.319467 
4485.000000	64.366364 
4484.000000	64.429092 
4483.000000	64.494180 
4482.000000	64.547705 
4481.000000	64.581918 
4480.000000	64.597487 
4479.000000	64.601564 
4478.000000	64.598989 
4477.000000	64.599800 
4476.000000	64.621067 
4475.000000	64.672994 
4474.000000	64.753103 
4473.000000	64.853024 
4472.000000	64.959478 
4471.000000	65.061330 
4470.000000	65.155863 
4469.000000	65.228581 
4468.000000	65.256762 
4467.000000	65.238690 
4466.000000	65.189456 
4465.000000	65.128326 
4464.000000	65.073132 
4463.000000	65.032958 
4462.000000	65.009379 
4461.000000	64.980173 
4460.000000	64.928174 
4459.000000	64.857172 
4458.000000	64.796876 
4457.000000	64.813542 
4456.000000	64.981818 
4455.000000	65.321040 
4454.000000	65.847945 
4453.000000	66.518616 
4452.000000	67.338228 
4451.000000	68.375110 
4450.000000	69.748163 
4449.000000	71.638822 
4448.000000	74.105310 
4447.000000	77.038049 
4446.000000	80.076313 
4445.000000	82.654452 
4444.000000	84.127831 
4443.000000	83.929800 
4442.000000	81.748414 
4441.000000	77.622365 
4440.000000	71.904945 
4439.000000	65.211033 
4438.000000	58.250260 
4437.000000	51.725459 
4436.000000	46.228146 
4435.000000	42.171549 
4434.000000	39.785456 
4433.000000	39.100384 
4432.000000	39.971184 
4431.000000	42.129707 
4430.000000	45.177483 
4429.000000	48.716044 
4428.000000	52.340817 
4427.000000	55.752325 
4426.000000	58.711671 
4425.000000	61.116266 
4424.000000	62.942361 
4423.000000	64.255642 
4422.000000	65.157270 
4421.000000	65.765523 
4420.000000	66.192626 
4419.000000	66.517949 
4418.000000	66.793346 
4417.000000	67.033267 
4416.000000	67.233991 
4415.000000	67.382431 
4414.000000	67.471265 
4413.000000	67.499637 
4412.000000	67.474937 
4411.000000	67.408347 
4410.000000	67.311835 
4409.000000	67.187738 
4408.000000	67.031860 
4407.000000	66.857361 
4406.000000	66.679692 
4405.000000	66.499042 
4404.000000	66.311597 
4403.000000	66.123557 
4402.000000	65.941262 
4401.000000	65.767979 
4400.000000	65.607190 
4399.000000	65.458154 
4398.000000	65.322089 
4397.000000	65.209245 
4396.000000	65.125679 
4395.000000	65.063428 
4394.000000	65.015482 
4393.000000	64.980626 
4392.000000	64.954566 
4391.000000	64.928865 
4390.000000	64.898610 
4389.000000	64.862823 
4388.000000	64.822030 
4387.000000	64.777851 
4386.000000	64.733147 
4385.000000	64.691448 
4384.000000	64.655041 
4383.000000	64.625787 
4382.000000	64.605307 
4381.000000	64.595627 
4380.000000	64.599180 
4379.000000	64.618849 
4378.000000	64.656162 
4377.000000	64.711523 
4376.000000	64.783382 
4375.000000	64.868426 
4374.000000	64.961099 
4373.000000	65.054821 
4372.000000	65.144085 
4371.000000	65.223646 
4370.000000	65.289044 
4369.000000	65.337252 
4368.000000	65.367221 
4367.000000	65.379095 
4366.000000	65.373921 
4365.000000	65.354251 
4364.000000	65.324258 
4363.000000	65.288782 
4362.000000	65.252900 
4361.000000	65.221738 
4360.000000	65.199828 
4359.000000	65.189599 
4358.000000	65.191435 
4357.000000	65.203523 
4356.000000	65.222716 
4355.000000	65.245270 
4354.000000	65.267539 
4353.000000	65.286946 
4352.000000	65.301847 
4351.000000	65.311169 
4350.000000	65.314197 
4349.000000	65.309762 
4348.000000	65.296792 
4347.000000	65.274977 
4346.000000	65.245008 
4345.000000	65.209054 
4344.000000	65.170240 
4343.000000	65.132617 
4342.000000	65.099811 
4341.000000	65.074038 
4340.000000	65.056300 
4339.000000	65.046310 
4338.000000	65.043163 
4337.000000	65.045523 
4336.000000	65.053081 
4335.000000	65.066695 
4334.000000	65.088129 
4333.000000	65.119218 
4332.000000	65.160894 
4331.000000	65.212345 
4330.000000	65.270280 
4329.000000	65.329170 
4328.000000	65.382003 
4327.000000	65.421557 
4326.000000	65.442252 
4325.000000	65.441274 
4324.000000	65.419030 
4323.000000	65.379095 
4322.000000	65.327715 
4321.000000	65.272045 
4320.000000	65.219044 
4319.000000	65.174245 
4318.000000	65.141367 
4317.000000	65.121746 
4316.000000	65.115070 
4315.000000	65.119528 
4314.000000	65.132546 
4313.000000	65.150833 
4312.000000	65.170741 
4311.000000	65.188479 
4310.000000	65.200662 
4309.000000	65.204524 
4308.000000	65.198254 
4307.000000	65.181875 
4306.000000	65.157103 
4305.000000	65.127348 
4304.000000	65.096902 
4303.000000	65.070056 
4302.000000	65.050482 
4301.000000	65.040278 
4300.000000	65.039920 
4299.000000	65.048098 
4298.000000	65.062355 
4297.000000	65.080475 
4296.000000	65.100502 
4295.000000	65.121316 
4294.000000	65.141868 
4293.000000	65.160870 
4292.000000	65.176606 
4291.000000	65.186262 
4290.000000	65.187239 
4289.000000	65.177345 
4288.000000	65.156388 
4287.000000	65.126872 
4286.000000	65.093898 
4285.000000	65.064334 
4284.000000	65.045714 
4283.000000	65.044164 
4282.000000	65.063285 
4281.000000	65.102767 
4280.000000	65.158534 
4279.000000	65.223360 
4278.000000	65.288305 
4277.000000	65.344524 
4276.000000	65.384864 
4275.000000	65.404915 
4274.000000	65.403127 
4273.000000	65.381002 
4272.000000	65.342116 
4271.000000	65.291690 
4270.000000	65.235948 
4269.000000	65.180969 
4268.000000	65.132665 
4267.000000	65.095400 
4266.000000	65.071988 
4265.000000	65.062952 
4264.000000	65.066742 
4263.000000	65.080237 
4262.000000	65.099453 
4261.000000	65.120911 
4260.000000	65.141606 
4259.000000	65.160226 
4258.000000	65.176510 
4257.000000	65.191125 
4256.000000	65.204811 
4255.000000	65.218019 
4254.000000	65.230488 
4253.000000	65.241432 
4252.000000	65.249443 
4251.000000	65.253758 
4250.000000	65.254235 
4249.000000	65.251851 
4248.000000	65.248036 
4247.000000	65.244388 
4246.000000	65.241551 
4245.000000	65.239048 
4244.000000	65.235114 
4243.000000	65.227174 
4242.000000	65.213036 
4241.000000	65.191769 
4240.000000	65.164422 
4239.000000	65.133929 
4238.000000	65.104722 
4237.000000	65.081834 
4236.000000	65.069627 
4235.000000	65.070343 
4234.000000	65.083408 
4233.000000	65.105819 
4232.000000	65.132379 
4231.000000	65.157079 
4230.000000	65.173983 
4229.000000	65.178728 
4228.000000	65.168905 
4227.000000	65.144586 
4226.000000	65.107703 
4225.000000	65.061759 
4224.000000	65.011501 
4223.000000	64.962100 
4222.000000	64.918756 
4221.000000	64.885854 
4220.000000	64.866662 
4219.000000	64.862918 
4218.000000	64.874267 
4217.000000	64.898800 
4216.000000	64.932799 
4215.000000	64.972138 
4214.000000	65.012192 
4213.000000	65.049481 
4212.000000	65.081596 
4211.000000	65.107917 
4210.000000	65.128946 
4209.000000	65.146017 
4208.000000	65.160417 
4207.000000	65.172767 
4206.000000	65.183067 
4205.000000	65.189766 
4204.000000	65.190529 
4203.000000	65.183019 
4202.000000	65.165996 
4201.000000	65.139222 
4200.000000	65.104198 
4199.000000	65.063405 
4198.000000	65.020179 
4197.000000	64.977979 
4196.000000	64.940094 
4195.000000	64.908981 
4194.000000	64.886498 
4193.000000	64.873600 
4192.000000	64.870834 
4191.000000	64.878439 
4190.000000	64.896202 
4189.000000	64.923238 
4188.000000	64.957451 
4187.000000	64.995288 
4186.000000	65.032052 
4185.000000	65.062093 
4184.000000	65.080642 
4183.000000	65.083837 
4182.000000	65.071654 
4181.000000	65.047907 
4180.000000	65.020084 
4179.000000	64.997863 
4178.000000	64.990711 
4177.000000	65.005421 
4176.000000	65.043735 
4175.000000	65.101790 
4174.000000	65.170145 
4173.000000	65.236330 
4172.000000	65.287590 
4171.000000	65.314340 
4170.000000	65.312480 
4169.000000	65.284276 
4168.000000	65.237903 
4167.000000	65.184783 
4166.000000	65.136337 
4165.000000	65.100741 
4164.000000	65.081739 
4163.000000	65.077543 
4162.000000	65.082645 
4161.000000	65.089201 
4160.000000	65.090656 
4159.000000	65.082573 
