PE IR       SPECTRUM    SPECTRUM    ASCII       PEDS        1.60        
  -1
BZ6033~1.ASC
17/04/07
15:32:57.00
17/04/07
15:32:57.00
tln
$BZ1503107-1_t0028$<tbV0>[0.0,-7.8,8.0,0.0,27,1,0]
370.000000
64









2002,4.07    
MIRTGS : RIGHTBACK : INTERNAL 2
MIR : ON : INTERNAL 2
OPTKBR

0.200000
8
8.000000
FILLER
RATIO
SPECTRUM
UNLOCKED 256

DOUBLE
64
COMBINED
1
0
0


1.000000
RATIO


1
0
TRUE
51149
0
LEFT NOT FITTED RIGHT NOT FITTED 0
NONE
NONE
15600
12.000000
4.427000
51148
TRUE
1 0 8 72 0 0 0 0 

15798.010000






#HDR
-1
-1
#GR
CM-1
%T
0.00002384185791015625
0.0
5000.000000
-1.000000
4631
8
76.519155
54.583001
#DATA
5000.000000	65.504622 
4999.000000	65.450406 
4998.000000	65.369749 
4997.000000	65.271401 
4996.000000	65.164113 
4995.000000	65.056514 
4994.000000	64.955973 
4993.000000	64.869213 
4992.000000	64.801454 
4991.000000	64.756965 
4990.000000	64.737772 
4989.000000	64.743375 
4988.000000	64.770746 
4987.000000	64.814734 
4986.000000	64.867925 
4985.000000	64.921164 
4984.000000	64.965772 
4983.000000	64.994812 
4982.000000	65.003728 
4981.000000	64.991044 
4980.000000	64.958882 
4979.000000	64.912128 
4978.000000	64.857816 
4977.000000	64.803075 
4976.000000	64.753389 
4975.000000	64.711809 
4974.000000	64.678788 
4973.000000	64.653468 
4972.000000	64.635038 
4971.000000	64.623498 
4970.000000	64.620780 
4969.000000	64.629316 
4968.000000	64.651203 
4967.000000	64.686155 
4966.000000	64.730143 
4965.000000	64.775824 
4964.000000	64.813303 
4963.000000	64.832496 
4962.000000	64.825892 
4961.000000	64.790081 
4960.000000	64.726877 
4959.000000	64.643359 
4958.000000	64.550638 
4957.000000	64.460968 
4956.000000	64.385128 
4955.000000	64.330434 
4954.000000	64.299750 
4953.000000	64.291548 
4952.000000	64.301395 
4951.000000	64.323687 
4950.000000	64.354038 
4949.000000	64.390349 
4948.000000	64.433026 
4947.000000	64.484429 
4946.000000	64.546656 
4945.000000	64.619827 
4944.000000	64.699769 
4943.000000	64.778900 
4942.000000	64.845490 
4941.000000	64.886188 
4940.000000	64.888930 
4939.000000	64.845991 
4938.000000	64.757204 
4937.000000	64.630866 
4936.000000	64.483523 
4935.000000	64.336609 
4934.000000	64.213109 
4933.000000	64.132761 
4932.000000	64.108109 
4931.000000	64.142155 
4930.000000	64.228057 
4929.000000	64.351344 
4928.000000	64.492893 
4927.000000	64.633607 
4926.000000	64.757561 
4925.000000	64.855003 
4924.000000	64.922881 
4923.000000	64.964365 
4922.000000	64.985847 
4921.000000	64.994812 
4920.000000	64.998102 
4919.000000	64.999651 
4918.000000	65.001821 
4917.000000	65.003681 
4916.000000	65.004396 
4915.000000	65.001416 
4914.000000	64.992880 
4913.000000	64.976477 
4912.000000	64.950227 
4911.000000	64.912676 
4910.000000	64.863443 
4909.000000	64.804005 
4908.000000	64.737796 
4907.000000	64.670372 
4906.000000	64.608526 
4905.000000	64.559388 
4904.000000	64.528870 
4903.000000	64.519858 
4902.000000	64.531636 
4901.000000	64.560008 
4900.000000	64.598822 
4899.000000	64.641976 
4898.000000	64.685225 
4897.000000	64.726972 
4896.000000	64.768290 
4895.000000	64.812445 
4894.000000	64.862751 
4893.000000	64.919829 
4892.000000	64.981174 
4891.000000	65.041255 
4890.000000	65.092229 
4889.000000	65.126943 
4888.000000	65.139889 
4887.000000	65.129756 
4886.000000	65.099239 
4885.000000	65.055346 
4884.000000	65.007019 
4883.000000	64.963555 
4882.000000	64.932179 
4881.000000	64.916682 
4880.000000	64.917302 
4879.000000	64.931488 
4878.000000	64.954781 
4877.000000	64.982676 
4876.000000	65.011024 
4875.000000	65.036797 
4874.000000	65.057873 
4873.000000	65.072894 
4872.000000	65.080595 
4871.000000	65.079736 
4870.000000	65.069317 
4869.000000	65.048623 
4868.000000	65.018177 
4867.000000	64.979720 
4866.000000	64.936351 
4865.000000	64.892315 
4864.000000	64.852881 
4863.000000	64.822912 
4862.000000	64.806294 
4861.000000	64.804339 
4860.000000	64.816164 
4859.000000	64.837765 
4858.000000	64.863109 
4857.000000	64.884877 
4856.000000	64.896130 
4855.000000	64.891505 
4854.000000	64.868426 
4853.000000	64.827656 
4852.000000	64.772748 
4851.000000	64.710140 
4850.000000	64.647698 
4849.000000	64.593124 
4848.000000	64.552450 
4847.000000	64.529228 
4846.000000	64.524030 
4845.000000	64.534950 
4844.000000	64.558076 
4843.000000	64.588356 
4842.000000	64.620685 
4841.000000	64.650821 
4840.000000	64.675903 
4839.000000	64.694142 
4838.000000	64.705014 
4837.000000	64.709210 
4836.000000	64.708065 
4835.000000	64.703178 
4834.000000	64.695954 
4833.000000	64.687299 
4832.000000	64.677906 
4831.000000	64.668226 
4830.000000	64.659428 
4829.000000	64.653205 
4828.000000	64.652180 
4827.000000	64.659452 
4826.000000	64.678001 
4825.000000	64.709734 
4824.000000	64.754891 
4823.000000	64.811539 
4822.000000	64.875674 
4821.000000	64.941501 
4820.000000	65.002822 
4819.000000	65.053868 
4818.000000	65.089964 
4817.000000	65.107870 
4816.000000	65.106558 
4815.000000	65.086317 
4814.000000	65.048480 
4813.000000	64.994740 
4812.000000	64.927530 
4811.000000	64.849996 
4810.000000	64.766883 
4809.000000	64.683604 
4808.000000	64.606904 
4807.000000	64.542841 
4806.000000	64.496016 
4805.000000	64.468455 
4804.000000	64.458537 
4803.000000	64.462208 
4802.000000	64.473533 
4801.000000	64.486908 
4800.000000	64.497756 
4799.000000	64.504313 
4798.000000	64.507293 
4797.000000	64.509344 
4796.000000	64.513754 
4795.000000	64.522790 
4794.000000	64.536452 
4793.000000	64.552736 
4792.000000	64.568161 
4791.000000	64.579033 
4790.000000	64.582657 
4789.000000	64.578771 
4788.000000	64.569401 
4787.000000	64.557933 
4786.000000	64.547872 
4785.000000	64.541530 
4784.000000	64.539504 
4783.000000	64.540505 
4782.000000	64.541959 
4781.000000	64.541673 
4780.000000	64.537787 
4779.000000	64.529585 
4778.000000	64.517283 
4777.000000	64.501857 
4776.000000	64.484715 
4775.000000	64.466619 
4774.000000	64.448738 
4773.000000	64.431762 
4772.000000	64.417409 
4771.000000	64.408349 
4770.000000	64.408469 
4769.000000	64.422178 
4768.000000	64.453983 
4767.000000	64.506959 
4766.000000	64.581608 
4765.000000	64.675211 
4764.000000	64.781975 
4763.000000	64.893913 
4762.000000	65.002179 
4761.000000	65.098428 
4760.000000	65.176248 
4759.000000	65.231871 
4758.000000	65.264797 
4757.000000	65.277242 
4756.000000	65.273928 
4755.000000	65.260362 
4754.000000	65.242433 
4753.000000	65.224313 
4752.000000	65.208601 
4751.000000	65.195226 
4750.000000	65.182805 
4749.000000	65.168595 
4748.000000	65.150189 
4747.000000	65.126132 
4746.000000	65.096831 
4745.000000	65.064287 
4744.000000	65.031719 
4743.000000	65.002965 
4742.000000	64.981460 
4741.000000	64.969038 
4740.000000	64.965486 
4739.000000	64.968800 
4738.000000	64.976096 
4737.000000	64.984798 
4736.000000	64.993309 
4735.000000	65.001130 
4734.000000	65.008640 
4733.000000	65.017008 
4732.000000	65.026950 
4731.000000	65.037226 
4730.000000	65.045070 
4729.000000	65.047526 
4728.000000	65.041828 
4727.000000	65.026855 
4726.000000	65.003347 
4725.000000	64.974379 
4724.000000	64.944529 
4723.000000	64.918851 
4722.000000	64.902091 
4721.000000	64.896893 
4720.000000	64.904665 
4719.000000	64.924716 
4718.000000	64.956331 
4717.000000	64.998960 
4716.000000	65.053176 
4715.000000	65.120172 
4714.000000	65.200686 
4713.000000	65.293407 
4712.000000	65.393900 
4711.000000	65.493893 
4710.000000	65.581560 
4709.000000	65.643358 
4708.000000	65.666556 
4707.000000	65.642428 
4706.000000	65.568566 
4705.000000	65.450191 
4704.000000	65.299940 
4703.000000	65.136170 
4702.000000	64.980077 
4701.000000	64.851713 
4700.000000	64.766716 
4699.000000	64.732933 
4698.000000	64.750027 
4697.000000	64.809060 
4696.000000	64.895129 
4695.000000	64.990377 
4694.000000	65.077233 
4693.000000	65.142369 
4692.000000	65.177845 
4691.000000	65.183138 
4690.000000	65.163254 
4689.000000	65.127849 
4688.000000	65.087747 
4687.000000	65.052866 
4686.000000	65.029835 
4685.000000	65.020990 
4684.000000	65.024232 
4683.000000	65.034604 
4682.000000	65.045785 
4681.000000	65.051913 
4680.000000	65.049099 
4679.000000	65.035915 
4678.000000	65.013623 
4677.000000	64.984965 
4676.000000	64.953947 
4675.000000	64.924049 
4674.000000	64.898276 
4673.000000	64.878344 
4672.000000	64.865159 
4671.000000	64.858555 
4670.000000	64.858269 
4669.000000	64.864110 
4668.000000	64.876103 
4667.000000	64.894175 
4666.000000	64.917922 
4665.000000	64.946031 
4664.000000	64.976429 
4663.000000	65.006351 
4662.000000	65.032172 
4661.000000	65.050029 
4660.000000	65.056753 
4659.000000	65.050578 
4658.000000	65.031743 
4657.000000	65.002608 
4656.000000	64.967608 
4655.000000	64.932560 
4654.000000	64.904189 
4653.000000	64.888620 
4652.000000	64.890289 
4651.000000	64.910721 
4650.000000	64.948630 
4649.000000	64.999103 
4648.000000	65.054631 
4647.000000	65.105819 
4646.000000	65.143680 
4645.000000	65.160679 
4644.000000	65.152287 
4643.000000	65.117835 
4642.000000	65.060710 
4641.000000	64.987444 
4640.000000	64.906215 
4639.000000	64.825272 
4638.000000	64.751815 
4637.000000	64.690589 
4636.000000	64.643740 
4635.000000	64.610838 
4634.000000	64.589738 
4633.000000	64.577388 
4632.000000	64.571094 
4631.000000	64.568471 
4630.000000	64.568066 
4629.000000	64.569306 
4628.000000	64.572644 
4627.000000	64.578700 
4626.000000	64.588522 
4625.000000	64.603018 
4624.000000	64.623165 
4623.000000	64.649701 
4622.000000	64.682674 
4621.000000	64.720869 
4620.000000	64.761996 
4619.000000	64.802646 
4618.000000	64.839172 
4617.000000	64.868688 
4616.000000	64.889764 
4615.000000	64.902949 
4614.000000	64.910221 
4613.000000	64.914894 
4612.000000	64.920043 
4611.000000	64.927935 
4610.000000	64.938592 
4609.000000	64.949703 
4608.000000	64.956998 
4607.000000	64.955830 
4606.000000	64.941811 
4605.000000	64.912438 
4604.000000	64.868140 
4603.000000	64.812374 
4602.000000	64.751362 
4601.000000	64.692926 
4600.000000	64.644885 
4599.000000	64.613890 
4598.000000	64.604282 
4597.000000	64.617323 
4596.000000	64.650964 
4595.000000	64.700126 
4594.000000	64.757323 
4593.000000	64.814257 
4592.000000	64.862275 
4591.000000	64.895248 
4590.000000	64.909982 
4589.000000	64.907646 
4588.000000	64.892554 
4587.000000	64.871859 
4586.000000	64.853835 
4585.000000	64.845585 
4584.000000	64.851474 
4583.000000	64.871478 
4582.000000	64.901447 
4581.000000	64.934039 
4580.000000	64.960813 
4579.000000	64.974045 
4578.000000	64.968943 
4577.000000	64.944744 
4576.000000	64.904856 
4575.000000	64.855670 
4574.000000	64.804768 
4573.000000	64.759206 
4572.000000	64.724230 
4571.000000	64.702463 
4570.000000	64.693665 
4569.000000	64.696025 
4568.000000	64.706206 
4567.000000	64.720559 
4566.000000	64.734745 
4565.000000	64.744758 
4564.000000	64.746880 
4563.000000	64.737224 
4562.000000	64.713335 
4561.000000	64.673662 
4560.000000	64.619684 
4559.000000	64.555692 
4558.000000	64.489126 
4557.000000	64.429163 
4556.000000	64.385128 
4555.000000	64.364361 
4554.000000	64.370560 
4553.000000	64.402675 
4552.000000	64.455747 
4551.000000	64.521980 
4550.000000	64.592862 
4549.000000	64.660954 
4548.000000	64.720702 
4547.000000	64.769053 
4546.000000	64.805412 
4545.000000	64.830899 
4544.000000	64.846968 
4543.000000	64.855098 
4542.000000	64.856624 
4541.000000	64.852905 
4540.000000	64.846229 
4539.000000	64.839339 
4538.000000	64.836168 
4537.000000	64.840412 
4536.000000	64.855694 
4535.000000	64.883565 
4534.000000	64.923024 
4533.000000	64.970326 
4532.000000	65.020155 
4531.000000	65.065956 
4530.000000	65.101385 
4529.000000	65.121245 
4528.000000	65.122628 
4527.000000	65.105676 
4526.000000	65.073394 
4525.000000	65.032362 
4524.000000	64.991736 
4523.000000	64.962506 
4522.000000	64.955210 
4521.000000	64.978456 
4520.000000	65.036129 
4519.000000	65.126514 
4518.000000	65.241122 
4517.000000	65.366125 
4516.000000	65.483927 
4515.000000	65.576481 
4514.000000	65.628552 
4513.000000	65.631222 
4512.000000	65.582942 
4511.000000	65.490436 
4510.000000	65.365791 
4509.000000	65.224623 
4508.000000	65.081334 
4507.000000	64.947223 
4506.000000	64.828324 
4505.000000	64.726638 
4504.000000	64.640402 
4503.000000	64.566898 
4502.000000	64.503264 
4501.000000	64.448070 
4500.000000	64.401531 
4499.000000	64.364862 
4498.000000	64.340782 
4497.000000	64.332199 
4496.000000	64.341115 
4495.000000	64.367580 
4494.000000	64.409017 
4493.000000	64.460611 
4492.000000	64.515924 
4491.000000	64.568448 
4490.000000	64.612865 
4489.000000	64.646029 
4488.000000	64.667844 
4487.000000	64.679479 
4486.000000	64.683055 
4485.000000	64.678907 
4484.000000	64.665055 
4483.000000	64.637398 
4482.000000	64.591240 
4481.000000	64.523482 
4480.000000	64.434766 
4479.000000	64.330935 
4478.000000	64.222168 
4477.000000	64.122200 
4476.000000	64.045858 
4475.000000	64.004540 
4474.000000	64.003133 
4473.000000	64.038705 
4472.000000	64.101219 
4471.000000	64.174842 
4470.000000	64.241719 
4469.000000	64.288735 
4468.000000	64.310908 
4467.000000	64.310979 
4466.000000	64.298558 
4465.000000	64.288568 
4464.000000	64.296007 
4463.000000	64.329528 
4462.000000	64.388370 
4461.000000	64.467382 
4460.000000	64.554190 
4459.000000	64.626336 
4458.000000	64.662384 
4457.000000	64.649701 
4456.000000	64.587974 
4455.000000	64.493751 
4454.000000	64.392256 
4453.000000	64.304256 
4452.000000	64.247417 
4451.000000	64.237308 
4450.000000	64.274859 
4449.000000	64.342021 
4448.000000	64.416456 
4447.000000	64.477944 
4446.000000	64.520335 
4445.000000	64.554691 
4444.000000	64.610528 
4443.000000	64.726924 
4442.000000	64.939284 
4441.000000	65.269136 
4440.000000	65.702867 
4439.000000	66.203975 
4438.000000	66.717648 
4437.000000	67.203760 
4436.000000	67.658638 
4435.000000	68.124532 
4434.000000	68.696784 
4433.000000	69.472885 
4432.000000	70.540094 
4431.000000	71.889734 
4430.000000	73.428606 
4429.000000	74.928259 
4428.000000	76.074719 
4427.000000	76.519155 
4426.000000	75.967121 
4425.000000	74.271821 
4424.000000	71.497797 
4423.000000	67.928624 
4422.000000	64.029216 
4421.000000	60.335612 
4420.000000	57.338047 
4419.000000	55.379080 
4418.000000	54.583001 
4417.000000	54.878759 
4416.000000	56.040263 
4415.000000	57.768726 
4414.000000	59.768772 
4413.000000	61.784791 
4412.000000	63.642764 
4411.000000	65.215229 
4410.000000	66.438412 
4409.000000	67.289090 
4408.000000	67.782497 
4407.000000	67.968773 
4406.000000	67.910075 
4405.000000	67.686939 
4404.000000	67.364835 
4403.000000	67.005872 
4402.000000	66.642808 
4401.000000	66.300201 
4400.000000	65.979003 
4399.000000	65.678930 
4398.000000	65.391588 
4397.000000	65.111613 
4396.000000	64.838361 
4395.000000	64.576601 
4394.000000	64.339423 
4393.000000	64.142537 
4392.000000	64.004802 
4391.000000	63.943099 
4390.000000	63.961648 
4389.000000	64.047360 
4388.000000	64.184403 
4387.000000	64.356541 
4386.000000	64.545249 
4385.000000	64.733386 
4384.000000	64.905357 
4383.000000	65.048789 
4382.000000	65.158939 
4381.000000	65.236043 
4380.000000	65.276288 
4379.000000	65.276360 
4378.000000	65.240001 
4377.000000	65.174293 
4376.000000	65.090537 
4375.000000	65.000891 
4374.000000	64.918637 
4373.000000	64.852952 
4372.000000	64.809083 
4371.000000	64.785385 
4370.000000	64.773750 
4369.000000	64.763236 
4368.000000	64.744687 
4367.000000	64.711856 
4366.000000	64.662933 
4365.000000	64.601564 
4364.000000	64.535593 
4363.000000	64.474248 
4362.000000	64.425468 
4361.000000	64.394259 
4360.000000	64.381837 
4359.000000	64.386081 
4358.000000	64.402937 
4357.000000	64.427900 
4356.000000	64.457726 
4355.000000	64.491581 
4354.000000	64.530348 
4353.000000	64.574551 
4352.000000	64.623689 
4351.000000	64.675354 
4350.000000	64.725303 
4349.000000	64.767718 
4348.000000	64.796996 
4347.000000	64.809513 
4346.000000	64.804458 
4345.000000	64.785170 
4344.000000	64.757251 
4343.000000	64.727306 
4342.000000	64.701080 
4341.000000	64.682531 
4340.000000	64.672470 
4339.000000	64.668703 
4338.000000	64.667201 
4337.000000	64.664125 
4336.000000	64.656281 
4335.000000	64.642477 
4334.000000	64.623427 
4333.000000	64.601397 
4332.000000	64.578914 
4331.000000	64.558291 
4330.000000	64.540672 
4329.000000	64.526200 
4328.000000	64.514017 
4327.000000	64.503264 
4326.000000	64.493656 
4325.000000	64.486217 
4324.000000	64.482617 
4323.000000	64.485692 
4322.000000	64.497518 
4321.000000	64.519906 
4320.000000	64.553332 
4319.000000	64.597105 
4318.000000	64.649057 
4317.000000	64.706182 
4316.000000	64.764833 
4315.000000	64.821195 
4314.000000	64.871931 
4313.000000	64.914703 
4312.000000	64.948391 
4311.000000	64.973020 
4310.000000	64.989447 
4309.000000	64.998435 
4308.000000	65.000438 
4307.000000	64.995098 
4306.000000	64.981889 
4305.000000	64.960455 
4304.000000	64.931488 
4303.000000	64.897060 
4302.000000	64.860939 
4301.000000	64.828276 
4300.000000	64.804434 
4299.000000	64.794158 
4298.000000	64.800262 
4297.000000	64.822840 
4296.000000	64.859580 
4295.000000	64.905953 
4294.000000	64.956545 
4293.000000	65.006375 
4292.000000	65.051674 
4291.000000	65.090513 
4290.000000	65.122222 
4289.000000	65.146803 
4288.000000	65.163946 
4287.000000	65.172481 
4286.000000	65.171194 
4285.000000	65.159320 
4284.000000	65.136981 
4283.000000	65.105938 
4282.000000	65.069460 
4281.000000	65.032076 
4280.000000	64.997935 
4279.000000	64.969897 
4278.000000	64.948678 
4277.000000	64.932656 
4276.000000	64.918279 
4275.000000	64.901280 
4274.000000	64.877676 
4273.000000	64.845609 
4272.000000	64.805674 
4271.000000	64.761519 
4270.000000	64.718580 
4269.000000	64.683461 
4268.000000	64.661836 
4267.000000	64.657998 
4266.000000	64.673423 
4265.000000	64.706707 
4264.000000	64.754152 
4263.000000	64.809441 
4262.000000	64.865159 
4261.000000	64.913344 
4260.000000	64.946794 
4259.000000	64.960312 
4258.000000	64.951562 
4257.000000	64.921307 
4256.000000	64.873337 
4255.000000	64.813351 
4254.000000	64.747953 
4253.000000	64.683556 
4252.000000	64.625811 
4251.000000	64.578986 
4250.000000	64.545798 
4249.000000	64.527964 
4248.000000	64.525938 
4247.000000	64.539051 
4246.000000	64.565563 
4245.000000	64.602351 
4244.000000	64.645743 
4243.000000	64.691233 
4242.000000	64.735102 
4241.000000	64.773869 
4240.000000	64.805960 
4239.000000	64.831423 
4238.000000	64.852213 
4237.000000	64.871501 
4236.000000	64.892268 
4235.000000	64.916491 
4234.000000	64.943981 
4233.000000	64.972519 
4232.000000	64.998555 
4231.000000	65.018320 
4230.000000	65.028977 
4229.000000	65.029788 
4228.000000	65.022277 
4227.000000	65.010023 
4226.000000	64.997744 
4225.000000	64.990091 
4224.000000	64.990448 
4223.000000	64.999794 
4222.000000	65.016841 
4221.000000	65.037846 
4220.000000	65.057754 
4219.000000	65.071034 
4218.000000	65.072822 
4217.000000	65.060400 
4216.000000	65.033531 
4215.000000	64.995408 
4214.000000	64.951276 
4213.000000	64.908218 
4212.000000	64.873695 
4211.000000	64.853882 
4210.000000	64.852523 
4209.000000	64.869832 
4208.000000	64.902734 
4207.000000	64.945268 
4206.000000	64.989876 
4205.000000	65.029597 
4204.000000	65.059876 
4203.000000	65.079689 
4202.000000	65.091323 
4201.000000	65.100026 
4200.000000	65.111923 
4199.000000	65.132021 
4198.000000	65.161967 
4197.000000	65.198755 
4196.000000	65.234851 
4195.000000	65.260124 
4194.000000	65.264344 
4193.000000	65.239953 
4192.000000	65.184807 
4191.000000	65.103173 
4190.000000	65.005159 
4189.000000	64.904737 
4188.000000	64.816808 
4187.000000	64.753556 
4186.000000	64.722156 
4185.000000	64.723968 
4184.000000	64.754104 
4183.000000	64.803838 
4182.000000	64.861583 
4181.000000	64.915752 
4180.000000	64.956617 
4179.000000	64.977598 
4178.000000	64.976143 
4177.000000	64.952778 
4176.000000	64.911556 
4175.000000	64.858508 
4174.000000	64.801812 
4173.000000	64.750218 
4172.000000	64.712214 
4171.000000	64.694714 
4170.000000	64.701724 
4169.000000	64.733529 
4168.000000	64.785957 
4167.000000	64.851117 
4166.000000	64.918637 
4165.000000	64.977979 
4164.000000	65.020155 
4163.000000	65.040016 
4162.000000	65.036916 
4161.000000	65.015196 
4160.000000	64.982438 
4159.000000	64.948105 
