PE IR       SPECTRUM    SPECTRUM    ASCII       PEDS        1.60        
  -1
BZ6DA5~1.ASC
17/04/07
21:04:28.00
17/04/07
21:04:28.00
tln
$BZ1503107-1_t0095$<tbV0>[-2.6,7.8,8.0,0.0,27,1,0]
370.000000
64









2002,4.07    
MIRTGS : RIGHTBACK : INTERNAL 2
MIR : ON : INTERNAL 2
OPTKBR

0.200000
8
8.000000
FILLER
RATIO
SPECTRUM
UNLOCKED 256

DOUBLE
64
COMBINED
1
0
0


1.000000
RATIO


1
0
TRUE
51149
0
LEFT NOT FITTED RIGHT NOT FITTED 0
NONE
NONE
15600
12.000000
4.427000
51148
TRUE
1 0 8 72 0 0 0 0 

15798.010000






#HDR
-1
-1
#GR
CM-1
%T
0.00002384185791015625
0.0
5000.000000
-1.000000
4631
8
73.807215
50.320029
#DATA
5000.000000	63.749146 
4999.000000	63.772845 
4998.000000	63.869047 
4997.000000	64.030861 
4996.000000	64.243412 
4995.000000	64.485144 
4994.000000	64.732837 
4993.000000	64.966750 
4992.000000	65.170741 
4991.000000	65.333771 
4990.000000	65.447854 
4989.000000	65.509247 
4988.000000	65.512323 
4987.000000	65.450358 
4986.000000	65.315842 
4985.000000	65.104866 
4984.000000	64.818429 
4983.000000	64.466595 
4982.000000	64.070272 
4981.000000	63.661289 
4980.000000	63.278007 
4979.000000	62.961363 
4978.000000	62.746334 
4977.000000	62.658309 
4976.000000	62.709021 
4975.000000	62.894988 
4974.000000	63.196468 
4973.000000	63.581109 
4972.000000	64.005446 
4971.000000	64.425492 
4970.000000	64.797568 
4969.000000	65.093040 
4968.000000	65.297889 
4967.000000	65.420150 
4966.000000	65.483188 
4965.000000	65.523314 
4964.000000	65.581178 
4963.000000	65.690255 
4962.000000	65.869235 
4961.000000	66.118073 
4960.000000	66.420817 
4959.000000	66.747856 
4958.000000	67.065119 
4957.000000	67.341256 
4956.000000	67.554450 
4955.000000	67.694592 
4954.000000	67.762494 
4953.000000	67.763924 
4952.000000	67.705893 
4951.000000	67.593574 
4950.000000	67.430615 
4949.000000	67.222404 
4948.000000	66.978359 
4947.000000	66.718649 
4946.000000	66.469240 
4945.000000	66.261863 
4944.000000	66.122221 
4943.000000	66.065859 
4942.000000	66.089248 
4941.000000	66.170096 
4940.000000	66.269588 
4939.000000	66.340446 
4938.000000	66.339015 
4937.000000	66.236448 
4936.000000	66.025686 
4935.000000	65.722179 
4934.000000	65.361285 
4933.000000	64.989066 
4932.000000	64.651274 
4931.000000	64.382266 
4930.000000	64.200878 
4929.000000	64.108109 
4928.000000	64.090108 
4927.000000	64.122986 
4926.000000	64.180159 
4925.000000	64.238071 
4924.000000	64.276885 
4923.000000	64.284968 
4922.000000	64.255619 
4921.000000	64.190602 
4920.000000	64.094901 
4919.000000	63.980913 
4918.000000	63.863682 
4917.000000	63.763666 
4916.000000	63.704109 
4915.000000	63.707232 
4914.000000	63.790059 
4913.000000	63.959074 
4912.000000	64.208936 
4911.000000	64.518666 
4910.000000	64.854121 
4909.000000	65.173316 
4908.000000	65.434312 
4907.000000	65.603613 
4906.000000	65.662837 
4905.000000	65.612673 
4904.000000	65.472269 
4903.000000	65.273046 
4902.000000	65.051078 
4901.000000	64.840888 
4900.000000	64.668774 
4899.000000	64.549016 
4898.000000	64.482998 
4897.000000	64.464354 
4896.000000	64.481687 
4895.000000	64.522480 
4894.000000	64.576840 
4893.000000	64.636874 
4892.000000	64.699482 
4891.000000	64.763283 
4890.000000	64.829301 
4889.000000	64.897513 
4888.000000	64.966893 
4887.000000	65.034651 
4886.000000	65.096044 
4885.000000	65.145754 
4884.000000	65.178036 
4883.000000	65.189027 
4882.000000	65.176796 
4881.000000	65.141940 
4880.000000	65.089035 
4879.000000	65.026569 
4878.000000	64.965033 
4877.000000	64.914846 
4876.000000	64.884924 
4875.000000	64.880824 
4874.000000	64.902877 
4873.000000	64.946341 
4872.000000	65.002155 
4871.000000	65.059566 
4870.000000	65.109229 
4869.000000	65.145397 
4868.000000	65.166044 
4867.000000	65.173387 
4866.000000	65.172863 
4865.000000	65.170955 
4864.000000	65.173220 
4863.000000	65.181946 
4862.000000	65.195918 
4861.000000	65.209889 
4860.000000	65.217661 
4859.000000	65.211844 
4858.000000	65.187025 
4857.000000	65.140247 
4856.000000	65.072321 
4855.000000	64.987349 
4854.000000	64.891600 
4853.000000	64.793252 
4852.000000	64.700841 
4851.000000	64.622640 
4850.000000	64.565682 
4849.000000	64.534735 
4848.000000	64.531826 
4847.000000	64.556074 
4846.000000	64.604020 
4845.000000	64.669775 
4844.000000	64.746236 
4843.000000	64.825773 
4842.000000	64.901423 
4841.000000	64.968132 
4840.000000	65.022802 
4839.000000	65.064311 
4838.000000	65.092468 
4837.000000	65.108132 
4836.000000	65.111374 
4835.000000	65.101838 
4834.000000	65.078139 
4833.000000	65.039086 
4832.000000	64.984154 
4831.000000	64.914965 
4830.000000	64.835691 
4829.000000	64.752888 
4828.000000	64.675402 
4827.000000	64.612770 
4826.000000	64.574408 
4825.000000	64.567327 
4824.000000	64.595603 
4823.000000	64.659190 
4822.000000	64.753317 
4821.000000	64.868807 
4820.000000	64.993476 
4819.000000	65.113759 
4818.000000	65.216422 
4817.000000	65.290355 
4816.000000	65.328383 
4815.000000	65.327882 
4814.000000	65.291261 
4813.000000	65.225028 
4812.000000	65.138864 
4811.000000	65.043473 
4810.000000	64.949703 
4809.000000	64.866161 
4808.000000	64.798879 
4807.000000	64.750647 
4806.000000	64.721727 
4805.000000	64.710521 
4804.000000	64.713907 
4803.000000	64.729022 
4802.000000	64.753079 
4801.000000	64.784598 
4800.000000	64.822363 
4799.000000	64.865994 
4798.000000	64.914679 
4797.000000	64.967250 
4796.000000	65.021538 
4795.000000	65.074229 
4794.000000	65.121126 
4793.000000	65.157628 
4792.000000	65.179634 
4791.000000	65.184950 
4790.000000	65.174078 
4789.000000	65.150094 
4788.000000	65.118241 
4787.000000	65.085792 
4786.000000	65.059804 
4785.000000	65.046000 
4784.000000	65.046787 
4783.000000	65.060877 
4782.000000	65.083122 
4781.000000	65.106368 
4780.000000	65.122723 
4779.000000	65.125012 
4778.000000	65.109276 
4777.000000	65.075898 
4776.000000	65.029811 
4775.000000	64.979124 
4774.000000	64.933466 
4773.000000	64.901828 
4772.000000	64.890050 
4771.000000	64.899539 
4770.000000	64.926481 
4769.000000	64.963030 
4768.000000	64.998674 
4767.000000	65.022921 
4766.000000	65.027141 
4765.000000	65.006661 
4764.000000	64.961338 
4763.000000	64.895725 
4762.000000	64.817500 
4761.000000	64.736461 
4760.000000	64.662599 
4759.000000	64.604878 
4758.000000	64.569878 
4757.000000	64.561510 
4756.000000	64.580750 
4755.000000	64.625906 
4754.000000	64.692926 
4753.000000	64.775705 
4752.000000	64.866781 
4751.000000	64.958190 
4750.000000	65.041565 
4749.000000	65.109968 
4748.000000	65.158653 
4747.000000	65.185689 
4746.000000	65.191984 
4745.000000	65.180635 
4744.000000	65.156054 
4743.000000	65.122890 
4742.000000	65.085530 
4741.000000	65.047049 
4740.000000	65.009284 
4739.000000	64.973497 
4738.000000	64.940762 
4737.000000	64.912319 
4736.000000	64.889860 
4735.000000	64.875197 
4734.000000	64.869999 
4733.000000	64.875411 
4732.000000	64.891362 
4731.000000	64.916396 
4730.000000	64.947295 
4729.000000	64.979124 
4728.000000	65.005564 
4727.000000	65.020799 
4726.000000	65.019726 
4725.000000	64.999079 
4724.000000	64.958190 
4723.000000	64.898920 
4722.000000	64.826226 
4721.000000	64.747333 
4720.000000	64.671039 
4719.000000	64.605712 
4718.000000	64.558815 
4717.000000	64.535498 
4716.000000	64.537763 
4715.000000	64.564275 
4714.000000	64.610695 
4713.000000	64.670634 
4712.000000	64.736628 
4711.000000	64.801263 
4710.000000	64.857530 
4709.000000	64.900302 
4708.000000	64.926576 
4707.000000	64.936494 
4706.000000	64.933037 
4705.000000	64.921689 
4704.000000	64.910197 
4703.000000	64.906048 
4702.000000	64.915108 
4701.000000	64.939403 
4700.000000	64.977502 
4699.000000	65.023851 
4698.000000	65.070581 
4697.000000	65.108919 
4696.000000	65.131521 
4695.000000	65.134286 
4694.000000	65.117073 
4693.000000	65.083861 
4692.000000	65.041327 
4691.000000	64.997220 
4690.000000	64.958238 
4689.000000	64.929080 
4688.000000	64.911651 
4687.000000	64.905428 
4686.000000	64.908361 
4685.000000	64.918088 
4684.000000	64.932870 
4683.000000	64.951825 
4682.000000	64.975380 
4681.000000	65.003943 
4680.000000	65.038275 
4679.000000	65.079092 
4678.000000	65.126752 
4677.000000	65.181183 
4676.000000	65.241026 
4675.000000	65.304255 
4674.000000	65.366935 
4673.000000	65.424394 
4672.000000	65.470886 
4671.000000	65.501141 
4670.000000	65.510845 
4669.000000	65.498232 
4668.000000	65.464258 
4667.000000	65.413355 
4666.000000	65.352058 
4665.000000	65.288519 
4664.000000	65.230154 
4663.000000	65.182757 
4662.000000	65.149044 
4661.000000	65.128636 
4660.000000	65.118455 
4659.000000	65.114021 
4658.000000	65.110826 
4657.000000	65.105676 
4656.000000	65.097165 
4655.000000	65.085911 
4654.000000	65.073633 
4653.000000	65.062761 
4652.000000	65.055584 
4651.000000	65.053725 
4650.000000	65.057444 
4649.000000	65.065789 
4648.000000	65.076947 
4647.000000	65.088582 
4646.000000	65.097880 
4645.000000	65.102458 
4644.000000	65.100598 
4643.000000	65.091776 
4642.000000	65.076112 
4641.000000	65.055179 
4640.000000	65.031790 
4639.000000	65.009427 
4638.000000	64.991712 
4637.000000	64.981579 
4636.000000	64.980816 
4635.000000	64.989376 
4634.000000	65.005445 
4633.000000	65.025687 
4632.000000	65.045809 
4631.000000	65.061998 
4630.000000	65.071725 
4629.000000	65.074110 
4628.000000	65.070199 
4627.000000	65.062594 
4626.000000	65.054392 
4625.000000	65.048289 
4624.000000	65.045475 
4623.000000	65.045785 
4622.000000	65.047216 
4621.000000	65.046954 
4620.000000	65.041923 
4619.000000	65.030121 
4618.000000	65.011000 
4617.000000	64.985632 
4616.000000	64.956426 
4615.000000	64.926147 
4614.000000	64.897274 
4613.000000	64.871287 
4612.000000	64.848446 
4611.000000	64.827919 
4610.000000	64.808440 
4609.000000	64.789152 
4608.000000	64.770102 
4607.000000	64.752340 
4606.000000	64.737749 
4605.000000	64.728546 
4604.000000	64.726400 
4603.000000	64.731907 
4602.000000	64.744544 
4601.000000	64.763069 
4600.000000	64.785790 
4599.000000	64.811444 
4598.000000	64.839410 
4597.000000	64.869737 
4596.000000	64.903092 
4595.000000	64.939951 
4594.000000	64.979863 
4593.000000	65.021109 
4592.000000	65.060830 
4591.000000	65.095233 
4590.000000	65.120315 
4589.000000	65.132808 
4588.000000	65.131282 
4587.000000	65.116214 
4586.000000	65.090489 
4585.000000	65.058183 
4584.000000	65.024042 
4583.000000	64.991664 
4582.000000	64.962959 
4581.000000	64.937615 
4580.000000	64.913845 
4579.000000	64.889192 
4578.000000	64.861893 
4577.000000	64.831733 
4576.000000	64.800643 
4575.000000	64.772510 
4574.000000	64.752268 
4573.000000	64.744663 
4572.000000	64.753031 
4571.000000	64.778041 
4570.000000	64.817786 
4569.000000	64.868021 
4568.000000	64.923429 
4567.000000	64.978909 
4566.000000	65.030193 
4565.000000	65.074992 
4564.000000	65.111780 
4563.000000	65.139961 
4562.000000	65.158939 
4561.000000	65.167784 
4560.000000	65.165495 
4559.000000	65.152120 
4558.000000	65.128564 
4557.000000	65.097594 
4556.000000	65.062427 
4555.000000	65.026497 
4554.000000	64.992260 
4553.000000	64.960765 
4552.000000	64.931559 
4551.000000	64.903211 
4550.000000	64.874458 
4549.000000	64.845371 
4548.000000	64.817976 
4547.000000	64.795899 
4546.000000	64.783596 
4545.000000	64.785122 
4544.000000	64.802527 
4543.000000	64.835286 
4542.000000	64.879560 
4541.000000	64.929151 
4540.000000	64.976978 
4539.000000	65.016555 
4538.000000	65.043759 
4537.000000	65.056824 
4536.000000	65.056490 
4535.000000	65.045166 
4534.000000	65.025830 
4533.000000	65.001082 
4532.000000	64.972257 
4531.000000	64.940023 
4530.000000	64.904880 
4529.000000	64.867877 
4528.000000	64.831328 
4527.000000	64.798402 
4526.000000	64.772963 
4525.000000	64.757776 
4524.000000	64.753890 
4523.000000	64.759445 
4522.000000	64.770197 
4521.000000	64.780807 
4520.000000	64.786410 
4519.000000	64.783549 
4518.000000	64.771151 
4517.000000	64.750647 
4516.000000	64.725995 
4515.000000	64.700961 
4514.000000	64.679861 
4513.000000	64.666128 
4512.000000	64.662790 
4511.000000	64.671611 
4510.000000	64.693975 
4509.000000	64.731025 
4508.000000	64.783048 
4507.000000	64.849448 
4506.000000	64.927577 
4505.000000	65.012121 
4504.000000	65.095949 
4503.000000	65.170860 
4502.000000	65.229463 
4501.000000	65.266561 
4500.000000	65.280437 
4499.000000	65.273737 
4498.000000	65.249705 
4497.000000	65.211081 
4496.000000	65.158414 
4495.000000	65.090203 
4494.000000	65.004062 
4493.000000	64.898014 
4492.000000	64.773964 
4491.000000	64.637207 
4490.000000	64.494633 
4489.000000	64.354228 
4488.000000	64.221763 
4487.000000	64.102268 
4486.000000	63.999819 
4485.000000	63.918399 
4484.000000	63.862824 
4483.000000	63.837480 
4482.000000	63.841700 
4481.000000	63.873744 
4480.000000	63.928627 
4479.000000	64.001870 
4478.000000	64.088320 
4477.000000	64.185166 
4476.000000	64.290261 
4475.000000	64.403319 
4474.000000	64.524841 
4473.000000	64.652729 
4472.000000	64.780688 
4471.000000	64.900779 
4470.000000	65.004944 
4469.000000	65.087103 
4468.000000	65.144729 
4467.000000	65.185284 
4466.000000	65.221667 
4465.000000	65.268611 
4464.000000	65.335869 
4463.000000	65.419125 
4462.000000	65.504312 
4461.000000	65.565919 
4460.000000	65.585041 
4459.000000	65.555286 
4458.000000	65.494871 
4457.000000	65.449285 
4456.000000	65.476775 
4455.000000	65.635156 
4454.000000	65.956830 
4453.000000	66.438269 
4452.000000	67.028450 
4451.000000	67.637991 
4450.000000	68.156790 
4449.000000	68.482160 
4448.000000	68.543291 
4447.000000	68.322348 
4446.000000	67.853999 
4445.000000	67.218351 
4444.000000	66.509890 
4443.000000	65.814447 
4442.000000	65.185999 
4441.000000	64.640307 
4440.000000	64.165854 
4439.000000	63.739204 
4438.000000	63.346910 
4437.000000	62.997126 
4436.000000	62.719392 
4435.000000	62.560319 
4434.000000	62.556719 
4433.000000	62.731981 
4432.000000	63.077640 
4431.000000	63.559103 
4430.000000	64.116597 
4429.000000	64.680576 
4428.000000	65.186023 
4427.000000	65.583419 
4426.000000	65.846180 
4425.000000	65.972399 
4424.000000	65.979242 
4423.000000	65.897274 
4422.000000	65.759706 
4421.000000	65.598773 
4420.000000	65.441894 
4419.000000	65.309119 
4418.000000	65.214920 
4417.000000	65.165162 
4416.000000	65.159916 
4415.000000	65.190577 
4414.000000	65.243768 
4413.000000	65.302848 
4412.000000	65.352296 
4411.000000	65.384149 
4410.000000	65.398526 
4409.000000	65.399932 
4408.000000	65.395998 
4407.000000	65.394091 
4406.000000	65.398788 
4405.000000	65.409922 
4404.000000	65.422987 
4403.000000	65.431785 
4402.000000	65.430021 
4401.000000	65.414571 
4400.000000	65.385389 
4399.000000	65.346050 
4398.000000	65.302109 
4397.000000	65.260505 
4396.000000	65.225219 
4395.000000	65.195059 
4394.000000	65.165352 
4393.000000	65.129780 
4392.000000	65.082406 
4391.000000	65.020251 
4390.000000	64.943647 
4389.000000	64.856600 
4388.000000	64.765977 
4387.000000	64.680075 
4386.000000	64.605879 
4385.000000	64.547944 
4384.000000	64.507961 
4383.000000	64.484739 
4382.000000	64.474773 
4381.000000	64.473748 
4380.000000	64.477038 
4379.000000	64.481687 
4378.000000	64.486289 
4377.000000	64.491748 
4376.000000	64.499473 
4375.000000	64.511823 
4374.000000	64.530348 
4373.000000	64.555907 
4372.000000	64.587855 
4371.000000	64.624691 
4370.000000	64.664268 
4369.000000	64.704680 
4368.000000	64.744353 
4367.000000	64.782977 
4366.000000	64.821195 
4365.000000	64.860606 
4364.000000	64.903092 
4363.000000	64.950037 
4362.000000	65.001702 
4361.000000	65.057182 
4360.000000	65.114521 
4359.000000	65.170979 
4358.000000	65.223431 
4357.000000	65.269923 
4356.000000	65.309190 
4355.000000	65.340948 
4354.000000	65.365314 
4353.000000	65.382814 
4352.000000	65.393733 
4351.000000	65.397691 
4350.000000	65.393662 
4349.000000	65.380811 
4348.000000	65.358662 
4347.000000	65.328192 
4346.000000	65.291357 
4345.000000	65.251684 
4344.000000	65.212607 
4343.000000	65.177369 
4342.000000	65.147542 
4341.000000	65.122699 
4340.000000	65.100669 
4339.000000	65.078377 
4338.000000	65.052938 
4337.000000	65.022635 
4336.000000	64.988255 
4335.000000	64.953279 
4334.000000	64.922809 
4333.000000	64.902234 
4332.000000	64.895963 
4331.000000	64.906048 
4330.000000	64.931106 
4329.000000	64.966630 
4328.000000	65.006208 
4327.000000	65.042972 
4326.000000	65.071225 
4325.000000	65.087509 
4324.000000	65.091371 
4323.000000	65.084862 
4322.000000	65.071582 
4321.000000	65.055441 
4320.000000	65.039420 
4319.000000	65.024995 
4318.000000	65.012645 
4317.000000	65.001726 
4316.000000	64.991712 
4315.000000	64.982485 
4314.000000	64.975118 
4313.000000	64.970827 
4312.000000	64.970445 
4311.000000	64.973545 
4310.000000	64.978313 
4309.000000	64.981460 
4308.000000	64.979004 
4307.000000	64.967656 
4306.000000	64.945769 
4305.000000	64.914059 
4304.000000	64.875578 
4303.000000	64.835166 
4302.000000	64.798378 
4301.000000	64.770174 
4300.000000	64.753794 
4299.000000	64.749932 
4298.000000	64.757013 
4297.000000	64.771914 
4296.000000	64.790964 
4295.000000	64.810657 
4294.000000	64.828824 
4293.000000	64.844512 
4292.000000	64.858365 
4291.000000	64.871478 
4290.000000	64.885282 
4289.000000	64.900374 
4288.000000	64.916706 
4287.000000	64.933514 
4286.000000	64.949178 
4285.000000	64.961647 
4284.000000	64.969182 
4283.000000	64.970993 
4282.000000	64.967322 
4281.000000	64.959383 
4280.000000	64.949369 
4279.000000	64.939761 
4278.000000	64.932250 
4277.000000	64.927101 
4276.000000	64.923048 
4275.000000	64.917325 
4274.000000	64.906263 
4273.000000	64.886331 
4272.000000	64.855313 
4271.000000	64.813232 
4270.000000	64.762854 
4269.000000	64.709544 
4268.000000	64.659953 
4267.000000	64.620995 
4266.000000	64.598321 
4265.000000	64.595389 
4264.000000	64.612174 
4263.000000	64.646267 
4262.000000	64.693236 
4261.000000	64.748096 
4260.000000	64.806175 
4259.000000	64.864349 
4258.000000	64.921045 
4257.000000	64.976096 
4256.000000	65.029764 
4255.000000	65.082287 
4254.000000	65.133213 
4253.000000	65.181422 
4252.000000	65.224933 
4251.000000	65.261793 
4250.000000	65.290141 
4249.000000	65.309333 
4248.000000	65.319204 
4247.000000	65.320229 
4246.000000	65.312552 
4245.000000	65.296244 
4244.000000	65.270781 
4243.000000	65.235447 
4242.000000	65.190005 
4241.000000	65.135622 
4240.000000	65.075135 
4239.000000	65.013337 
4238.000000	64.956283 
4237.000000	64.910745 
4236.000000	64.882349 
4235.000000	64.874100 
4234.000000	64.885544 
4233.000000	64.912438 
4232.000000	64.947652 
4231.000000	64.982795 
4230.000000	65.009713 
4229.000000	65.021920 
4228.000000	65.016269 
4227.000000	64.993405 
4226.000000	64.957141 
4225.000000	64.913487 
4224.000000	64.869379 
4223.000000	64.831399 
4222.000000	64.804482 
4221.000000	64.791178 
4220.000000	64.791536 
4219.000000	64.803457 
4218.000000	64.823269 
4217.000000	64.847087 
4216.000000	64.871335 
4215.000000	64.894032 
4214.000000	64.914536 
4213.000000	64.933991 
4212.000000	64.954257 
4211.000000	64.977145 
4210.000000	65.004038 
4209.000000	65.033960 
4208.000000	65.063548 
4207.000000	65.087223 
4206.000000	65.098905 
4205.000000	65.092825 
4204.000000	65.065360 
4203.000000	65.016603 
4202.000000	64.950823 
4201.000000	64.875912 
4200.000000	64.801812 
4199.000000	64.738440 
4198.000000	64.693737 
4197.000000	64.672279 
4196.000000	64.674448 
4195.000000	64.696598 
4194.000000	64.732098 
4193.000000	64.772844 
4192.000000	64.811396 
4191.000000	64.841508 
4190.000000	64.860272 
4189.000000	64.867329 
4188.000000	64.865756 
4187.000000	64.859724 
4186.000000	64.854311 
4185.000000	64.854073 
4184.000000	64.862370 
4183.000000	64.880847 
4182.000000	64.909410 
4181.000000	64.946722 
4180.000000	64.990401 
4179.000000	65.037584 
4178.000000	65.085148 
4177.000000	65.130209 
4176.000000	65.169954 
4175.000000	65.201854 
4174.000000	65.223717 
4173.000000	65.233564 
4172.000000	65.230274 
4171.000000	65.213632 
4170.000000	65.184235 
4169.000000	65.143227 
4168.000000	65.092968 
4167.000000	65.036296 
4166.000000	64.975929 
4165.000000	64.914608 
4164.000000	64.854741 
4163.000000	64.798927 
4162.000000	64.749765 
4161.000000	64.710021 
4160.000000	64.682126 
4159.000000	64.667916 
