PE IR       SPECTRUM    SPECTRUM    ASCII       PEDS        1.60        
  -1
BZCBFC~1.ASC
17/04/07
22:00:32.00
17/04/07
22:00:32.00
tln
$BZ1503107-1_t0107$<tbV0>[-5.2,10.4,8.0,0.0,27,1,0]
370.000000
64









2002,4.07    
MIRTGS : RIGHTBACK : INTERNAL 2
MIR : ON : INTERNAL 2
OPTKBR

0.200000
8
8.000000
FILLER
RATIO
SPECTRUM
UNLOCKED 256

DOUBLE
64
COMBINED
1
0
0


1.000000
RATIO


1
0
TRUE
51149
0
LEFT NOT FITTED RIGHT NOT FITTED 0
NONE
NONE
15600
12.000000
4.427000
51148
TRUE
1 0 8 72 0 0 0 0 

15798.010000






#HDR
-1
-1
#GR
CM-1
%T
0.00002384185791015625
0.0
5000.000000
-1.000000
4631
8
87.726044
40.435338
#DATA
5000.000000	64.162564 
4999.000000	64.548635 
4998.000000	64.931726 
4997.000000	65.260148 
4996.000000	65.481567 
4995.000000	65.552687 
4994.000000	65.447664 
4993.000000	65.164732 
4992.000000	64.728116 
4991.000000	64.184713 
4990.000000	63.597702 
4989.000000	63.037061 
4988.000000	62.566137 
4987.000000	62.231922 
4986.000000	62.058472 
4985.000000	62.045764 
4984.000000	62.171053 
4983.000000	62.395787 
4982.000000	62.674903 
4981.000000	62.965583 
4980.000000	63.231587 
4979.000000	63.447546 
4978.000000	63.597321 
4977.000000	63.674426 
4976.000000	63.678908 
4975.000000	63.616251 
4974.000000	63.495254 
4973.000000	63.327598 
4972.000000	63.128995 
4971.000000	62.917685 
4970.000000	62.715601 
4969.000000	62.544369 
4968.000000	62.424492 
4967.000000	62.370300 
4966.000000	62.386465 
4965.000000	62.468814 
4964.000000	62.604188 
4963.000000	62.774801 
4962.000000	62.959051 
4961.000000	63.140535 
4960.000000	63.308548 
4959.000000	63.464951 
4958.000000	63.621211 
4957.000000	63.797044 
4956.000000	64.012312 
4955.000000	64.282917 
4954.000000	64.612245 
4953.000000	64.985680 
4952.000000	65.369749 
4951.000000	65.716791 
4950.000000	65.975046 
4949.000000	66.102719 
4948.000000	66.078186 
4947.000000	65.907835 
4946.000000	65.624547 
4945.000000	65.283107 
4944.000000	64.944911 
4943.000000	64.666867 
4942.000000	64.485001 
4941.000000	64.410042 
4940.000000	64.424443 
4939.000000	64.492821 
4938.000000	64.570188 
4937.000000	64.615416 
4936.000000	64.602494 
4935.000000	64.525151 
4934.000000	64.399147 
4933.000000	64.254927 
4932.000000	64.128279 
4931.000000	64.047574 
4930.000000	64.027833 
4929.000000	64.066076 
4928.000000	64.142870 
4927.000000	64.228200 
4926.000000	64.291954 
4925.000000	64.311981 
4924.000000	64.278388 
4923.000000	64.195418 
4922.000000	64.077401 
4921.000000	63.945579 
4920.000000	63.817858 
4919.000000	63.708996 
4918.000000	63.628029 
4917.000000	63.579583 
4916.000000	63.566756 
4915.000000	63.590621 
4914.000000	63.652110 
4913.000000	63.749241 
4912.000000	63.877654 
4911.000000	64.026451 
4910.000000	64.176893 
4909.000000	64.306139 
4908.000000	64.390587 
4907.000000	64.412236 
4906.000000	64.363050 
4905.000000	64.248061 
4904.000000	64.085030 
4903.000000	63.900136 
4902.000000	63.721895 
4901.000000	63.574647 
4900.000000	63.473486 
4899.000000	63.421845 
4898.000000	63.412451 
4897.000000	63.431549 
4896.000000	63.463473 
4895.000000	63.494491 
4894.000000	63.517022 
4893.000000	63.528275 
4892.000000	63.532328 
4891.000000	63.536119 
4890.000000	63.548755 
4889.000000	63.577675 
4888.000000	63.627147 
4887.000000	63.696765 
4886.000000	63.781499 
4885.000000	63.873624 
4884.000000	63.963389 
4883.000000	64.042091 
4882.000000	64.102602 
4881.000000	64.140629 
4880.000000	64.155554 
4879.000000	64.150261 
4878.000000	64.130067 
4877.000000	64.101457 
4876.000000	64.070558 
4875.000000	64.041876 
4874.000000	64.017820 
4873.000000	63.998627 
4872.000000	63.982701 
4871.000000	63.967752 
4870.000000	63.952517 
4869.000000	63.937211 
4868.000000	63.923025 
4867.000000	63.912367 
4866.000000	63.907647 
4865.000000	63.911128 
4864.000000	63.924169 
4863.000000	63.946294 
4862.000000	63.975429 
4861.000000	64.007067 
4860.000000	64.035272 
4859.000000	64.052987 
4858.000000	64.053463 
4857.000000	64.031481 
4856.000000	63.984465 
4855.000000	63.913941 
4854.000000	63.825416 
4853.000000	63.728547 
4852.000000	63.635516 
4851.000000	63.559198 
4850.000000	63.510537 
4849.000000	63.496327 
4848.000000	63.517785 
4847.000000	63.570189 
4846.000000	63.643932 
4845.000000	63.726687 
4844.000000	63.805866 
4843.000000	63.870930 
4842.000000	63.915276 
4841.000000	63.936638 
4840.000000	63.937354 
4839.000000	63.922071 
4838.000000	63.897538 
4837.000000	63.870501 
4836.000000	63.846993 
4835.000000	63.832092 
4834.000000	63.829088 
4833.000000	63.840150 
4832.000000	63.865637 
4831.000000	63.904666 
4830.000000	63.954877 
4829.000000	64.012241 
4828.000000	64.072275 
4827.000000	64.129924 
4826.000000	64.181685 
4825.000000	64.225697 
4824.000000	64.262962 
4823.000000	64.296579 
4822.000000	64.330220 
4821.000000	64.366555 
4820.000000	64.405989 
4819.000000	64.445924 
4818.000000	64.480590 
4817.000000	64.502215 
4816.000000	64.503455 
4815.000000	64.479470 
4814.000000	64.429974 
4813.000000	64.359736 
4812.000000	64.277839 
4811.000000	64.195919 
4810.000000	64.125514 
4809.000000	64.075756 
4808.000000	64.051008 
4807.000000	64.050722 
4806.000000	64.070153 
4805.000000	64.101982 
4804.000000	64.137983 
4803.000000	64.171576 
4802.000000	64.198350 
4801.000000	64.217257 
4800.000000	64.229011 
4799.000000	64.236831 
4798.000000	64.244532 
4797.000000	64.255952 
4796.000000	64.273500 
4795.000000	64.298009 
4794.000000	64.328312 
4793.000000	64.361262 
4792.000000	64.392542 
4791.000000	64.417529 
4790.000000	64.432573 
4789.000000	64.435315 
4788.000000	64.425706 
4787.000000	64.406347 
4786.000000	64.381670 
4785.000000	64.357256 
4784.000000	64.337897 
4783.000000	64.326572 
4782.000000	64.323425 
4781.000000	64.325761 
4780.000000	64.328742 
4779.000000	64.326405 
4778.000000	64.313530 
4777.000000	64.287686 
4776.000000	64.249610 
4775.000000	64.202857 
4774.000000	64.153361 
4773.000000	64.107704 
4772.000000	64.072060 
4771.000000	64.050626 
4770.000000	64.044952 
4769.000000	64.053678 
4768.000000	64.072918 
4767.000000	64.097285 
4766.000000	64.120578 
4765.000000	64.137029 
4764.000000	64.141893 
4763.000000	64.132165 
4762.000000	64.106225 
4761.000000	64.064788 
4760.000000	64.010286 
4759.000000	63.947486 
4758.000000	63.882303 
4757.000000	63.822007 
4756.000000	63.773846 
4755.000000	63.744497 
4754.000000	63.738799 
4753.000000	63.759112 
4752.000000	63.804435 
4751.000000	63.870644 
4750.000000	63.950896 
4749.000000	64.036941 
4748.000000	64.120173 
4747.000000	64.193272 
4746.000000	64.250850 
4745.000000	64.290452 
4744.000000	64.312529 
4743.000000	64.319825 
4742.000000	64.316558 
4741.000000	64.307212 
4740.000000	64.295411 
4739.000000	64.283323 
4738.000000	64.271283 
4737.000000	64.258122 
4736.000000	64.241719 
4735.000000	64.219760 
4734.000000	64.191055 
4733.000000	64.156031 
4732.000000	64.117312 
4731.000000	64.079308 
4730.000000	64.047574 
4729.000000	64.027118 
4728.000000	64.021492 
4727.000000	64.032220 
4726.000000	64.057826 
4725.000000	64.093995 
4724.000000	64.134359 
4723.000000	64.172077 
4722.000000	64.201045 
4721.000000	64.216971 
4720.000000	64.218235 
4719.000000	64.205956 
4718.000000	64.182996 
4717.000000	64.153146 
4716.000000	64.119768 
4715.000000	64.085268 
4714.000000	64.050674 
4713.000000	64.015936 
4712.000000	63.980436 
4711.000000	63.943719 
4710.000000	63.905668 
4709.000000	63.867259 
4708.000000	63.830065 
4707.000000	63.796949 
4706.000000	63.771510 
4705.000000	63.758182 
4704.000000	63.761019 
4703.000000	63.783025 
4702.000000	63.824939 
4701.000000	63.884949 
4700.000000	63.958334 
4699.000000	64.038372 
4698.000000	64.116978 
4697.000000	64.186835 
4696.000000	64.242196 
4695.000000	64.280796 
4694.000000	64.303803 
4693.000000	64.315772 
4692.000000	64.323186 
4691.000000	64.333271 
4690.000000	64.352154 
4689.000000	64.383339 
4688.000000	64.427137 
4687.000000	64.480447 
4686.000000	64.537525 
4685.000000	64.591312 
4684.000000	64.634823 
4683.000000	64.661526 
4682.000000	64.666891 
4681.000000	64.648771 
4680.000000	64.608263 
4679.000000	64.549732 
4678.000000	64.480447 
4677.000000	64.409852 
4676.000000	64.347600 
4675.000000	64.301943 
4674.000000	64.277982 
4673.000000	64.276719 
4672.000000	64.294910 
4671.000000	64.326429 
4670.000000	64.363384 
4669.000000	64.397716 
4668.000000	64.423012 
4667.000000	64.435768 
4666.000000	64.435386 
4665.000000	64.423394 
4664.000000	64.403295 
4663.000000	64.379215 
4662.000000	64.355278 
4661.000000	64.334559 
4660.000000	64.319252 
4659.000000	64.310646 
4658.000000	64.309000 
4657.000000	64.314055 
4656.000000	64.324688 
4655.000000	64.339256 
4654.000000	64.355254 
4653.000000	64.369750 
4652.000000	64.379930 
4651.000000	64.383554 
4650.000000	64.379644 
4649.000000	64.368224 
4648.000000	64.350366 
4647.000000	64.327502 
4646.000000	64.301347 
4645.000000	64.273524 
4644.000000	64.245200 
4643.000000	64.217305 
4642.000000	64.190673 
4641.000000	64.166474 
4640.000000	64.146280 
4639.000000	64.132046 
4638.000000	64.125585 
4637.000000	64.128494 
4636.000000	64.141678 
4635.000000	64.164853 
4634.000000	64.196228 
4633.000000	64.232778 
4632.000000	64.270687 
4631.000000	64.305925 
4630.000000	64.335274 
4629.000000	64.356899 
4628.000000	64.370894 
4627.000000	64.379024 
4626.000000	64.384531 
4625.000000	64.391279 
4624.000000	64.402508 
4623.000000	64.420390 
4622.000000	64.444541 
4621.000000	64.472675 
4620.000000	64.499998 
4619.000000	64.521193 
4618.000000	64.530706 
4617.000000	64.524006 
4616.000000	64.498615 
4615.000000	64.455270 
4614.000000	64.397573 
4613.000000	64.331150 
4612.000000	64.263153 
4611.000000	64.200830 
4610.000000	64.150357 
4609.000000	64.115691 
4608.000000	64.098072 
4607.000000	64.096069 
4606.000000	64.106178 
4605.000000	64.123916 
4604.000000	64.144158 
4603.000000	64.162373 
4602.000000	64.175081 
4601.000000	64.180541 
4600.000000	64.177799 
4599.000000	64.167118 
4598.000000	64.149641 
4597.000000	64.127731 
4596.000000	64.103913 
4595.000000	64.081859 
4594.000000	64.065980 
4593.000000	64.061379 
4592.000000	64.072871 
4591.000000	64.104342 
4590.000000	64.157485 
4589.000000	64.231133 
4588.000000	64.320874 
4587.000000	64.419555 
4586.000000	64.518308 
4585.000000	64.607691 
4584.000000	64.679479 
4583.000000	64.727282 
4582.000000	64.747691 
4581.000000	64.740157 
4580.000000	64.707183 
4579.000000	64.652895 
4578.000000	64.582514 
4577.000000	64.501786 
4576.000000	64.416384 
4575.000000	64.331388 
4574.000000	64.250898 
4573.000000	64.178323 
4572.000000	64.116287 
4571.000000	64.066314 
4570.000000	64.029169 
4569.000000	64.004445 
4568.000000	63.991403 
4567.000000	63.988685 
4566.000000	63.995122 
4565.000000	64.008998 
4564.000000	64.028620 
4563.000000	64.051604 
4562.000000	64.075255 
4561.000000	64.096164 
4560.000000	64.111256 
4559.000000	64.117956 
4558.000000	64.114928 
4557.000000	64.102077 
4556.000000	64.080858 
4555.000000	64.054083 
4554.000000	64.025115 
4553.000000	63.997125 
4552.000000	63.972759 
4551.000000	63.954305 
4550.000000	63.943314 
4549.000000	63.940811 
4548.000000	63.947939 
4547.000000	63.965654 
4546.000000	63.994598 
4545.000000	64.034700 
4544.000000	64.084386 
4543.000000	64.140462 
4542.000000	64.198088 
4541.000000	64.251899 
4540.000000	64.296579 
4539.000000	64.328336 
4538.000000	64.346098 
4537.000000	64.351058 
4536.000000	64.346694 
4535.000000	64.337134 
4534.000000	64.326548 
4533.000000	64.317345 
4532.000000	64.309811 
4531.000000	64.302206 
4530.000000	64.291930 
4529.000000	64.276742 
4528.000000	64.255976 
4527.000000	64.231228 
4526.000000	64.206314 
4525.000000	64.185762 
4524.000000	64.173460 
4523.000000	64.170932 
4522.000000	64.176607 
4521.000000	64.185714 
4520.000000	64.191460 
4519.000000	64.186573 
4518.000000	64.165306 
4517.000000	64.125132 
4516.000000	64.067578 
4515.000000	63.997554 
4514.000000	63.922858 
4513.000000	63.852071 
4512.000000	63.793420 
4511.000000	63.752388 
4510.000000	63.731789 
4509.000000	63.731813 
4508.000000	63.750481 
4507.000000	63.783979 
4506.000000	63.828134 
4505.000000	63.878655 
4504.000000	63.932061 
4503.000000	63.985252 
4502.000000	64.036059 
4501.000000	64.082288 
4500.000000	64.122796 
4499.000000	64.157152 
4498.000000	64.184713 
4497.000000	64.203953 
4496.000000	64.213299 
4495.000000	64.211130 
4494.000000	64.195966 
4493.000000	64.166879 
4492.000000	64.125180 
4491.000000	64.073944 
4490.000000	64.017033 
4489.000000	63.958930 
4488.000000	63.904142 
4487.000000	63.856625 
4486.000000	63.819575 
4485.000000	63.794469 
4484.000000	63.781905 
4483.000000	63.780260 
4482.000000	63.783049 
4481.000000	63.783812 
4480.000000	63.779044 
4479.000000	63.768768 
4478.000000	63.750576 
4477.000000	63.730740 
4476.000000	63.727641 
4475.000000	63.757896 
4474.000000	63.826918 
4473.000000	63.937330 
4472.000000	64.087629 
4471.000000	64.270520 
4470.000000	64.476847 
4469.000000	64.682745 
4468.000000	64.854907 
4467.000000	64.984226 
4466.000000	65.082454 
4465.000000	65.166211 
4464.000000	65.250539 
4463.000000	65.345311 
4462.000000	65.450882 
4461.000000	65.537691 
4460.000000	65.575146 
4459.000000	65.552139 
4458.000000	65.483736 
4457.000000	65.424561 
4456.000000	65.447926 
4455.000000	65.590143 
4454.000000	65.895342 
4453.000000	66.354966 
4452.000000	67.006587 
4451.000000	67.929840 
4450.000000	69.253253 
4449.000000	71.149802 
4448.000000	73.703074 
4447.000000	76.860547 
4446.000000	80.353403 
4445.000000	83.720421 
4444.000000	86.374545 
4443.000000	87.726044 
4442.000000	87.326765 
4441.000000	84.979248 
4440.000000	80.758380 
4439.000000	75.013709 
4438.000000	68.284130 
4437.000000	61.222839 
4436.000000	54.494261 
4435.000000	48.688554 
4434.000000	44.261002 
4433.000000	41.483139 
4432.000000	40.435338 
4431.000000	41.017508 
4430.000000	42.955160 
4429.000000	45.885181 
4428.000000	49.365878 
4427.000000	52.992105 
4426.000000	56.364870 
4425.000000	59.223723 
4424.000000	61.412405 
4423.000000	62.928676 
4422.000000	63.868212 
4421.000000	64.399552 
4420.000000	64.705371 
4419.000000	64.933037 
4418.000000	65.167617 
4417.000000	65.426659 
4416.000000	65.679240 
4415.000000	65.874385 
4414.000000	65.970897 
4413.000000	65.947842 
4412.000000	65.813994 
4411.000000	65.594387 
4410.000000	65.326666 
4409.000000	65.044140 
4408.000000	64.772200 
4407.000000	64.542889 
4406.000000	64.378166 
4405.000000	64.272379 
4404.000000	64.206051 
4403.000000	64.168310 
4402.000000	64.147710 
4401.000000	64.127612 
4400.000000	64.097309 
4399.000000	64.051294 
4398.000000	63.992047 
4397.000000	63.930344 
4396.000000	63.876986 
4395.000000	63.829827 
4394.000000	63.791108 
4393.000000	63.771510 
4392.000000	63.778948 
4391.000000	63.815212 
4390.000000	63.881516 
4389.000000	63.977408 
4388.000000	64.097046 
4387.000000	64.229822 
4386.000000	64.361929 
4385.000000	64.478874 
4384.000000	64.568233 
4383.000000	64.621853 
4382.000000	64.638161 
4381.000000	64.621591 
4380.000000	64.582085 
4379.000000	64.531540 
4378.000000	64.481592 
4377.000000	64.439845 
4376.000000	64.411616 
4375.000000	64.395952 
4374.000000	64.387464 
4373.000000	64.377093 
4372.000000	64.356279 
4371.000000	64.318060 
4370.000000	64.258980 
4369.000000	64.180850 
4368.000000	64.089751 
4367.000000	63.996505 
4366.000000	63.913798 
4365.000000	63.854575 
4364.000000	63.829016 
4363.000000	63.842630 
4362.000000	63.894939 
4361.000000	63.979244 
4360.000000	64.083886 
4359.000000	64.194607 
4358.000000	64.297556 
4357.000000	64.381170 
4356.000000	64.438462 
4355.000000	64.467477 
4354.000000	64.471197 
4353.000000	64.455676 
4352.000000	64.428758 
4351.000000	64.398431 
4350.000000	64.370965 
4349.000000	64.351511 
4348.000000	64.342260 
4347.000000	64.344000 
4346.000000	64.355349 
4345.000000	64.374589 
4344.000000	64.398837 
4343.000000	64.424872 
4342.000000	64.448976 
4341.000000	64.467406 
4340.000000	64.476776 
4339.000000	64.474439 
4338.000000	64.459085 
4337.000000	64.431262 
4336.000000	64.393043 
4335.000000	64.347887 
4334.000000	64.300036 
4333.000000	64.253997 
4332.000000	64.213538 
4331.000000	64.181542 
4330.000000	64.159655 
4329.000000	64.148855 
4328.000000	64.149904 
4327.000000	64.163470 
4326.000000	64.189743 
4325.000000	64.228343 
4324.000000	64.277648 
4323.000000	64.334416 
4322.000000	64.393210 
4321.000000	64.446949 
4320.000000	64.487671 
4319.000000	64.508247 
4318.000000	64.503884 
4317.000000	64.473676 
4316.000000	64.421486 
4315.000000	64.354944 
4314.000000	64.284300 
4313.000000	64.220118 
4312.000000	64.171338 
4311.000000	64.143085 
4310.000000	64.136075 
4309.000000	64.146971 
4308.000000	64.169788 
4307.000000	64.197969 
4306.000000	64.226317 
4305.000000	64.251685 
4304.000000	64.273643 
4303.000000	64.293766 
4302.000000	64.314770 
4301.000000	64.339017 
4300.000000	64.367580 
4299.000000	64.399933 
4298.000000	64.433765 
4297.000000	64.466333 
4296.000000	64.494085 
4295.000000	64.514899 
4294.000000	64.526510 
4293.000000	64.527773 
4292.000000	64.517188 
4291.000000	64.493489 
4290.000000	64.455175 
4289.000000	64.401173 
4288.000000	64.331674 
4287.000000	64.248776 
4286.000000	64.157199 
4285.000000	64.064145 
4284.000000	63.979005 
4283.000000	63.911795 
4282.000000	63.871860 
4281.000000	63.865852 
4280.000000	63.896417 
4279.000000	63.961172 
4278.000000	64.052557 
4277.000000	64.159107 
4276.000000	64.266538 
4275.000000	64.360833 
4274.000000	64.430475 
4273.000000	64.469099 
4272.000000	64.475512 
4271.000000	64.454507 
4270.000000	64.415264 
4269.000000	64.369082 
4268.000000	64.327573 
4267.000000	64.299201 
4266.000000	64.288759 
4265.000000	64.295649 
4264.000000	64.316082 
4263.000000	64.343285 
4262.000000	64.370298 
4261.000000	64.391398 
4260.000000	64.403653 
4259.000000	64.406585 
4258.000000	64.401745 
4257.000000	64.391565 
4256.000000	64.378356 
4255.000000	64.363574 
4254.000000	64.347457 
4253.000000	64.329624 
4252.000000	64.309239 
4251.000000	64.285874 
4250.000000	64.259886 
4249.000000	64.232134 
4248.000000	64.204287 
4247.000000	64.178276 
4246.000000	64.156484 
4245.000000	64.140510 
4244.000000	64.131951 
4243.000000	64.131999 
4242.000000	64.141869 
4241.000000	64.161968 
4240.000000	64.192152 
4239.000000	64.231276 
4238.000000	64.277267 
4237.000000	64.326834 
4236.000000	64.376115 
4235.000000	64.421129 
4234.000000	64.458227 
4233.000000	64.485073 
4232.000000	64.500260 
4231.000000	64.503645 
4230.000000	64.495491 
4229.000000	64.476323 
4228.000000	64.446330 
4227.000000	64.405584 
4226.000000	64.353966 
4225.000000	64.292025 
4224.000000	64.221549 
4223.000000	64.146065 
4222.000000	64.070749 
4221.000000	64.002251 
4220.000000	63.947367 
4219.000000	63.912296 
4218.000000	63.900947 
4217.000000	63.914656 
4216.000000	63.951492 
4215.000000	64.006686 
4214.000000	64.073348 
4213.000000	64.143753 
4212.000000	64.209842 
4211.000000	64.265108 
4210.000000	64.304733 
4209.000000	64.326572 
4208.000000	64.330697 
4207.000000	64.319682 
4206.000000	64.297795 
4205.000000	64.269804 
4204.000000	64.240646 
4203.000000	64.213871 
4202.000000	64.191627 
4201.000000	64.173793 
4200.000000	64.158678 
4199.000000	64.143252 
4198.000000	64.124631 
4197.000000	64.101028 
4196.000000	64.072585 
4195.000000	64.041757 
4194.000000	64.012932 
4193.000000	63.991141 
4192.000000	63.981008 
4191.000000	63.985133 
4190.000000	64.003944 
4189.000000	64.035153 
4188.000000	64.074730 
4187.000000	64.117884 
4186.000000	64.160442 
4185.000000	64.199590 
4184.000000	64.234590 
4183.000000	64.266133 
4182.000000	64.296412 
4181.000000	64.327788 
4180.000000	64.362072 
4179.000000	64.399528 
4178.000000	64.438724 
4177.000000	64.477157 
4176.000000	64.511418 
4175.000000	64.538455 
4174.000000	64.555597 
4173.000000	64.561629 
4172.000000	64.556741 
4171.000000	64.542460 
4170.000000	64.520978 
4169.000000	64.494442 
4168.000000	64.465188 
4167.000000	64.435052 
4166.000000	64.405298 
4165.000000	64.376616 
4164.000000	64.349508 
4163.000000	64.324355 
4162.000000	64.301514 
4161.000000	64.281725 
4160.000000	64.265513 
4159.000000	64.253687 
