PE IR       SPECTRUM    SPECTRUM    ASCII       PEDS        1.60        
  -1
BZ6C24~1.ASC
17/04/07
16:47:28.00
17/04/07
16:47:28.00
tln
$BZ1503107-1_t0044$<tbV0>[-13.0,-5.2,8.0,0.0,27,1,0]
370.000000
64









2002,4.07    
MIRTGS : RIGHTBACK : INTERNAL 2
MIR : ON : INTERNAL 2
OPTKBR

0.200000
8
8.000000
FILLER
RATIO
SPECTRUM
UNLOCKED 256

DOUBLE
64
COMBINED
1
0
0


1.000000
RATIO


1
0
TRUE
51149
0
LEFT NOT FITTED RIGHT NOT FITTED 0
NONE
NONE
15600
12.000000
4.427000
51148
TRUE
1 0 8 72 0 0 0 0 

15798.010000






#HDR
-1
-1
#GR
CM-1
%T
0.00002384185791015625
0.0
5000.000000
-1.000000
4631
8
71.033287
40.392160
#DATA
5000.000000	65.115165 
4999.000000	65.035414 
4998.000000	64.945197 
4997.000000	64.852237 
4996.000000	64.760065 
4995.000000	64.669919 
4994.000000	64.581513 
4993.000000	64.496016 
4992.000000	64.416718 
4991.000000	64.350104 
4990.000000	64.303469 
4989.000000	64.282798 
4988.000000	64.290618 
4987.000000	64.324164 
4986.000000	64.375662 
4985.000000	64.433217 
4984.000000	64.483952 
4983.000000	64.516735 
4982.000000	64.524841 
4981.000000	64.507126 
4980.000000	64.467620 
4979.000000	64.414024 
4978.000000	64.355635 
4977.000000	64.300727 
4976.000000	64.254140 
4975.000000	64.216494 
4974.000000	64.185380 
4973.000000	64.156413 
4972.000000	64.125347 
4971.000000	64.089703 
4970.000000	64.049553 
4969.000000	64.008045 
4968.000000	63.969850 
4967.000000	63.940668 
4966.000000	63.924837 
4965.000000	63.924908 
4964.000000	63.940262 
4963.000000	63.967871 
4962.000000	64.002895 
4961.000000	64.039325 
4960.000000	64.070868 
4959.000000	64.092397 
4958.000000	64.100885 
4957.000000	64.095807 
4956.000000	64.079332 
4955.000000	64.056324 
4954.000000	64.033627 
4953.000000	64.019203 
4952.000000	64.020538 
4951.000000	64.043498 
4950.000000	64.090991 
4949.000000	64.163064 
4948.000000	64.256119 
4947.000000	64.363384 
4946.000000	64.475369 
4945.000000	64.581537 
4944.000000	64.671301 
4943.000000	64.736080 
4942.000000	64.770030 
4941.000000	64.770579 
4940.000000	64.739418 
4939.000000	64.682173 
4938.000000	64.607954 
4937.000000	64.527916 
4936.000000	64.453768 
4935.000000	64.396429 
4934.000000	64.363884 
4933.000000	64.359974 
4932.000000	64.384245 
4931.000000	64.432382 
4930.000000	64.497780 
4929.000000	64.572525 
4928.000000	64.648938 
4927.000000	64.719891 
4926.000000	64.778828 
4925.000000	64.819526 
4924.000000	64.835619 
4923.000000	64.821076 
4922.000000	64.770817 
4921.000000	64.682745 
4920.000000	64.559245 
4919.000000	64.408802 
4918.000000	64.246129 
4917.000000	64.090323 
4916.000000	63.962221 
4915.000000	63.879704 
4914.000000	63.854146 
4913.000000	63.887643 
4912.000000	63.971424 
4911.000000	64.089274 
4910.000000	64.220285 
4909.000000	64.344835 
4908.000000	64.447927 
4907.000000	64.522671 
4906.000000	64.569926 
4905.000000	64.596939 
4904.000000	64.613747 
4903.000000	64.629817 
4902.000000	64.650750 
4901.000000	64.677309 
4900.000000	64.705538 
4899.000000	64.729356 
4898.000000	64.742684 
4897.000000	64.742398 
4896.000000	64.729213 
4895.000000	64.707827 
4894.000000	64.685702 
4893.000000	64.670133 
4892.000000	64.667201 
4891.000000	64.679837 
4890.000000	64.707660 
4889.000000	64.747834 
4888.000000	64.795875 
4887.000000	64.846777 
4886.000000	64.896559 
4885.000000	64.943051 
4884.000000	64.986038 
4883.000000	65.026855 
4882.000000	65.067267 
4881.000000	65.108633 
4880.000000	65.150094 
4879.000000	65.188670 
4878.000000	65.218806 
4877.000000	65.233755 
4876.000000	65.227079 
4875.000000	65.194725 
4874.000000	65.136265 
4873.000000	65.055513 
4872.000000	64.960098 
4871.000000	64.860177 
4870.000000	64.766430 
4869.000000	64.688110 
4868.000000	64.631533 
4867.000000	64.599418 
4866.000000	64.590430 
4865.000000	64.600539 
4864.000000	64.624357 
4863.000000	64.656591 
4862.000000	64.692616 
4861.000000	64.728879 
4860.000000	64.762020 
4859.000000	64.789390 
4858.000000	64.807558 
4857.000000	64.813876 
4856.000000	64.806509 
4855.000000	64.785766 
4854.000000	64.754176 
4853.000000	64.717268 
4852.000000	64.682888 
4851.000000	64.659476 
4850.000000	64.654064 
4849.000000	64.670896 
4848.000000	64.710116 
4847.000000	64.767289 
4846.000000	64.834237 
4845.000000	64.900445 
4844.000000	64.955496 
4843.000000	64.991211 
4842.000000	65.003299 
4841.000000	64.991569 
4840.000000	64.960122 
4839.000000	64.916205 
4838.000000	64.868664 
4837.000000	64.825868 
4836.000000	64.794206 
4835.000000	64.777946 
4834.000000	64.778041 
4833.000000	64.792633 
4832.000000	64.817261 
4831.000000	64.846467 
4830.000000	64.874124 
4829.000000	64.895033 
4828.000000	64.904928 
4827.000000	64.900779 
4826.000000	64.881062 
4825.000000	64.845657 
4824.000000	64.795923 
4823.000000	64.734649 
4822.000000	64.666008 
4821.000000	64.595198 
4820.000000	64.528584 
4819.000000	64.472913 
4818.000000	64.434480 
4817.000000	64.418244 
4816.000000	64.426207 
4815.000000	64.457488 
4814.000000	64.508080 
4813.000000	64.572024 
4812.000000	64.641380 
4811.000000	64.708948 
4810.000000	64.769363 
4809.000000	64.820098 
4808.000000	64.861822 
4807.000000	64.896702 
4806.000000	64.927458 
4805.000000	64.955043 
4804.000000	64.978885 
4803.000000	64.995384 
4802.000000	64.999318 
4801.000000	64.985346 
4800.000000	64.950537 
4799.000000	64.896011 
4798.000000	64.827942 
4797.000000	64.756751 
4796.000000	64.695143 
4795.000000	64.654898 
4794.000000	64.643764 
4793.000000	64.663171 
4792.000000	64.707422 
4791.000000	64.764642 
4790.000000	64.819407 
4789.000000	64.856314 
4788.000000	64.863967 
4787.000000	64.836835 
4786.000000	64.777302 
4785.000000	64.694309 
4784.000000	64.602136 
4783.000000	64.516687 
4782.000000	64.452672 
4781.000000	64.420509 
4780.000000	64.424610 
4779.000000	64.463424 
4778.000000	64.529371 
4777.000000	64.611291 
4776.000000	64.696240 
4775.000000	64.772057 
4774.000000	64.829564 
4773.000000	64.863371 
4772.000000	64.873242 
4771.000000	64.862990 
4770.000000	64.839887 
4769.000000	64.812469 
4768.000000	64.788746 
4767.000000	64.774298 
4766.000000	64.771389 
4765.000000	64.779114 
4764.000000	64.793753 
4763.000000	64.810633 
4762.000000	64.825606 
4761.000000	64.836478 
4760.000000	64.843583 
4759.000000	64.849495 
4758.000000	64.857625 
4757.000000	64.871335 
4756.000000	64.892816 
4755.000000	64.921998 
4754.000000	64.956283 
4753.000000	64.991593 
4752.000000	65.023183 
4751.000000	65.047144 
4750.000000	65.061974 
4749.000000	65.068554 
4748.000000	65.069723 
4747.000000	65.069389 
4746.000000	65.071439 
4745.000000	65.078163 
4744.000000	65.089845 
4743.000000	65.104413 
4742.000000	65.118265 
4741.000000	65.127158 
4740.000000	65.127491 
4739.000000	65.117549 
4738.000000	65.098190 
4737.000000	65.072512 
4736.000000	65.045142 
4735.000000	65.020918 
4734.000000	65.003204 
4733.000000	64.993023 
4732.000000	64.988446 
4731.000000	64.984679 
4730.000000	64.975786 
4729.000000	64.957094 
4728.000000	64.926552 
4727.000000	64.885282 
4726.000000	64.837908 
4725.000000	64.791297 
4724.000000	64.753222 
4723.000000	64.729595 
4722.000000	64.724302 
4721.000000	64.737963 
4720.000000	64.768815 
4719.000000	64.812779 
4718.000000	64.865779 
4717.000000	64.924550 
4716.000000	64.987349 
4715.000000	65.053534 
4714.000000	65.123295 
4713.000000	65.196251 
4712.000000	65.270781 
4711.000000	65.342926 
4710.000000	65.406942 
4709.000000	65.455293 
4708.000000	65.480828 
4707.000000	65.477156 
4706.000000	65.440392 
4705.000000	65.369772 
4704.000000	65.268468 
4703.000000	65.143370 
4702.000000	65.004253 
4701.000000	64.862895 
4700.000000	64.731502 
4699.000000	64.620685 
4698.000000	64.538311 
4697.000000	64.488077 
4696.000000	64.469170 
4695.000000	64.476895 
4694.000000	64.503383 
4693.000000	64.539718 
4692.000000	64.577150 
4691.000000	64.609146 
4690.000000	64.631795 
4689.000000	64.644622 
4688.000000	64.649510 
4687.000000	64.649820 
4686.000000	64.648842 
4685.000000	64.649033 
4684.000000	64.651203 
4683.000000	64.654707 
4682.000000	64.657473 
4681.000000	64.657402 
4680.000000	64.652466 
4679.000000	64.641427 
4678.000000	64.623999 
4677.000000	64.600896 
4676.000000	64.573693 
4675.000000	64.544224 
4674.000000	64.514660 
4673.000000	64.487409 
4672.000000	64.464569 
4671.000000	64.447426 
4670.000000	64.436483 
4669.000000	64.431500 
4668.000000	64.431595 
4667.000000	64.434671 
4666.000000	64.439225 
4665.000000	64.443755 
4664.000000	64.448857 
4663.000000	64.456582 
4662.000000	64.470791 
4661.000000	64.495778 
4660.000000	64.535498 
4659.000000	64.592289 
4658.000000	64.665365 
4657.000000	64.750504 
4656.000000	64.840960 
4655.000000	64.928579 
4654.000000	65.005517 
4653.000000	65.065979 
4652.000000	65.107393 
4651.000000	65.130472 
4650.000000	65.139222 
4649.000000	65.139055 
4648.000000	65.135669 
4647.000000	65.132880 
4646.000000	65.132761 
4645.000000	65.134406 
4644.000000	65.135526 
4643.000000	65.132236 
4642.000000	65.121579 
4641.000000	65.101218 
4640.000000	65.070724 
4639.000000	65.031099 
4638.000000	64.984464 
4637.000000	64.933562 
4636.000000	64.881229 
4635.000000	64.829921 
4634.000000	64.781212 
4633.000000	64.735960 
4632.000000	64.694786 
4631.000000	64.657402 
4630.000000	64.623355 
4629.000000	64.592432 
4628.000000	64.564943 
4627.000000	64.541506 
4626.000000	64.523410 
4625.000000	64.512300 
4624.000000	64.509963 
4623.000000	64.517664 
4622.000000	64.535570 
4621.000000	64.562559 
4620.000000	64.595675 
4619.000000	64.630508 
4618.000000	64.661669 
4617.000000	64.683699 
4616.000000	64.692330 
4615.000000	64.685511 
4614.000000	64.663624 
4613.000000	64.629554 
4612.000000	64.587903 
4611.000000	64.544224 
4610.000000	64.503240 
4609.000000	64.467930 
4608.000000	64.438724 
4607.000000	64.414024 
4606.000000	64.390420 
4605.000000	64.364194 
4604.000000	64.332556 
4603.000000	64.295411 
4602.000000	64.255499 
4601.000000	64.218521 
4600.000000	64.191675 
4599.000000	64.182233 
4598.000000	64.195322 
4597.000000	64.232540 
4596.000000	64.291214 
4595.000000	64.364624 
4594.000000	64.443182 
4593.000000	64.516544 
4592.000000	64.575576 
4591.000000	64.614224 
4590.000000	64.630341 
4589.000000	64.626264 
4588.000000	64.607238 
4587.000000	64.580607 
4586.000000	64.553952 
4585.000000	64.533448 
4584.000000	64.523339 
4583.000000	64.524841 
4582.000000	64.536809 
4581.000000	64.555931 
4580.000000	64.578199 
4579.000000	64.598751 
4578.000000	64.612817 
4577.000000	64.616298 
4576.000000	64.606547 
4575.000000	64.582443 
4574.000000	64.544701 
4573.000000	64.496302 
4572.000000	64.441895 
4571.000000	64.387321 
4570.000000	64.338278 
4569.000000	64.299488 
4568.000000	64.273595 
4567.000000	64.261126 
4566.000000	64.260149 
4565.000000	64.266729 
4564.000000	64.276123 
4563.000000	64.283514 
4562.000000	64.285755 
4561.000000	64.281296 
4560.000000	64.271330 
4559.000000	64.258909 
4558.000000	64.248657 
4557.000000	64.244890 
4556.000000	64.250659 
4555.000000	64.266633 
4554.000000	64.290976 
4553.000000	64.320111 
4552.000000	64.349794 
4551.000000	64.376258 
4550.000000	64.397740 
4549.000000	64.414620 
4548.000000	64.429068 
4547.000000	64.443755 
4546.000000	64.460468 
4545.000000	64.478945 
4544.000000	64.496016 
4543.000000	64.506196 
4542.000000	64.503264 
4541.000000	64.482283 
4540.000000	64.441561 
4539.000000	64.384007 
4538.000000	64.317107 
4537.000000	64.251923 
4536.000000	64.200639 
4535.000000	64.173746 
4534.000000	64.177322 
4533.000000	64.211821 
4532.000000	64.272022 
4531.000000	64.348459 
4530.000000	64.429306 
4529.000000	64.503598 
4528.000000	64.563632 
4527.000000	64.606261 
4526.000000	64.632415 
4525.000000	64.646530 
4524.000000	64.654588 
4523.000000	64.662289 
4522.000000	64.673304 
4521.000000	64.689087 
4520.000000	64.708638 
4519.000000	64.730024 
4518.000000	64.750480 
4517.000000	64.767885 
4516.000000	64.780330 
4515.000000	64.786839 
4514.000000	64.786529 
4513.000000	64.778423 
4512.000000	64.761066 
4511.000000	64.733242 
4510.000000	64.693880 
4509.000000	64.643025 
4508.000000	64.581823 
4507.000000	64.513325 
4506.000000	64.441251 
4505.000000	64.369821 
4504.000000	64.302635 
4503.000000	64.242053 
4502.000000	64.188838 
4501.000000	64.142417 
4500.000000	64.101243 
4499.000000	64.063501 
4498.000000	64.028310 
4497.000000	63.996028 
4496.000000	63.968110 
4495.000000	63.946819 
4494.000000	63.934683 
4493.000000	63.934016 
4492.000000	63.946008 
4491.000000	63.970470 
4490.000000	64.005470 
4489.000000	64.048051 
4488.000000	64.094543 
4487.000000	64.141345 
4486.000000	64.185285 
4485.000000	64.223957 
4484.000000	64.255619 
4483.000000	64.279508 
4482.000000	64.295458 
4481.000000	64.303874 
4480.000000	64.306163 
4479.000000	64.303231 
4478.000000	64.295077 
4477.000000	64.281439 
4476.000000	64.262247 
4475.000000	64.238166 
4474.000000	64.211034 
4473.000000	64.184427 
4472.000000	64.163851 
4471.000000	64.153218 
4470.000000	64.153671 
4469.000000	64.164519 
4468.000000	64.183712 
4467.000000	64.208674 
4466.000000	64.237070 
4465.000000	64.269709 
4464.000000	64.308738 
4463.000000	64.354085 
4462.000000	64.402985 
4461.000000	64.451241 
4460.000000	64.493155 
4459.000000	64.520096 
4458.000000	64.525699 
4457.000000	64.508461 
4456.000000	64.473176 
4455.000000	64.431929 
4454.000000	64.399528 
4453.000000	64.388346 
4452.000000	64.406085 
4451.000000	64.454436 
4450.000000	64.528179 
4449.000000	64.612698 
4448.000000	64.697718 
4447.000000	64.781332 
4446.000000	64.871931 
4445.000000	64.986538 
4444.000000	65.141916 
4443.000000	65.348601 
4442.000000	65.604639 
4441.000000	65.896534 
4440.000000	66.202950 
4439.000000	66.503977 
4438.000000	66.789031 
4437.000000	67.062520 
4436.000000	67.346215 
4435.000000	67.670154 
4434.000000	68.065023 
4433.000000	68.544387 
4432.000000	69.101834 
4431.000000	69.696450 
4430.000000	70.268344 
4429.000000	70.733547 
4428.000000	71.013069 
4427.000000	71.033287 
4426.000000	70.752739 
4425.000000	70.160341 
4424.000000	69.282460 
4423.000000	68.181681 
4422.000000	66.946291 
4421.000000	65.689492 
4420.000000	64.534306 
4419.000000	63.600945 
4418.000000	62.989211 
4417.000000	62.761902 
4416.000000	62.933611 
4415.000000	63.459944 
4414.000000	64.244532 
4413.000000	65.151429 
4412.000000	66.033482 
4411.000000	66.752767 
4410.000000	67.212533 
4409.000000	67.373633 
4408.000000	67.259049 
4407.000000	66.942524 
4406.000000	66.523861 
4405.000000	66.102766 
4404.000000	65.751194 
4403.000000	65.501904 
4402.000000	65.344095 
4401.000000	65.244364 
4400.000000	65.154385 
4399.000000	65.041828 
4398.000000	64.888978 
4397.000000	64.700341 
4396.000000	64.494299 
4395.000000	64.289665 
4394.000000	64.103984 
4393.000000	63.942694 
4392.000000	63.806438 
4391.000000	63.692378 
4390.000000	63.596653 
4389.000000	63.517117 
4388.000000	63.457846 
4387.000000	63.428378 
4386.000000	63.436865 
4385.000000	63.487744 
4384.000000	63.577723 
4383.000000	63.696455 
4382.000000	63.828802 
4381.000000	63.958501 
4380.000000	64.070057 
4379.000000	64.153289 
4378.000000	64.206743 
4377.000000	64.235949 
4376.000000	64.249277 
4375.000000	64.256548 
4374.000000	64.265179 
4373.000000	64.279532 
4372.000000	64.303565 
4371.000000	64.336228 
4370.000000	64.373207 
4369.000000	64.407348 
4368.000000	64.431929 
4367.000000	64.441084 
4366.000000	64.431476 
4365.000000	64.403700 
4364.000000	64.362359 
4363.000000	64.313936 
4362.000000	64.265227 
4361.000000	64.222550 
4360.000000	64.190721 
4359.000000	64.172577 
4358.000000	64.168787 
4357.000000	64.178538 
4356.000000	64.199471 
4355.000000	64.228343 
4354.000000	64.261198 
4353.000000	64.293122 
4352.000000	64.319491 
4351.000000	64.336585 
4350.000000	64.342546 
4349.000000	64.336800 
4348.000000	64.321351 
4347.000000	64.300227 
4346.000000	64.279127 
4345.000000	64.263772 
4344.000000	64.259386 
4343.000000	64.269495 
4342.000000	64.295482 
4341.000000	64.336442 
4340.000000	64.389228 
4339.000000	64.449119 
4338.000000	64.510512 
4337.000000	64.567971 
4336.000000	64.616107 
4335.000000	64.650225 
4334.000000	64.666867 
4333.000000	64.664030 
4332.000000	64.641284 
4331.000000	64.599943 
4330.000000	64.543485 
4329.000000	64.477062 
4328.000000	64.406776 
4327.000000	64.338827 
4326.000000	64.278912 
4325.000000	64.231157 
4324.000000	64.198112 
4323.000000	64.180469 
4322.000000	64.177131 
4321.000000	64.185762 
4320.000000	64.203238 
4319.000000	64.226341 
4318.000000	64.251470 
4317.000000	64.276146 
4316.000000	64.298033 
4315.000000	64.316487 
4314.000000	64.331316 
4313.000000	64.344215 
4312.000000	64.357995 
4311.000000	64.376521 
4310.000000	64.403629 
4309.000000	64.442586 
4308.000000	64.495110 
4307.000000	64.560413 
4306.000000	64.634776 
4305.000000	64.712142 
4304.000000	64.785003 
4303.000000	64.845728 
4302.000000	64.888119 
4301.000000	64.908504 
4300.000000	64.906716 
4299.000000	64.886283 
4298.000000	64.853429 
4297.000000	64.815878 
4296.000000	64.781498 
4295.000000	64.757108 
4294.000000	64.747309 
4293.000000	64.754128 
4292.000000	64.776659 
4291.000000	64.812421 
4290.000000	64.857125 
4289.000000	64.905786 
4288.000000	64.953041 
4287.000000	64.993715 
4286.000000	65.023136 
4285.000000	65.037465 
4284.000000	65.034008 
4283.000000	65.011501 
4282.000000	64.970684 
4281.000000	64.914488 
4280.000000	64.847731 
4279.000000	64.776635 
4278.000000	64.708185 
4277.000000	64.649319 
4276.000000	64.605545 
4275.000000	64.580059 
4274.000000	64.573478 
4273.000000	64.584040 
4272.000000	64.607644 
4271.000000	64.639496 
4270.000000	64.674544 
4269.000000	64.709043 
4268.000000	64.740252 
4267.000000	64.767265 
4266.000000	64.790105 
4265.000000	64.809918 
4264.000000	64.827799 
4263.000000	64.844918 
4262.000000	64.861941 
4261.000000	64.879202 
4260.000000	64.896869 
4259.000000	64.914393 
4258.000000	64.930891 
4257.000000	64.944529 
4256.000000	64.953017 
4255.000000	64.953613 
4254.000000	64.943742 
4253.000000	64.921712 
4252.000000	64.887619 
4251.000000	64.843940 
4250.000000	64.795708 
4249.000000	64.750075 
4248.000000	64.714837 
4247.000000	64.696741 
4246.000000	64.699721 
4245.000000	64.724111 
4244.000000	64.766049 
4243.000000	64.817714 
4242.000000	64.869475 
4241.000000	64.911842 
4240.000000	64.937615 
4239.000000	64.943242 
4238.000000	64.929771 
4237.000000	64.901900 
4236.000000	64.866995 
4235.000000	64.833092 
4234.000000	64.806962 
4233.000000	64.792656 
4232.000000	64.790916 
4231.000000	64.799690 
4230.000000	64.814758 
4229.000000	64.831519 
4228.000000	64.845776 
4227.000000	64.854955 
4226.000000	64.857959 
4225.000000	64.855217 
4224.000000	64.848113 
4223.000000	64.838552 
4222.000000	64.828419 
4221.000000	64.819574 
4220.000000	64.813470 
4219.000000	64.811706 
4218.000000	64.816188 
4217.000000	64.828848 
4216.000000	64.851212 
4215.000000	64.883852 
4214.000000	64.925956 
4213.000000	64.974904 
4212.000000	65.026426 
4211.000000	65.074968 
4210.000000	65.114569 
4209.000000	65.140223 
4208.000000	65.149259 
4207.000000	65.141510 
4206.000000	65.119671 
4205.000000	65.088224 
4204.000000	65.052676 
4203.000000	65.017938 
4202.000000	64.987540 
4201.000000	64.962768 
4200.000000	64.942812 
4199.000000	64.925813 
4198.000000	64.909720 
4197.000000	64.893794 
4196.000000	64.879179 
4195.000000	64.868736 
4194.000000	64.866471 
4193.000000	64.875912 
4192.000000	64.898872 
4191.000000	64.934420 
4190.000000	64.978814 
4189.000000	65.026044 
4188.000000	65.068960 
4187.000000	65.101170 
4186.000000	65.117764 
4185.000000	65.116882 
4184.000000	65.099263 
4183.000000	65.067839 
4182.000000	65.026950 
4181.000000	64.981269 
4180.000000	64.935064 
4179.000000	64.891505 
4178.000000	64.852929 
4177.000000	64.821076 
4176.000000	64.797425 
4175.000000	64.783263 
4174.000000	64.779639 
4173.000000	64.787101 
4172.000000	64.805316 
4171.000000	64.832878 
4170.000000	64.867830 
4169.000000	64.907789 
4168.000000	64.950489 
4167.000000	64.993691 
4166.000000	65.035390 
4165.000000	65.073466 
4164.000000	65.105795 
4163.000000	65.130281 
4162.000000	65.145230 
4161.000000	65.149402 
4160.000000	65.142846 
4159.000000	65.126442 
