PE IR       SPECTRUM    SPECTRUM    ASCII       PEDS        1.60        
  -1
BZ6B26~1.ASC
17/04/07
20:02:34.00
17/04/07
20:02:34.00
tln
$BZ1503107-1_t0083$<tbV0>[0.0,5.2,8.0,0.0,27,1,0]
370.000000
64









2002,4.07    
MIRTGS : RIGHTBACK : INTERNAL 2
MIR : ON : INTERNAL 2
OPTKBR

0.200000
8
8.000000
FILLER
RATIO
SPECTRUM
UNLOCKED 256

DOUBLE
64
COMBINED
1
0
0


1.000000
RATIO


1
0
TRUE
51149
0
LEFT NOT FITTED RIGHT NOT FITTED 0
NONE
NONE
15600
12.000000
4.427000
51148
TRUE
1 0 8 72 0 0 0 0 

15798.010000






#HDR
-1
-1
#GR
CM-1
%T
0.00002384185791015625
0.0
5000.000000
-1.000000
4631
8
78.434967
47.362136
#DATA
5000.000000	64.053988 
4999.000000	64.307284 
4998.000000	64.536976 
4997.000000	64.741349 
4996.000000	64.927053 
4995.000000	65.104389 
4994.000000	65.280985 
4993.000000	65.460371 
4992.000000	65.634250 
4991.000000	65.786123 
4990.000000	65.890407 
4989.000000	65.923213 
4988.000000	65.862917 
4987.000000	65.698838 
4986.000000	65.433669 
4985.000000	65.086317 
4984.000000	64.690184 
4983.000000	64.289546 
4982.000000	63.933062 
4981.000000	63.666510 
4980.000000	63.527059 
4979.000000	63.536643 
4978.000000	63.699436 
4977.000000	63.999676 
4976.000000	64.403271 
4975.000000	64.862680 
4974.000000	65.321922 
4973.000000	65.727758 
4972.000000	66.034317 
4971.000000	66.215395 
4970.000000	66.262817 
4969.000000	66.193771 
4968.000000	66.045999 
4967.000000	65.870189 
4966.000000	65.721058 
4965.000000	65.642189 
4964.000000	65.661430 
4963.000000	65.778732 
4962.000000	65.971350 
4961.000000	66.194581 
4960.000000	66.395854 
4959.000000	66.524744 
4958.000000	66.546130 
4957.000000	66.448187 
4956.000000	66.244864 
4955.000000	65.971899 
4954.000000	65.677499 
4953.000000	65.411162 
4952.000000	65.211939 
4951.000000	65.102529 
4950.000000	65.084695 
4949.000000	65.141749 
4948.000000	65.243935 
4947.000000	65.358567 
4946.000000	65.456914 
4945.000000	65.519618 
4944.000000	65.540075 
4943.000000	65.519356 
4942.000000	65.467524 
4941.000000	65.397906 
4940.000000	65.324497 
4939.000000	65.256762 
4938.000000	65.200138 
4937.000000	65.157151 
4936.000000	65.126729 
4935.000000	65.107798 
4934.000000	65.096807 
4933.000000	65.089726 
4932.000000	65.080738 
4931.000000	65.063166 
4930.000000	65.030169 
4929.000000	64.976501 
4928.000000	64.899325 
4927.000000	64.800071 
4926.000000	64.685916 
4925.000000	64.569783 
4924.000000	64.468288 
4923.000000	64.399218 
4922.000000	64.377641 
4921.000000	64.412236 
4920.000000	64.504623 
4919.000000	64.646697 
4918.000000	64.820599 
4917.000000	65.001988 
4916.000000	65.164232 
4915.000000	65.284204 
4914.000000	65.346550 
4913.000000	65.347123 
4912.000000	65.292954 
4911.000000	65.200233 
4910.000000	65.090298 
4909.000000	64.983940 
4908.000000	64.897727 
4907.000000	64.838886 
4906.000000	64.805340 
4905.000000	64.786767 
4904.000000	64.769506 
4903.000000	64.739775 
4902.000000	64.688706 
4901.000000	64.614248 
4900.000000	64.522457 
4899.000000	64.424490 
4898.000000	64.334845 
4897.000000	64.266514 
4896.000000	64.229488 
4895.000000	64.229178 
4894.000000	64.266228 
4893.000000	64.337825 
4892.000000	64.437603 
4891.000000	64.557147 
4890.000000	64.686393 
4889.000000	64.813899 
4888.000000	64.928817 
4887.000000	65.021657 
4886.000000	65.085816 
4885.000000	65.117597 
4884.000000	65.117597 
4883.000000	65.090870 
4882.000000	65.045475 
4881.000000	64.991307 
4880.000000	64.938426 
4879.000000	64.895725 
4878.000000	64.869737 
4877.000000	64.864277 
4876.000000	64.879488 
4875.000000	64.912319 
4874.000000	64.957666 
4873.000000	65.009069 
4872.000000	65.059423 
4871.000000	65.102005 
4870.000000	65.130972 
4869.000000	65.142607 
4868.000000	65.135431 
4867.000000	65.110445 
4866.000000	65.071797 
4865.000000	65.024805 
4864.000000	64.974999 
4863.000000	64.926552 
4862.000000	64.881873 
4861.000000	64.841341 
4860.000000	64.804220 
4859.000000	64.768838 
4858.000000	64.733433 
4857.000000	64.697146 
4856.000000	64.660692 
4855.000000	64.625930 
4854.000000	64.594602 
4853.000000	64.568877 
4852.000000	64.550447 
4851.000000	64.540219 
4850.000000	64.538025 
4849.000000	64.542627 
4848.000000	64.551854 
4847.000000	64.563226 
4846.000000	64.574670 
4845.000000	64.584445 
4844.000000	64.592003 
4843.000000	64.597868 
4842.000000	64.604091 
4841.000000	64.614200 
4840.000000	64.632415 
4839.000000	64.662671 
4838.000000	64.707183 
4837.000000	64.765906 
4836.000000	64.835309 
4835.000000	64.908814 
4834.000000	64.977264 
4833.000000	65.030622 
4832.000000	65.059804 
4831.000000	65.059280 
4830.000000	65.027809 
4829.000000	64.968609 
4828.000000	64.889264 
4827.000000	64.800477 
4826.000000	64.713716 
4825.000000	64.639258 
4824.000000	64.584970 
4823.000000	64.555358 
4822.000000	64.551401 
4821.000000	64.570856 
4820.000000	64.609289 
4819.000000	64.660835 
4818.000000	64.718890 
4817.000000	64.776659 
4816.000000	64.827132 
4815.000000	64.863991 
4814.000000	64.881348 
4813.000000	64.875316 
4812.000000	64.843940 
4811.000000	64.788770 
4810.000000	64.715147 
4809.000000	64.631795 
4808.000000	64.549565 
4807.000000	64.479494 
4806.000000	64.431071 
4805.000000	64.410400 
4804.000000	64.418673 
4803.000000	64.452862 
4802.000000	64.506888 
4801.000000	64.573168 
4800.000000	64.644074 
4799.000000	64.713668 
4798.000000	64.778113 
4797.000000	64.835786 
4796.000000	64.886522 
4795.000000	64.930605 
4794.000000	64.967823 
4793.000000	64.997792 
4792.000000	65.019941 
4791.000000	65.034270 
4790.000000	65.041351 
4789.000000	65.043020 
4788.000000	65.041327 
4787.000000	65.038084 
4786.000000	65.033793 
4785.000000	65.027236 
4784.000000	65.015912 
4783.000000	64.996957 
4782.000000	64.968347 
4781.000000	64.930272 
4780.000000	64.885210 
4779.000000	64.837265 
4778.000000	64.791631 
4777.000000	64.753007 
4776.000000	64.724946 
4775.000000	64.708590 
4774.000000	64.703464 
4773.000000	64.707851 
4772.000000	64.719986 
4771.000000	64.738512 
4770.000000	64.762854 
4769.000000	64.792823 
4768.000000	64.828109 
4767.000000	64.867305 
4766.000000	64.906954 
4765.000000	64.941835 
4764.000000	64.965844 
4763.000000	64.973545 
4762.000000	64.961862 
4761.000000	64.931082 
4760.000000	64.885449 
4759.000000	64.832592 
4758.000000	64.781975 
4757.000000	64.743304 
4756.000000	64.724278 
4755.000000	64.729356 
4754.000000	64.758801 
4753.000000	64.809060 
4752.000000	64.873528 
4751.000000	64.944219 
4750.000000	65.013313 
4749.000000	65.075087 
4748.000000	65.125966 
4747.000000	65.165495 
4746.000000	65.195107 
4745.000000	65.217399 
4744.000000	65.234875 
4743.000000	65.248942 
4742.000000	65.259456 
4741.000000	65.265297 
4740.000000	65.265250 
4739.000000	65.258336 
4738.000000	65.244793 
4737.000000	65.226554 
4736.000000	65.206861 
4735.000000	65.189647 
4734.000000	65.178680 
4733.000000	65.176534 
4732.000000	65.183901 
4731.000000	65.199613 
4730.000000	65.220856 
4729.000000	65.243983 
4728.000000	65.265417 
4727.000000	65.282750 
4726.000000	65.295314 
4725.000000	65.304231 
4724.000000	65.311813 
4723.000000	65.320777 
4722.000000	65.332579 
4721.000000	65.347170 
4720.000000	65.361595 
4719.000000	65.370678 
4718.000000	65.367627 
4717.000000	65.346169 
4716.000000	65.301609 
4715.000000	65.232419 
4714.000000	65.141344 
4713.000000	65.035676 
4712.000000	64.925813 
4711.000000	64.823698 
4710.000000	64.740824 
4709.000000	64.686393 
4708.000000	64.665627 
4707.000000	64.679098 
4706.000000	64.723181 
4705.000000	64.790868 
4704.000000	64.873123 
4703.000000	64.960384 
4702.000000	65.043497 
4701.000000	65.115094 
4700.000000	65.169334 
4699.000000	65.203070 
4698.000000	65.215229 
4697.000000	65.206837 
4696.000000	65.180945 
4695.000000	65.141677 
4694.000000	65.094399 
4693.000000	65.043807 
4692.000000	64.994478 
4691.000000	64.948868 
4690.000000	64.907789 
4689.000000	64.870071 
4688.000000	64.833331 
4687.000000	64.794731 
4686.000000	64.752197 
4685.000000	64.705491 
4684.000000	64.656615 
4683.000000	64.609575 
4682.000000	64.569711 
4681.000000	64.542341 
4680.000000	64.531517 
4679.000000	64.538478 
4678.000000	64.561867 
4677.000000	64.597201 
4676.000000	64.638614 
4675.000000	64.679956 
4674.000000	64.716362 
4673.000000	64.745116 
4672.000000	64.765667 
4671.000000	64.779591 
4670.000000	64.789128 
4669.000000	64.796185 
4668.000000	64.801049 
4667.000000	64.802217 
4666.000000	64.796733 
4665.000000	64.781785 
4664.000000	64.755249 
4663.000000	64.716958 
4662.000000	64.669585 
4661.000000	64.618849 
4660.000000	64.571571 
4659.000000	64.534139 
4658.000000	64.511179 
4657.000000	64.504337 
4656.000000	64.511203 
4655.000000	64.525675 
4654.000000	64.539647 
4653.000000	64.544963 
4652.000000	64.535260 
4651.000000	64.507770 
4650.000000	64.463448 
4649.000000	64.407610 
4648.000000	64.348053 
4647.000000	64.294028 
4646.000000	64.253425 
4645.000000	64.232110 
4644.000000	64.232850 
4643.000000	64.255356 
4642.000000	64.296150 
4641.000000	64.350509 
4640.000000	64.413142 
4639.000000	64.479780 
4638.000000	64.546799 
4637.000000	64.612793 
4636.000000	64.677572 
4635.000000	64.742398 
4634.000000	64.808464 
4633.000000	64.876937 
4632.000000	64.947795 
4631.000000	65.019845 
4630.000000	65.090513 
4629.000000	65.156006 
4628.000000	65.211534 
4627.000000	65.252685 
4626.000000	65.275692 
4625.000000	65.278220 
4624.000000	65.259742 
4623.000000	65.222716 
4622.000000	65.171384 
4621.000000	65.112042 
4620.000000	65.051007 
4619.000000	64.994812 
4618.000000	64.947748 
4617.000000	64.912009 
4616.000000	64.886236 
4615.000000	64.867258 
4614.000000	64.849996 
4613.000000	64.829039 
4612.000000	64.800190 
4611.000000	64.761352 
4610.000000	64.713549 
4609.000000	64.660763 
4608.000000	64.608693 
4607.000000	64.563202 
4606.000000	64.528679 
4605.000000	64.507126 
4604.000000	64.497208 
4603.000000	64.494991 
4602.000000	64.495563 
4601.000000	64.494895 
4600.000000	64.490747 
4599.000000	64.483976 
4598.000000	64.478087 
4597.000000	64.478564 
4596.000000	64.490389 
4595.000000	64.516878 
4594.000000	64.558339 
4593.000000	64.611744 
4592.000000	64.671468 
4591.000000	64.730548 
4590.000000	64.782404 
4589.000000	64.822077 
4588.000000	64.847683 
4587.000000	64.859819 
4586.000000	64.860868 
4585.000000	64.854168 
4584.000000	64.842677 
4583.000000	64.828944 
4582.000000	64.814567 
4581.000000	64.800667 
4580.000000	64.788174 
4579.000000	64.777803 
4578.000000	64.770245 
4577.000000	64.765954 
4576.000000	64.765048 
4575.000000	64.766907 
4574.000000	64.770483 
4573.000000	64.774560 
4572.000000	64.778113 
4571.000000	64.780688 
4570.000000	64.782571 
4569.000000	64.784693 
4568.000000	64.788365 
4567.000000	64.795112 
4566.000000	64.805865 
4565.000000	64.820790 
4564.000000	64.838457 
4563.000000	64.856672 
4562.000000	64.871859 
4561.000000	64.880084 
4560.000000	64.877414 
4559.000000	64.861202 
4558.000000	64.830088 
4557.000000	64.784431 
4556.000000	64.726614 
4555.000000	64.661049 
4554.000000	64.593768 
4553.000000	64.531421 
4552.000000	64.481067 
4551.000000	64.448761 
4550.000000	64.438772 
4549.000000	64.452600 
4548.000000	64.488148 
4547.000000	64.539980 
4546.000000	64.599967 
4545.000000	64.658808 
4544.000000	64.707708 
4543.000000	64.740228 
4542.000000	64.753293 
4541.000000	64.747405 
4540.000000	64.726376 
4539.000000	64.695572 
4538.000000	64.660930 
4537.000000	64.626812 
4536.000000	64.595580 
4535.000000	64.566993 
4534.000000	64.539289 
4533.000000	64.510107 
4532.000000	64.478254 
4531.000000	64.443874 
4530.000000	64.409112 
4529.000000	64.376974 
4528.000000	64.350128 
4527.000000	64.330601 
4526.000000	64.318799 
4525.000000	64.314246 
4524.000000	64.315795 
4523.000000	64.323115 
4522.000000	64.336800 
4521.000000	64.357328 
4520.000000	64.384818 
4519.000000	64.418029 
4518.000000	64.454317 
4517.000000	64.489841 
4516.000000	64.520287 
4515.000000	64.542198 
4514.000000	64.553403 
4513.000000	64.554333 
4512.000000	64.546704 
4511.000000	64.533257 
4510.000000	64.516401 
4509.000000	64.498066 
4508.000000	64.478850 
4507.000000	64.457798 
4506.000000	64.433598 
4505.000000	64.405393 
4504.000000	64.374327 
4503.000000	64.343523 
4502.000000	64.318799 
4501.000000	64.307332 
4500.000000	64.316034 
4499.000000	64.349484 
4498.000000	64.408612 
4497.000000	64.489722 
4496.000000	64.585018 
4495.000000	64.683914 
4494.000000	64.775371 
4493.000000	64.850234 
4492.000000	64.903283 
4491.000000	64.933371 
4490.000000	64.943170 
4489.000000	64.936828 
4488.000000	64.919829 
4487.000000	64.895248 
4486.000000	64.863514 
4485.000000	64.821314 
4484.000000	64.763593 
4483.000000	64.685463 
4482.000000	64.585733 
4481.000000	64.467430 
4480.000000	64.339590 
4479.000000	64.213919 
4478.000000	64.101576 
4477.000000	64.011597 
4476.000000	63.948273 
4475.000000	63.911700 
4474.000000	63.898158 
4473.000000	63.901448 
4472.000000	63.915348 
4471.000000	63.931083 
4470.000000	63.938879 
4469.000000	63.931202 
4468.000000	63.905405 
4467.000000	63.863039 
4466.000000	63.811087 
4465.000000	63.767886 
4464.000000	63.756370 
4463.000000	63.792729 
4462.000000	63.882184 
4461.000000	64.020442 
4460.000000	64.190173 
4459.000000	64.362359 
4458.000000	64.505434 
4457.000000	64.587402 
4456.000000	64.592099 
4455.000000	64.529371 
4454.000000	64.428281 
4453.000000	64.328932 
4452.000000	64.270877 
4451.000000	64.281392 
4450.000000	64.368224 
4449.000000	64.514899 
4448.000000	64.693641 
4447.000000	64.874672 
4446.000000	65.039968 
4445.000000	65.191006 
4444.000000	65.346598 
4443.000000	65.540337 
4442.000000	65.810775 
4441.000000	66.196584 
4440.000000	66.739726 
4439.000000	67.478466 
4438.000000	68.447327 
4437.000000	69.658136 
4436.000000	71.104741 
4435.000000	72.729134 
4434.000000	74.433159 
4433.000000	76.055741 
4432.000000	77.400255 
4431.000000	78.254079 
4430.000000	78.434967 
4429.000000	77.835559 
4428.000000	76.465106 
4427.000000	74.455904 
4426.000000	72.060894 
4425.000000	69.594001 
4424.000000	67.375826 
4423.000000	65.665054 
4422.000000	64.610958 
4421.000000	64.241790 
4420.000000	64.478683 
4419.000000	65.164875 
4418.000000	66.114497 
4417.000000	67.139077 
4416.000000	68.082261 
4415.000000	68.823528 
4414.000000	69.287228 
4413.000000	69.447517 
4412.000000	69.320201 
4411.000000	68.955111 
4410.000000	68.417501 
4409.000000	67.778611 
4408.000000	67.098236 
4407.000000	66.421985 
4406.000000	65.775871 
4405.000000	65.184140 
4404.000000	64.661550 
4403.000000	64.224100 
4402.000000	63.881874 
4401.000000	63.637733 
4400.000000	63.485884 
4399.000000	63.400793 
4398.000000	63.354992 
4397.000000	63.318014 
4396.000000	63.272380 
4395.000000	63.216280 
4394.000000	63.160538 
4393.000000	63.117885 
4392.000000	63.105630 
4391.000000	63.138103 
4390.000000	63.218855 
4389.000000	63.337659 
4388.000000	63.477206 
4387.000000	63.616776 
4386.000000	63.738656 
4385.000000	63.831543 
4384.000000	63.889551 
4383.000000	63.913083 
4382.000000	63.908219 
4381.000000	63.884329 
4380.000000	63.850522 
4379.000000	63.814663 
4378.000000	63.780808 
4377.000000	63.751220 
4376.000000	63.731074 
4375.000000	63.725662 
4374.000000	63.738965 
4373.000000	63.774347 
4372.000000	63.834595 
4371.000000	63.919305 
4370.000000	64.022874 
4369.000000	64.136815 
4368.000000	64.251232 
4367.000000	64.356017 
4366.000000	64.442491 
4365.000000	64.505243 
4364.000000	64.542889 
4363.000000	64.558362 
4362.000000	64.558076 
4361.000000	64.550328 
4360.000000	64.543247 
4359.000000	64.543223 
4358.000000	64.553403 
4357.000000	64.573478 
4356.000000	64.599704 
4355.000000	64.626908 
4354.000000	64.649415 
4353.000000	64.662432 
4352.000000	64.663505 
4351.000000	64.652991 
4350.000000	64.634418 
4349.000000	64.613056 
4348.000000	64.595293 
4347.000000	64.586830 
4346.000000	64.591765 
4345.000000	64.611792 
4344.000000	64.645743 
4343.000000	64.690804 
4342.000000	64.742040 
4341.000000	64.793992 
4340.000000	64.840912 
4339.000000	64.877796 
4338.000000	64.900350 
4337.000000	64.905238 
4336.000000	64.890623 
4335.000000	64.856791 
4334.000000	64.805626 
4333.000000	64.740657 
4332.000000	64.667367 
4331.000000	64.592504 
4330.000000	64.523482 
4329.000000	64.467310 
4328.000000	64.429712 
4327.000000	64.414143 
4326.000000	64.421486 
4325.000000	64.449620 
4324.000000	64.493441 
4323.000000	64.545917 
4322.000000	64.598798 
4321.000000	64.644575 
4320.000000	64.676904 
4319.000000	64.692187 
4318.000000	64.689469 
4317.000000	64.670801 
4316.000000	64.640378 
4315.000000	64.603734 
4314.000000	64.566564 
4313.000000	64.533519 
4312.000000	64.507675 
4311.000000	64.489674 
4310.000000	64.478492 
4309.000000	64.471650 
4308.000000	64.466238 
4307.000000	64.459776 
4306.000000	64.451003 
4305.000000	64.439892 
4304.000000	64.428210 
4303.000000	64.418816 
4302.000000	64.415764 
4301.000000	64.423084 
4300.000000	64.444422 
4299.000000	64.482378 
4298.000000	64.537453 
4297.000000	64.607548 
4296.000000	64.687752 
4295.000000	64.770984 
4294.000000	64.849090 
4293.000000	64.914011 
4292.000000	64.959168 
4291.000000	64.980840 
4290.000000	64.978623 
4289.000000	64.955902 
4288.000000	64.918780 
4287.000000	64.874911 
4286.000000	64.831924 
4285.000000	64.796185 
4284.000000	64.771866 
4283.000000	64.760684 
4282.000000	64.762163 
4281.000000	64.774608 
4280.000000	64.795756 
4279.000000	64.823508 
4278.000000	64.855790 
4277.000000	64.890813 
4276.000000	64.926457 
4275.000000	64.960718 
4274.000000	64.991450 
4273.000000	65.016722 
4272.000000	65.035414 
4271.000000	65.046811 
4270.000000	65.051221 
4269.000000	65.049099 
4268.000000	65.041279 
4267.000000	65.028500 
4266.000000	65.012025 
4265.000000	64.993047 
4264.000000	64.972686 
4263.000000	64.952182 
4262.000000	64.933180 
4261.000000	64.917087 
4260.000000	64.904713 
4259.000000	64.896106 
4258.000000	64.890551 
4257.000000	64.886498 
4256.000000	64.881968 
4255.000000	64.874982 
4254.000000	64.864182 
4253.000000	64.849519 
4252.000000	64.832425 
4251.000000	64.815640 
4250.000000	64.802718 
4249.000000	64.796996 
4248.000000	64.800858 
4247.000000	64.815497 
4246.000000	64.840030 
4245.000000	64.871764 
4244.000000	64.906120 
4243.000000	64.937376 
4242.000000	64.959311 
4241.000000	64.966297 
4240.000000	64.954352 
4239.000000	64.922213 
4238.000000	64.871406 
4237.000000	64.806437 
4236.000000	64.733862 
4235.000000	64.661073 
4234.000000	64.595413 
4233.000000	64.542818 
4232.000000	64.507627 
4231.000000	64.492058 
4230.000000	64.496207 
4229.000000	64.518451 
4228.000000	64.555120 
4227.000000	64.600968 
4226.000000	64.649415 
4225.000000	64.693665 
4224.000000	64.727210 
4223.000000	64.745211 
4222.000000	64.745235 
4221.000000	64.728093 
4220.000000	64.697742 
4219.000000	64.660549 
4218.000000	64.624476 
4217.000000	64.596748 
4216.000000	64.582610 
4215.000000	64.583873 
4214.000000	64.599132 
4213.000000	64.623832 
4212.000000	64.652013 
4211.000000	64.677357 
4210.000000	64.695191 
4209.000000	64.703011 
4208.000000	64.700698 
4207.000000	64.690542 
4206.000000	64.675807 
4205.000000	64.660525 
4204.000000	64.648318 
4203.000000	64.642310 
4202.000000	64.644694 
4201.000000	64.656162 
4200.000000	64.675831 
4199.000000	64.701437 
4198.000000	64.729857 
4197.000000	64.757442 
4196.000000	64.780879 
4195.000000	64.797425 
4194.000000	64.805912 
4193.000000	64.807081 
4192.000000	64.803767 
4191.000000	64.799976 
4190.000000	64.800429 
4189.000000	64.809751 
4188.000000	64.831042 
4187.000000	64.865517 
4186.000000	64.911508 
4185.000000	64.964866 
4184.000000	65.019202 
4183.000000	65.067243 
4182.000000	65.102219 
4181.000000	65.119218 
4180.000000	65.116477 
4179.000000	65.095305 
4178.000000	65.060424 
4177.000000	65.019130 
4176.000000	64.979958 
4175.000000	64.950728 
4174.000000	64.937686 
4173.000000	64.944219 
4172.000000	64.970207 
4171.000000	65.012097 
4170.000000	65.063095 
4169.000000	65.114665 
4168.000000	65.157794 
4167.000000	65.185117 
4166.000000	65.191960 
4165.000000	65.177583 
4164.000000	65.145158 
4163.000000	65.100789 
4162.000000	65.052199 
4161.000000	65.006589 
4160.000000	64.969658 
4159.000000	64.943575 
