PE IR       SPECTRUM    SPECTRUM    ASCII       PEDS        1.60        
  -1
BZ61B1~1.ASC
17/04/07
14:44:13.00
17/04/07
14:44:13.00
tln
$BZ1503107-1_t0019$<tbV0>[-5.2,-10.4,8.0,0.0,27,1,0]
370.000000
64









2002,4.07    
MIRTGS : RIGHTBACK : INTERNAL 2
MIR : ON : INTERNAL 2
OPTKBR

0.200000
8
8.000000
FILLER
RATIO
SPECTRUM
UNLOCKED 256

DOUBLE
64
COMBINED
1
0
0


1.000000
RATIO


1
0
TRUE
51149
0
LEFT NOT FITTED RIGHT NOT FITTED 0
NONE
NONE
15600
12.000000
4.427000
51148
TRUE
1 0 8 72 0 0 0 0 

15798.010000






#HDR
-1
-1
#GR
CM-1
%T
0.00002384185791015625
0.0
5000.000000
-1.000000
4631
8
73.368644
50.844573
#DATA
5000.000000	64.169907 
4999.000000	63.969755 
4998.000000	63.892769 
4997.000000	63.930320 
4996.000000	64.058160 
4995.000000	64.242601 
4994.000000	64.450550 
4993.000000	64.654469 
4992.000000	64.838194 
4991.000000	64.994096 
4990.000000	65.124392 
4989.000000	65.233159 
4988.000000	65.327191 
4987.000000	65.411400 
4986.000000	65.488338 
4985.000000	65.557622 
4984.000000	65.617203 
4983.000000	65.664696 
4982.000000	65.696001 
4981.000000	65.706610 
4980.000000	65.693593 
4979.000000	65.656733 
4978.000000	65.597724 
4977.000000	65.520954 
4976.000000	65.434718 
4975.000000	65.349006 
4974.000000	65.275406 
4973.000000	65.222525 
4972.000000	65.193915 
4971.000000	65.186333 
4970.000000	65.191674 
4969.000000	65.197753 
4968.000000	65.190720 
4967.000000	65.159535 
4966.000000	65.099430 
4965.000000	65.012359 
4964.000000	64.906573 
4963.000000	64.793658 
4962.000000	64.684343 
4961.000000	64.587712 
4960.000000	64.509582 
4959.000000	64.451599 
4958.000000	64.411687 
4957.000000	64.386916 
4956.000000	64.375281 
4955.000000	64.376163 
4954.000000	64.391088 
4953.000000	64.422774 
4952.000000	64.474248 
4951.000000	64.546322 
4950.000000	64.637756 
4949.000000	64.744281 
4948.000000	64.859700 
4947.000000	64.977359 
4946.000000	65.090394 
4945.000000	65.193557 
4944.000000	65.282368 
4943.000000	65.354537 
4942.000000	65.407919 
4941.000000	65.440845 
4940.000000	65.450716 
4939.000000	65.436458 
4938.000000	65.396356 
4937.000000	65.329909 
4936.000000	65.237951 
4935.000000	65.124535 
4934.000000	64.996027 
4933.000000	64.861249 
4932.000000	64.730453 
4931.000000	64.614415 
4930.000000	64.522290 
4929.000000	64.460086 
4928.000000	64.430284 
4927.000000	64.431619 
4926.000000	64.460015 
4925.000000	64.509344 
4924.000000	64.572191 
4923.000000	64.640879 
4922.000000	64.708065 
4921.000000	64.767694 
4920.000000	64.813446 
4919.000000	64.841055 
4918.000000	64.848136 
4917.000000	64.835548 
4916.000000	64.806604 
4915.000000	64.768052 
4914.000000	64.729237 
4913.000000	64.700460 
4912.000000	64.691305 
4911.000000	64.708089 
4910.000000	64.753079 
4909.000000	64.823150 
4908.000000	64.910578 
4907.000000	65.004563 
4906.000000	65.093708 
4905.000000	65.168213 
4904.000000	65.221691 
4903.000000	65.251779 
4902.000000	65.259695 
4901.000000	65.249514 
4900.000000	65.226697 
4899.000000	65.196180 
4898.000000	65.160965 
4897.000000	65.123128 
4896.000000	65.082931 
4895.000000	65.039515 
4894.000000	64.991474 
4893.000000	64.938282 
4892.000000	64.880943 
4891.000000	64.822220 
4890.000000	64.766645 
4889.000000	64.719176 
4888.000000	64.684844 
4887.000000	64.667630 
4886.000000	64.669108 
4885.000000	64.687538 
4884.000000	64.717864 
4883.000000	64.752650 
4882.000000	64.782834 
4881.000000	64.799714 
4880.000000	64.796423 
4879.000000	64.768934 
4878.000000	64.717841 
4877.000000	64.648103 
4876.000000	64.568471 
4875.000000	64.489841 
4874.000000	64.423608 
4873.000000	64.379811 
4872.000000	64.365816 
4871.000000	64.385437 
4870.000000	64.438629 
4869.000000	64.521670 
4868.000000	64.628124 
4867.000000	64.749693 
4866.000000	64.876985 
4865.000000	65.000247 
4864.000000	65.110254 
4863.000000	65.198254 
4862.000000	65.256977 
4861.000000	65.280890 
4860.000000	65.267181 
4859.000000	65.216755 
4858.000000	65.134811 
4857.000000	65.031242 
4856.000000	64.919734 
4855.000000	64.816641 
4854.000000	64.738655 
4853.000000	64.700484 
4852.000000	64.712595 
4851.000000	64.778518 
4850.000000	64.893722 
4849.000000	65.046525 
4848.000000	65.219926 
4847.000000	65.394616 
4846.000000	65.552306 
4845.000000	65.678310 
4844.000000	65.763401 
4843.000000	65.805530 
4842.000000	65.808153 
4841.000000	65.778851 
4840.000000	65.725874 
4839.000000	65.657162 
4838.000000	65.577602 
4837.000000	65.490007 
4836.000000	65.395212 
4835.000000	65.294981 
4834.000000	65.192103 
4833.000000	65.092849 
4832.000000	65.004587 
4831.000000	64.935994 
4830.000000	64.892530 
4829.000000	64.875006 
4828.000000	64.877414 
4827.000000	64.887356 
4826.000000	64.889264 
4825.000000	64.867806 
4824.000000	64.814019 
4823.000000	64.727878 
4822.000000	64.621376 
4821.000000	64.515852 
4820.000000	64.437747 
4819.000000	64.411211 
4818.000000	64.450836 
4817.000000	64.556789 
4816.000000	64.712429 
4815.000000	64.888644 
4814.000000	65.051293 
4813.000000	65.170764 
4812.000000	65.228247 
4811.000000	65.222120 
4810.000000	65.167832 
4809.000000	65.093946 
4808.000000	65.033364 
4807.000000	65.014719 
4806.000000	65.054750 
4805.000000	65.153694 
4804.000000	65.297484 
4803.000000	65.460038 
4802.000000	65.612292 
4801.000000	65.728092 
4800.000000	65.791797 
4799.000000	65.799927 
4798.000000	65.760993 
4797.000000	65.691900 
4796.000000	65.612244 
4795.000000	65.540623 
4794.000000	65.489745 
4793.000000	65.466356 
4792.000000	65.470099 
4791.000000	65.494561 
4790.000000	65.528535 
4789.000000	65.559482 
4788.000000	65.575218 
4787.000000	65.564751 
4786.000000	65.520906 
4785.000000	65.440273 
4784.000000	65.325498 
4783.000000	65.185022 
4782.000000	65.032529 
4781.000000	64.884638 
4780.000000	64.757657 
4779.000000	64.665770 
4778.000000	64.616107 
4777.000000	64.607882 
4776.000000	64.631199 
4775.000000	64.669394 
4774.000000	64.702773 
4773.000000	64.712643 
4772.000000	64.686989 
4771.000000	64.622807 
4770.000000	64.527916 
4769.000000	64.418101 
4768.000000	64.316487 
4767.000000	64.247441 
4766.000000	64.231896 
4765.000000	64.281868 
4764.000000	64.397788 
4763.000000	64.567685 
4762.000000	64.770174 
4761.000000	64.978575 
4760.000000	65.166163 
4759.000000	65.311169 
4758.000000	65.400671 
4757.000000	65.431952 
4756.000000	65.411257 
4755.000000	65.351343 
4754.000000	65.267825 
4753.000000	65.175461 
4752.000000	65.086174 
4751.000000	65.007042 
4750.000000	64.942574 
4749.000000	64.893293 
4748.000000	64.858794 
4747.000000	64.837121 
4746.000000	64.827132 
4745.000000	64.826059 
4744.000000	64.829421 
4743.000000	64.831089 
4742.000000	64.823770 
4741.000000	64.801764 
4740.000000	64.762234 
4739.000000	64.707088 
4738.000000	64.642643 
4737.000000	64.578938 
4736.000000	64.527201 
4735.000000	64.497160 
4734.000000	64.494299 
4733.000000	64.518880 
4732.000000	64.565372 
4731.000000	64.624214 
4730.000000	64.683151 
4729.000000	64.730763 
4728.000000	64.757800 
4727.000000	64.758229 
4726.000000	64.730572 
4725.000000	64.677000 
4724.000000	64.603900 
4723.000000	64.519929 
4722.000000	64.435911 
4721.000000	64.363026 
4720.000000	64.311790 
4719.000000	64.291238 
4718.000000	64.305520 
4717.000000	64.353251 
4716.000000	64.426565 
4715.000000	64.512610 
4714.000000	64.595580 
4713.000000	64.660215 
4712.000000	64.695191 
4711.000000	64.695978 
4710.000000	64.665365 
4709.000000	64.612913 
4708.000000	64.552426 
4707.000000	64.498496 
4706.000000	64.463233 
4705.000000	64.453601 
4704.000000	64.470863 
4703.000000	64.510560 
4702.000000	64.564585 
4701.000000	64.623761 
4700.000000	64.680290 
4699.000000	64.729595 
4698.000000	64.770102 
4697.000000	64.803552 
4696.000000	64.832663 
4695.000000	64.860486 
4694.000000	64.888525 
4693.000000	64.916634 
4692.000000	64.943456 
4691.000000	64.966464 
4690.000000	64.983201 
4689.000000	64.992165 
4688.000000	64.993596 
4687.000000	64.989399 
4686.000000	64.982724 
4685.000000	64.976859 
4684.000000	64.974331 
4683.000000	64.976406 
4682.000000	64.982557 
4681.000000	64.990401 
4680.000000	64.996600 
4679.000000	64.997720 
4678.000000	64.991664 
4677.000000	64.978337 
4676.000000	64.960193 
4675.000000	64.941430 
4674.000000	64.927697 
4673.000000	64.924216 
4672.000000	64.934992 
4671.000000	64.961576 
4670.000000	65.002512 
4669.000000	65.053224 
4668.000000	65.107417 
4667.000000	65.158486 
4666.000000	65.200662 
4665.000000	65.230298 
4664.000000	65.245914 
4663.000000	65.248513 
4662.000000	65.240216 
4661.000000	65.223360 
4660.000000	65.199375 
4659.000000	65.168571 
4658.000000	65.130138 
4657.000000	65.083408 
4656.000000	65.029168 
4655.000000	64.970564 
4654.000000	64.913511 
4653.000000	64.865827 
4652.000000	64.835572 
4651.000000	64.829111 
4650.000000	64.848613 
4649.000000	64.891457 
4648.000000	64.949965 
4647.000000	65.013146 
4646.000000	65.068674 
4645.000000	65.106177 
4644.000000	65.119481 
4643.000000	65.108227 
4642.000000	65.077066 
4641.000000	65.034937 
4640.000000	64.992189 
4639.000000	64.958071 
4638.000000	64.938426 
4637.000000	64.934992 
4636.000000	64.945578 
4635.000000	64.965009 
4634.000000	64.987349 
4633.000000	65.006613 
4632.000000	65.018510 
4631.000000	65.020585 
4630.000000	65.012621 
4629.000000	64.995622 
4628.000000	64.971661 
4627.000000	64.943218 
4626.000000	64.912867 
4625.000000	64.882874 
4624.000000	64.854741 
4623.000000	64.830064 
4622.000000	64.809656 
4621.000000	64.793395 
4620.000000	64.780020 
4619.000000	64.767742 
4618.000000	64.754128 
4617.000000	64.736533 
4616.000000	64.712882 
4615.000000	64.681982 
4614.000000	64.644527 
4613.000000	64.602947 
4612.000000	64.561533 
4611.000000	64.524936 
4610.000000	64.498591 
4609.000000	64.487266 
4608.000000	64.494752 
4607.000000	64.522695 
4606.000000	64.570736 
4605.000000	64.636063 
4604.000000	64.713692 
4603.000000	64.797091 
4602.000000	64.879012 
4601.000000	64.952731 
4600.000000	65.012574 
4599.000000	65.055179 
4598.000000	65.080022 
4597.000000	65.089535 
4596.000000	65.088891 
4595.000000	65.084886 
4594.000000	65.084719 
4593.000000	65.093874 
4592.000000	65.116167 
4591.000000	65.151214 
4590.000000	65.195512 
4589.000000	65.241885 
4588.000000	65.282201 
4587.000000	65.307807 
4586.000000	65.312027 
4585.000000	65.291261 
4584.000000	65.245985 
4583.000000	65.180635 
4582.000000	65.102601 
4581.000000	65.020751 
4580.000000	64.943575 
4579.000000	64.877223 
4578.000000	64.824676 
4577.000000	64.785456 
4576.000000	64.756369 
4575.000000	64.733052 
4574.000000	64.711499 
4573.000000	64.688897 
4572.000000	64.664673 
4571.000000	64.640188 
4570.000000	64.618587 
4569.000000	64.602589 
4568.000000	64.594721 
4567.000000	64.595556 
4566.000000	64.604640 
4565.000000	64.620113 
4564.000000	64.639782 
4563.000000	64.661979 
4562.000000	64.685392 
4561.000000	64.709162 
4560.000000	64.732336 
4559.000000	64.753746 
4558.000000	64.771556 
4557.000000	64.783024 
4556.000000	64.785885 
4555.000000	64.779186 
4554.000000	64.763927 
4553.000000	64.742970 
4552.000000	64.721059 
4551.000000	64.703440 
4550.000000	64.694547 
4549.000000	64.696860 
4548.000000	64.709210 
4547.000000	64.727592 
4546.000000	64.746475 
4545.000000	64.761042 
4544.000000	64.769124 
4543.000000	64.771890 
4542.000000	64.774775 
4541.000000	64.784526 
4540.000000	64.806365 
4539.000000	64.841413 
4538.000000	64.885759 
4537.000000	64.930748 
4536.000000	64.964842 
4535.000000	64.976525 
4534.000000	64.958691 
4533.000000	64.908909 
4532.000000	64.830636 
4531.000000	64.731478 
4530.000000	64.621615 
4529.000000	64.510774 
4528.000000	64.406156 
4527.000000	64.312124 
4526.000000	64.230728 
4525.000000	64.162349 
4524.000000	64.107012 
4523.000000	64.066576 
4522.000000	64.045023 
4521.000000	64.045381 
4520.000000	64.069604 
4519.000000	64.115977 
4518.000000	64.181160 
4517.000000	64.260482 
4516.000000	64.349913 
4515.000000	64.448237 
4514.000000	64.555525 
4513.000000	64.669585 
4512.000000	64.787006 
4511.000000	64.902019 
4510.000000	65.008401 
4509.000000	65.101432 
4508.000000	65.177989 
4507.000000	65.237927 
4506.000000	65.282773 
4505.000000	65.316176 
4504.000000	65.341830 
4503.000000	65.360784 
4502.000000	65.377306 
4501.000000	65.398907 
4500.000000	65.438413 
4499.000000	65.511608 
4498.000000	65.636420 
4497.000000	65.827918 
4496.000000	66.089868 
4495.000000	66.411375 
4494.000000	66.763663 
4493.000000	67.107319 
4492.000000	67.396855 
4491.000000	67.597341 
4490.000000	67.698860 
4489.000000	67.720484 
4488.000000	67.711353 
4487.000000	67.731213 
4486.000000	67.837381 
4485.000000	68.058180 
4484.000000	68.385648 
4483.000000	68.768167 
4482.000000	69.126510 
4481.000000	69.368577 
4480.000000	69.421100 
4479.000000	69.241976 
4478.000000	68.836569 
4477.000000	68.251705 
4476.000000	67.565822 
4475.000000	66.866779 
4474.000000	66.231083 
4473.000000	65.708470 
4472.000000	65.315628 
4471.000000	65.034699 
4470.000000	64.824390 
4469.000000	64.639925 
4468.000000	64.447760 
4467.000000	64.229202 
4466.000000	63.985514 
4465.000000	63.724327 
4464.000000	63.459777 
4463.000000	63.210582 
4462.000000	62.996292 
4461.000000	62.817788 
4460.000000	62.671947 
4459.000000	62.560462 
4458.000000	62.491226 
4457.000000	62.477135 
4456.000000	62.533712 
4455.000000	62.668919 
4454.000000	62.881469 
4453.000000	63.160467 
4452.000000	63.479423 
4451.000000	63.791584 
4450.000000	64.051771 
4449.000000	64.220476 
4448.000000	64.290642 
4447.000000	64.286994 
4446.000000	64.280271 
4445.000000	64.368987 
4444.000000	64.665770 
4443.000000	65.259861 
4442.000000	66.194486 
4441.000000	67.431950 
4440.000000	68.838882 
4439.000000	70.187067 
4438.000000	71.192002 
4437.000000	71.562647 
4436.000000	71.054339 
4435.000000	69.545650 
4434.000000	67.065668 
4433.000000	63.835382 
4432.000000	60.228991 
4431.000000	56.734418 
4430.000000	53.857636 
4429.000000	52.031421 
4428.000000	51.531577 
4427.000000	52.419114 
4426.000000	54.530096 
4425.000000	57.512331 
4424.000000	60.900449 
4423.000000	64.211630 
4422.000000	67.026543 
4421.000000	69.071269 
4420.000000	70.235633 
4419.000000	70.575976 
4418.000000	70.259881 
4417.000000	69.522309 
4416.000000	68.594694 
4415.000000	67.669272 
4414.000000	66.864848 
4413.000000	66.233110 
4412.000000	65.764713 
4411.000000	65.427684 
4410.000000	65.182638 
4409.000000	65.000462 
4408.000000	64.870524 
4407.000000	64.785504 
4406.000000	64.750170 
4405.000000	64.762759 
4404.000000	64.823293 
4403.000000	64.924192 
4402.000000	65.056204 
4401.000000	65.202546 
4400.000000	65.347981 
4399.000000	65.486025 
4398.000000	65.611958 
4397.000000	65.717935 
4396.000000	65.798115 
4395.000000	65.848517 
4394.000000	65.867710 
4393.000000	65.859937 
4392.000000	65.826964 
4391.000000	65.765810 
4390.000000	65.679407 
4389.000000	65.578198 
4388.000000	65.470409 
4387.000000	65.361475 
4386.000000	65.255260 
4385.000000	65.153241 
4384.000000	65.058350 
4383.000000	64.973759 
4382.000000	64.898777 
4381.000000	64.831328 
4380.000000	64.769411 
4379.000000	64.712452 
4378.000000	64.660143 
4377.000000	64.614748 
4376.000000	64.579701 
4375.000000	64.560008 
4374.000000	64.559459 
4373.000000	64.580726 
4372.000000	64.622759 
4371.000000	64.682054 
4370.000000	64.752960 
4369.000000	64.828586 
4368.000000	64.901709 
4367.000000	64.966249 
4366.000000	65.018296 
4365.000000	65.056061 
4364.000000	65.079569 
4363.000000	65.091013 
4362.000000	65.093564 
4361.000000	65.091323 
4360.000000	65.088438 
4359.000000	65.088605 
4358.000000	65.094232 
4357.000000	65.106892 
4356.000000	65.126705 
4355.000000	65.151929 
4354.000000	65.179395 
4353.000000	65.205478 
4352.000000	65.226459 
4351.000000	65.239238 
4350.000000	65.241813 
4349.000000	65.234208 
4348.000000	65.217804 
4347.000000	65.194845 
4346.000000	65.167975 
4345.000000	65.139985 
4344.000000	65.113353 
4343.000000	65.090036 
4342.000000	65.071368 
4341.000000	65.058517 
4340.000000	65.051960 
4339.000000	65.051722 
4338.000000	65.056562 
4337.000000	65.064167 
4336.000000	65.071368 
4335.000000	65.074849 
4334.000000	65.071487 
4333.000000	65.059256 
4332.000000	65.038323 
4331.000000	65.011096 
4330.000000	64.981603 
4329.000000	64.954686 
4328.000000	64.934539 
4327.000000	64.923930 
4326.000000	64.922809 
4325.000000	64.929103 
4324.000000	64.939403 
4323.000000	64.950394 
4322.000000	64.959907 
4321.000000	64.967870 
4320.000000	64.976310 
4319.000000	64.988660 
4318.000000	65.008044 
4317.000000	65.036416 
4316.000000	65.073347 
4315.000000	65.116071 
4314.000000	65.159773 
4313.000000	65.199112 
4312.000000	65.229606 
4311.000000	65.248847 
4310.000000	65.257310 
4309.000000	65.257453 
4308.000000	65.252757 
4307.000000	65.246367 
4306.000000	65.240097 
4305.000000	65.233230 
4304.000000	65.222978 
4303.000000	65.205812 
4302.000000	65.178656 
4301.000000	65.140485 
4300.000000	65.093040 
4299.000000	65.041065 
4298.000000	64.991211 
4297.000000	64.950418 
4296.000000	64.923977 
4295.000000	64.914131 
4294.000000	64.919495 
4293.000000	64.935588 
4292.000000	64.955663 
4291.000000	64.972448 
4290.000000	64.979624 
4289.000000	64.973545 
4288.000000	64.953780 
4287.000000	64.922285 
4286.000000	64.883899 
4285.000000	64.844632 
4284.000000	64.811015 
4283.000000	64.788579 
4282.000000	64.781451 
4281.000000	64.791607 
4280.000000	64.818787 
4279.000000	64.860725 
4278.000000	64.913415 
4277.000000	64.971542 
4276.000000	65.029191 
4275.000000	65.080809 
4274.000000	65.121698 
4273.000000	65.148639 
4272.000000	65.160679 
4271.000000	65.158319 
4270.000000	65.143561 
4269.000000	65.118646 
4268.000000	65.086460 
4267.000000	65.048933 
4266.000000	65.007352 
4265.000000	64.961862 
4264.000000	64.912867 
4263.000000	64.860677 
4262.000000	64.806032 
4261.000000	64.750814 
4260.000000	64.697742 
4259.000000	64.650940 
4258.000000	64.614987 
4257.000000	64.594364 
4256.000000	64.592194 
4255.000000	64.609575 
4254.000000	64.645051 
4253.000000	64.694404 
4252.000000	64.751338 
4251.000000	64.808583 
4250.000000	64.859342 
4249.000000	64.898228 
4248.000000	64.922666 
4247.000000	64.933276 
4246.000000	64.933562 
4245.000000	64.928770 
4244.000000	64.924621 
4243.000000	64.926338 
4242.000000	64.937257 
4241.000000	64.958739 
4240.000000	64.989614 
4239.000000	65.027284 
4238.000000	65.067887 
4237.000000	65.107965 
4236.000000	65.144038 
4235.000000	65.173316 
4234.000000	65.193486 
4233.000000	65.203332 
4232.000000	65.202212 
4231.000000	65.190076 
4230.000000	65.167856 
4229.000000	65.137791 
4228.000000	65.103077 
4227.000000	65.067768 
4226.000000	65.035796 
4225.000000	65.010261 
4224.000000	64.992499 
4223.000000	64.981675 
4222.000000	64.974617 
4221.000000	64.966678 
4220.000000	64.953398 
4219.000000	64.931917 
4218.000000	64.901304 
4217.000000	64.863586 
4216.000000	64.823555 
4215.000000	64.787840 
4214.000000	64.762568 
4213.000000	64.752626 
4212.000000	64.759922 
4211.000000	64.783835 
4210.000000	64.821076 
4209.000000	64.867067 
4208.000000	64.917087 
4207.000000	64.967012 
4206.000000	65.014314 
4205.000000	65.056991 
4204.000000	65.093135 
4203.000000	65.120339 
4202.000000	65.135478 
4201.000000	65.135216 
4200.000000	65.116834 
4199.000000	65.079760 
4198.000000	65.026044 
4197.000000	64.960455 
4196.000000	64.889550 
4195.000000	64.820718 
4194.000000	64.760088 
4193.000000	64.710831 
4192.000000	64.672899 
4191.000000	64.643096 
4190.000000	64.616990 
4189.000000	64.589905 
4188.000000	64.559793 
4187.000000	64.527201 
4186.000000	64.496541 
4185.000000	64.473867 
4184.000000	64.466381 
4183.000000	64.479207 
4182.000000	64.515042 
4181.000000	64.572763 
4180.000000	64.647936 
4179.000000	64.733481 
4178.000000	64.821100 
4177.000000	64.903306 
4176.000000	64.973735 
4175.000000	65.027999 
4174.000000	65.063881 
4173.000000	65.081143 
4172.000000	65.081048 
4171.000000	65.065979 
4170.000000	65.039634 
4169.000000	65.006446 
4168.000000	64.971804 
4167.000000	64.941096 
4166.000000	64.918947 
4165.000000	64.908194 
4164.000000	64.909863 
4163.000000	64.922857 
4162.000000	64.944243 
4161.000000	64.969706 
4160.000000	64.995336 
4159.000000	65.017604 
