PE IR       SPECTRUM    SPECTRUM    ASCII       PEDS        1.60        
  -1
BZ60B1~1.ASC
17/04/07
14:39:36.00
17/04/07
14:39:36.00
tln
$BZ1503107-1_t0018$<tbV0>[-2.6,-10.4,8.0,0.0,27,1,0]
370.000000
64









2002,4.07    
MIRTGS : RIGHTBACK : INTERNAL 2
MIR : ON : INTERNAL 2
OPTKBR

0.200000
8
8.000000
FILLER
RATIO
SPECTRUM
UNLOCKED 256

DOUBLE
64
COMBINED
1
0
0


1.000000
RATIO


1
0
TRUE
51149
0
LEFT NOT FITTED RIGHT NOT FITTED 0
NONE
NONE
15600
12.000000
4.427000
51148
TRUE
1 0 8 72 0 0 0 0 

15798.010000






#HDR
-1
-1
#GR
CM-1
%T
0.00002384185791015625
0.0
5000.000000
-1.000000
4631
8
70.498251
47.952699
#DATA
5000.000000	66.116738 
4999.000000	65.978312 
4998.000000	65.720319 
4997.000000	65.374588 
4996.000000	64.977931 
4995.000000	64.570379 
4994.000000	64.183807 
4993.000000	63.844513 
4992.000000	63.561987 
4991.000000	63.332986 
4990.000000	63.140916 
4989.000000	62.964153 
4988.000000	62.779283 
4987.000000	62.567567 
4986.000000	62.320303 
4985.000000	62.040209 
4984.000000	61.742758 
4983.000000	61.453104 
4982.000000	61.200976 
4981.000000	61.016440 
4980.000000	60.926508 
4979.000000	60.952329 
4978.000000	61.104869 
4977.000000	61.384654 
4976.000000	61.780667 
4975.000000	62.272047 
4974.000000	62.826848 
4973.000000	63.407611 
4972.000000	63.974332 
4971.000000	64.490032 
4970.000000	64.923834 
4969.000000	65.255117 
4968.000000	65.474867 
4967.000000	65.586328 
4966.000000	65.606474 
4965.000000	65.559363 
4964.000000	65.474152 
4963.000000	65.377902 
4962.000000	65.296816 
4961.000000	65.244960 
4960.000000	65.226054 
4959.000000	65.231704 
4958.000000	65.247368 
4957.000000	65.253973 
4956.000000	65.234684 
4955.000000	65.178799 
4954.000000	65.085554 
4953.000000	64.963960 
4952.000000	64.831709 
4951.000000	64.709687 
4950.000000	64.618563 
4949.000000	64.573645 
4948.000000	64.583039 
4947.000000	64.645075 
4946.000000	64.750838 
4945.000000	64.888858 
4944.000000	65.046024 
4943.000000	65.209841 
4942.000000	65.369415 
4941.000000	65.516996 
4940.000000	65.645670 
4939.000000	65.746784 
4938.000000	65.812468 
4937.000000	65.837025 
4936.000000	65.817761 
4935.000000	65.756750 
4934.000000	65.660619 
4933.000000	65.541076 
4932.000000	65.411734 
4931.000000	65.286779 
4930.000000	65.176486 
4929.000000	65.085649 
4928.000000	65.013122 
4927.000000	64.952921 
4926.000000	64.895606 
4925.000000	64.831447 
4924.000000	64.753079 
4923.000000	64.658093 
4922.000000	64.548134 
4921.000000	64.430165 
4920.000000	64.313459 
4919.000000	64.209723 
4918.000000	64.129424 
4917.000000	64.081621 
4916.000000	64.072036 
4915.000000	64.102268 
4914.000000	64.169454 
4913.000000	64.266252 
4912.000000	64.381217 
4911.000000	64.501237 
4910.000000	64.613294 
4909.000000	64.706850 
4908.000000	64.774346 
4907.000000	64.813637 
4906.000000	64.827442 
4905.000000	64.822745 
4904.000000	64.808654 
4903.000000	64.794874 
4902.000000	64.789628 
4901.000000	64.798927 
4900.000000	64.825987 
4899.000000	64.871120 
4898.000000	64.932203 
4897.000000	65.006446 
4896.000000	65.090274 
4895.000000	65.178704 
4894.000000	65.266227 
4893.000000	65.346789 
4892.000000	65.415215 
4891.000000	65.467262 
4890.000000	65.501141 
4889.000000	65.518641 
4888.000000	65.523982 
4887.000000	65.523433 
4886.000000	65.522694 
4885.000000	65.526509 
4884.000000	65.535974 
4883.000000	65.549635 
4882.000000	65.562295 
4881.000000	65.567207 
4880.000000	65.557146 
4879.000000	65.527057 
4878.000000	65.474820 
4877.000000	65.401935 
4876.000000	65.313601 
4875.000000	65.217828 
4874.000000	65.123629 
4873.000000	65.039539 
4872.000000	64.972877 
4871.000000	64.928936 
4870.000000	64.910435 
4869.000000	64.917731 
4868.000000	64.949321 
4867.000000	65.002322 
4866.000000	65.071940 
4865.000000	65.152335 
4864.000000	65.237331 
4863.000000	65.320181 
4862.000000	65.393495 
4861.000000	65.449714 
4860.000000	65.481972 
4859.000000	65.484881 
4858.000000	65.455555 
4857.000000	65.395045 
4856.000000	65.308713 
4855.000000	65.206503 
4854.000000	65.102124 
4853.000000	65.010285 
4852.000000	64.944338 
4851.000000	64.913272 
4850.000000	64.920115 
4849.000000	64.960551 
4848.000000	65.024089 
4847.000000	65.096092 
4846.000000	65.161323 
4845.000000	65.206670 
4844.000000	65.223908 
4843.000000	65.210914 
4842.000000	65.171551 
4841.000000	65.113663 
4840.000000	65.046334 
4839.000000	64.977478 
4838.000000	64.912104 
4837.000000	64.851331 
4836.000000	64.793777 
4835.000000	64.737892 
4834.000000	64.683485 
4833.000000	64.633011 
4832.000000	64.591956 
4831.000000	64.567875 
4830.000000	64.567852 
4829.000000	64.595937 
4828.000000	64.651131 
4827.000000	64.726090 
4826.000000	64.809131 
4825.000000	64.886426 
4824.000000	64.946293 
4823.000000	64.981722 
4822.000000	64.993095 
4821.000000	64.987492 
4820.000000	64.976835 
4819.000000	64.973425 
4818.000000	64.985179 
4817.000000	65.012645 
4816.000000	65.047812 
4815.000000	65.077018 
4814.000000	65.085721 
4813.000000	65.064525 
4812.000000	65.012454 
4811.000000	64.940118 
4810.000000	64.867568 
4809.000000	64.820384 
4808.000000	64.822411 
4807.000000	64.889430 
4806.000000	65.024352 
4805.000000	65.215134 
4804.000000	65.438055 
4803.000000	65.661072 
4802.000000	65.851902 
4801.000000	65.983605 
4800.000000	66.040706 
4799.000000	66.021013 
4798.000000	65.935349 
4797.000000	65.803909 
4796.000000	65.650868 
4795.000000	65.499901 
4794.000000	65.369486 
4793.000000	65.271329 
4792.000000	65.209054 
4791.000000	65.178847 
4790.000000	65.171170 
4789.000000	65.173649 
4788.000000	65.173888 
4787.000000	65.160822 
4786.000000	65.127944 
4785.000000	65.071702 
4784.000000	64.994645 
4783.000000	64.903593 
4782.000000	64.809918 
4781.000000	64.726257 
4780.000000	64.664888 
4779.000000	64.635872 
4778.000000	64.643359 
4777.000000	64.685344 
4776.000000	64.751839 
4775.000000	64.827203 
4774.000000	64.892292 
4773.000000	64.928078 
4772.000000	64.921259 
4771.000000	64.867162 
4770.000000	64.772367 
4769.000000	64.652824 
4768.000000	64.533209 
4767.000000	64.441275 
4766.000000	64.402484 
4765.000000	64.433264 
4764.000000	64.536643 
4763.000000	64.700293 
4762.000000	64.899587 
4761.000000	65.101957 
4760.000000	65.273666 
4759.000000	65.387010 
4758.000000	65.425872 
4757.000000	65.388703 
4756.000000	65.287351 
4755.000000	65.143990 
4754.000000	64.984941 
4753.000000	64.834809 
4752.000000	64.712190 
4751.000000	64.626145 
4750.000000	64.578032 
4749.000000	64.561033 
4748.000000	64.564943 
4747.000000	64.578270 
4746.000000	64.592504 
4745.000000	64.602303 
4744.000000	64.605426 
4743.000000	64.602446 
4742.000000	64.594554 
4741.000000	64.584207 
4740.000000	64.573836 
4739.000000	64.566087 
4738.000000	64.563202 
4737.000000	64.566922 
4736.000000	64.577674 
4735.000000	64.594793 
4734.000000	64.615774 
4733.000000	64.636182 
4732.000000	64.650416 
4731.000000	64.652562 
4730.000000	64.637970 
4729.000000	64.604663 
4728.000000	64.554119 
4727.000000	64.490294 
4726.000000	64.420223 
4725.000000	64.352226 
4724.000000	64.295411 
4723.000000	64.257788 
4722.000000	64.245581 
4721.000000	64.261817 
4720.000000	64.306449 
4719.000000	64.376902 
4718.000000	64.466977 
4717.000000	64.567303 
4716.000000	64.666461 
4715.000000	64.752531 
4714.000000	64.814996 
4713.000000	64.846611 
4712.000000	64.845418 
4711.000000	64.815139 
4710.000000	64.764571 
4709.000000	64.705443 
4708.000000	64.650511 
4707.000000	64.609789 
4706.000000	64.588832 
4705.000000	64.587068 
4704.000000	64.598751 
4703.000000	64.614248 
4702.000000	64.623284 
4701.000000	64.617681 
4700.000000	64.593386 
4699.000000	64.552068 
4698.000000	64.499831 
4697.000000	64.446520 
4696.000000	64.402079 
4695.000000	64.375209 
4694.000000	64.370656 
4693.000000	64.389348 
4692.000000	64.428353 
4691.000000	64.482617 
4690.000000	64.546322 
4689.000000	64.614439 
4688.000000	64.683437 
4687.000000	64.751696 
4686.000000	64.818930 
4685.000000	64.884853 
4684.000000	64.948368 
4683.000000	65.007305 
4682.000000	65.058445 
4681.000000	65.098285 
4680.000000	65.123534 
4679.000000	65.132188 
4678.000000	65.123558 
4677.000000	65.099763 
4676.000000	65.064382 
4675.000000	65.021777 
4674.000000	64.976501 
4673.000000	64.933013 
4672.000000	64.894819 
4671.000000	64.864826 
4670.000000	64.844751 
4669.000000	64.835286 
4668.000000	64.836096 
4667.000000	64.846301 
4666.000000	64.864110 
4665.000000	64.886760 
4664.000000	64.911150 
4663.000000	64.933872 
4662.000000	64.951920 
4661.000000	64.962768 
4660.000000	64.965176 
4659.000000	64.959454 
4658.000000	64.947056 
4657.000000	64.930486 
4656.000000	64.913153 
4655.000000	64.899301 
4654.000000	64.892935 
4653.000000	64.897656 
4652.000000	64.916968 
4651.000000	64.952898 
4650.000000	65.005993 
4649.000000	65.073776 
4648.000000	65.151047 
4647.000000	65.229344 
4646.000000	65.298342 
4645.000000	65.347361 
4644.000000	65.367364 
4643.000000	65.353012 
4642.000000	65.304470 
4641.000000	65.227103 
4640.000000	65.130352 
4639.000000	65.025997 
4638.000000	64.926242 
4637.000000	64.840769 
4636.000000	64.775228 
4635.000000	64.730954 
4634.000000	64.705634 
4633.000000	64.694499 
4632.000000	64.692115 
4631.000000	64.693665 
4630.000000	64.695763 
4629.000000	64.696431 
4628.000000	64.695024 
4627.000000	64.690780 
4626.000000	64.682841 
4625.000000	64.670443 
4624.000000	64.653062 
4623.000000	64.631104 
4622.000000	64.605784 
4621.000000	64.578938 
4620.000000	64.552807 
4619.000000	64.529490 
4618.000000	64.511203 
4617.000000	64.499473 
4616.000000	64.495897 
4615.000000	64.501500 
4614.000000	64.517545 
4613.000000	64.544987 
4612.000000	64.584493 
4611.000000	64.635777 
4610.000000	64.697670 
4609.000000	64.767551 
4608.000000	64.841771 
4607.000000	64.915752 
4606.000000	64.984107 
4605.000000	65.041327 
4604.000000	65.082502 
4603.000000	65.104365 
4602.000000	65.105152 
4601.000000	65.085268 
4600.000000	65.047264 
4599.000000	64.995956 
4598.000000	64.938330 
4597.000000	64.882564 
4596.000000	64.837384 
4595.000000	64.810323 
4594.000000	64.806771 
4593.000000	64.828658 
4592.000000	64.873862 
4591.000000	64.936637 
4590.000000	65.008449 
4589.000000	65.079498 
4588.000000	65.140366 
4587.000000	65.183591 
4586.000000	65.204858 
4585.000000	65.203404 
4584.000000	65.181517 
4583.000000	65.144157 
4582.000000	65.097856 
4581.000000	65.049362 
4580.000000	65.004563 
4579.000000	64.967346 
4578.000000	64.939427 
4577.000000	64.920496 
4576.000000	64.908623 
4575.000000	64.900779 
4574.000000	64.893579 
4573.000000	64.883995 
4572.000000	64.870119 
4571.000000	64.850640 
4570.000000	64.825582 
4569.000000	64.795875 
4568.000000	64.763069 
4567.000000	64.728999 
4566.000000	64.695501 
4565.000000	64.664340 
4564.000000	64.636611 
4563.000000	64.612674 
4562.000000	64.591646 
4561.000000	64.571809 
4560.000000	64.550805 
4559.000000	64.525866 
4558.000000	64.494943 
4557.000000	64.456868 
4556.000000	64.413022 
4555.000000	64.366769 
4554.000000	64.323997 
4553.000000	64.291620 
4552.000000	64.277267 
4551.000000	64.287185 
4550.000000	64.325237 
4549.000000	64.391422 
4548.000000	64.481472 
4547.000000	64.587306 
4546.000000	64.698266 
4545.000000	64.803266 
4544.000000	64.892578 
4543.000000	64.959621 
4542.000000	65.002250 
4541.000000	65.022134 
4540.000000	65.023446 
4539.000000	65.011787 
4538.000000	64.992809 
4537.000000	64.971566 
4536.000000	64.952206 
4535.000000	64.937710 
4534.000000	64.931273 
4533.000000	64.935016 
4532.000000	64.950346 
4531.000000	64.977478 
4530.000000	65.015268 
4529.000000	65.060639 
4528.000000	65.108299 
4527.000000	65.152454 
4526.000000	65.188050 
4525.000000	65.210938 
4524.000000	65.218520 
4523.000000	65.211796 
4522.000000	65.194988 
4521.000000	65.172719 
4520.000000	65.149331 
4519.000000	65.128326 
4518.000000	65.112376 
4517.000000	65.103769 
4516.000000	65.104317 
4515.000000	65.117645 
4514.000000	65.146255 
4513.000000	65.189003 
4512.000000	65.241909 
4511.000000	65.297865 
4510.000000	65.349531 
4509.000000	65.391063 
4508.000000	65.419936 
4507.000000	65.436196 
4506.000000	65.444159 
4505.000000	65.451169 
4504.000000	65.465903 
4503.000000	65.493440 
4502.000000	65.540552 
4501.000000	65.614509 
4500.000000	65.723943 
4499.000000	65.876030 
4498.000000	66.079354 
4497.000000	66.340708 
4496.000000	66.658473 
4495.000000	67.020368 
4494.000000	67.400670 
4493.000000	67.766594 
4492.000000	68.080902 
4491.000000	68.316340 
4490.000000	68.467450 
4489.000000	68.553090 
4488.000000	68.619132 
4487.000000	68.718290 
4486.000000	68.898940 
4485.000000	69.179940 
4484.000000	69.546127 
4483.000000	69.941520 
4482.000000	70.287799 
4481.000000	70.495915 
4480.000000	70.498251 
4479.000000	70.257139 
4478.000000	69.781303 
4477.000000	69.117307 
4476.000000	68.340897 
4475.000000	67.535948 
4474.000000	66.778159 
4473.000000	66.116070 
4472.000000	65.564942 
4471.000000	65.115594 
4470.000000	64.746713 
4469.000000	64.431452 
4468.000000	64.149928 
4467.000000	63.896965 
4466.000000	63.684129 
4465.000000	63.523554 
4464.000000	63.427424 
4463.000000	63.400530 
4462.000000	63.439416 
4461.000000	63.531136 
4460.000000	63.655757 
4459.000000	63.786077 
4458.000000	63.897037 
4457.000000	63.966965 
4456.000000	63.986921 
4455.000000	63.961505 
4454.000000	63.906836 
4453.000000	63.851642 
4452.000000	63.817501 
4451.000000	63.813138 
4450.000000	63.823628 
4449.000000	63.819408 
4448.000000	63.748598 
4447.000000	63.553237 
4446.000000	63.178658 
4445.000000	62.593650 
4444.000000	61.784529 
4443.000000	60.763120 
4442.000000	59.567570 
4441.000000	58.263564 
4440.000000	56.932735 
4439.000000	55.670881 
4438.000000	54.578042 
4437.000000	53.751754 
4436.000000	53.273367 
4435.000000	53.196978 
4434.000000	53.533983 
4433.000000	54.250526 
4432.000000	55.257368 
4431.000000	56.434655 
4430.000000	57.630586 
4429.000000	58.713579 
4428.000000	59.581398 
4427.000000	60.197281 
4426.000000	60.582900 
4425.000000	60.817456 
4424.000000	61.007666 
4423.000000	61.260509 
4422.000000	61.653113 
4421.000000	62.213969 
4420.000000	62.920165 
4419.000000	63.706493 
4418.000000	64.491081 
4417.000000	65.190768 
4416.000000	65.744662 
4415.000000	66.124725 
4414.000000	66.339159 
4413.000000	66.419482 
4412.000000	66.408085 
4411.000000	66.348314 
4410.000000	66.271591 
4409.000000	66.193056 
4408.000000	66.109800 
4407.000000	66.019773 
4406.000000	65.917253 
4405.000000	65.801978 
4404.000000	65.676784 
4403.000000	65.548896 
4402.000000	65.427303 
4401.000000	65.320515 
4400.000000	65.234041 
4399.000000	65.165543 
4398.000000	65.110206 
4397.000000	65.064644 
4396.000000	65.024876 
4395.000000	64.985275 
4394.000000	64.944338 
4393.000000	64.905548 
4392.000000	64.874410 
4391.000000	64.855790 
4390.000000	64.854145 
4389.000000	64.872026 
4388.000000	64.907860 
4387.000000	64.956331 
4386.000000	65.013098 
4385.000000	65.075039 
4384.000000	65.138697 
4383.000000	65.200734 
4382.000000	65.258836 
4381.000000	65.310931 
4380.000000	65.354108 
4379.000000	65.385460 
4378.000000	65.401864 
4377.000000	65.402007 
4376.000000	65.388131 
4375.000000	65.365600 
4374.000000	65.342259 
4373.000000	65.326714 
4372.000000	65.327334 
4371.000000	65.348958 
4370.000000	65.391564 
4369.000000	65.449810 
4368.000000	65.514564 
4367.000000	65.574979 
4366.000000	65.621042 
4365.000000	65.646028 
4364.000000	65.647912 
4363.000000	65.629363 
4362.000000	65.596532 
4361.000000	65.557003 
4360.000000	65.517568 
4359.000000	65.482950 
4358.000000	65.454912 
4357.000000	65.433025 
4356.000000	65.415310 
4355.000000	65.399622 
4354.000000	65.385079 
4353.000000	65.371847 
4352.000000	65.362405 
4351.000000	65.360713 
4350.000000	65.371298 
4349.000000	65.397620 
4348.000000	65.440535 
4347.000000	65.497660 
4346.000000	65.562796 
4345.000000	65.627408 
4344.000000	65.681433 
4343.000000	65.715765 
4342.000000	65.723681 
4341.000000	65.702748 
4340.000000	65.654587 
4339.000000	65.584683 
4338.000000	65.500950 
4337.000000	65.412211 
4336.000000	65.326809 
4335.000000	65.251517 
4334.000000	65.190768 
4333.000000	65.146517 
4332.000000	65.119123 
4331.000000	65.107488 
4330.000000	65.109467 
4329.000000	65.122556 
4328.000000	65.143346 
4327.000000	65.168786 
4326.000000	65.194940 
4325.000000	65.219044 
4324.000000	65.239167 
4323.000000	65.255618 
4322.000000	65.270137 
4321.000000	65.286064 
4320.000000	65.307474 
4319.000000	65.337586 
4318.000000	65.377974 
4317.000000	65.427374 
4316.000000	65.481829 
4315.000000	65.535354 
4314.000000	65.581178 
4313.000000	65.613532 
4312.000000	65.629220 
4311.000000	65.628123 
4310.000000	65.613245 
4309.000000	65.589618 
4308.000000	65.562725 
4307.000000	65.537095 
4306.000000	65.515184 
4305.000000	65.496659 
4304.000000	65.478801 
4303.000000	65.458273 
4302.000000	65.431904 
4301.000000	65.397882 
4300.000000	65.356254 
4299.000000	65.308904 
4298.000000	65.259170 
4297.000000	65.210890 
4296.000000	65.167593 
4295.000000	65.131425 
4294.000000	65.103459 
4293.000000	65.083789 
4292.000000	65.071749 
4291.000000	65.066146 
4290.000000	65.065908 
4289.000000	65.070319 
4288.000000	65.078568 
4287.000000	65.089225 
4286.000000	65.100526 
4285.000000	65.110254 
4284.000000	65.116262 
4283.000000	65.116643 
4282.000000	65.110540 
4281.000000	65.098357 
4280.000000	65.081810 
4279.000000	65.063714 
4278.000000	65.046906 
4277.000000	65.033745 
4276.000000	65.025615 
4275.000000	65.022492 
4274.000000	65.022945 
4273.000000	65.024518 
4272.000000	65.024995 
4271.000000	65.022778 
4270.000000	65.017318 
4269.000000	65.008592 
4268.000000	64.997768 
4267.000000	64.985632 
4266.000000	64.972066 
4265.000000	64.955806 
4264.000000	64.934730 
4263.000000	64.906573 
4262.000000	64.870142 
4261.000000	64.826107 
4260.000000	64.777684 
4259.000000	64.730358 
4258.000000	64.690828 
4257.000000	64.665794 
4256.000000	64.660191 
4255.000000	64.676237 
4254.000000	64.712858 
4253.000000	64.765858 
4252.000000	64.828824 
4251.000000	64.894676 
4250.000000	64.957070 
4249.000000	65.011453 
4248.000000	65.055894 
4247.000000	65.090775 
4246.000000	65.118384 
4245.000000	65.141820 
4244.000000	65.163850 
4243.000000	65.186429 
4242.000000	65.209507 
4241.000000	65.232157 
4240.000000	65.251564 
4239.000000	65.264463 
4238.000000	65.267419 
4237.000000	65.258383 
4236.000000	65.237021 
4235.000000	65.205264 
4234.000000	65.167212 
4233.000000	65.128684 
4232.000000	65.095567 
4231.000000	65.072536 
4230.000000	65.061950 
4229.000000	65.063452 
4228.000000	65.074372 
4227.000000	65.090656 
4226.000000	65.107798 
4225.000000	65.122175 
4224.000000	65.131711 
4223.000000	65.136051 
4222.000000	65.135908 
4221.000000	65.132665 
4220.000000	65.127515 
4219.000000	65.121269 
4218.000000	65.113472 
4217.000000	65.103340 
4216.000000	65.090751 
4215.000000	65.076541 
4214.000000	65.062618 
4213.000000	65.052103 
4212.000000	65.048313 
4211.000000	65.054416 
4210.000000	65.072107 
4209.000000	65.101480 
4208.000000	65.140914 
4207.000000	65.187096 
4206.000000	65.235948 
4205.000000	65.282106 
4204.000000	65.319705 
4203.000000	65.342998 
4202.000000	65.347146 
4201.000000	65.329122 
4200.000000	65.288090 
4199.000000	65.226411 
4198.000000	65.149354 
4197.000000	65.064454 
4196.000000	64.980173 
4195.000000	64.904546 
4194.000000	64.843535 
4193.000000	64.800047 
4192.000000	64.773750 
4191.000000	64.761114 
4190.000000	64.757299 
4189.000000	64.757084 
4188.000000	64.756965 
4187.000000	64.755201 
4186.000000	64.752960 
4185.000000	64.752388 
4184.000000	64.757227 
4183.000000	64.769911 
4182.000000	64.792609 
4181.000000	64.825963 
4180.000000	64.869570 
4179.000000	64.921975 
4178.000000	64.980816 
4177.000000	65.043425 
4176.000000	65.106296 
4175.000000	65.165352 
4174.000000	65.215945 
4173.000000	65.253663 
4172.000000	65.274906 
4171.000000	65.277671 
4170.000000	65.262365 
4169.000000	65.231800 
4168.000000	65.191388 
4167.000000	65.147924 
4166.000000	65.107917 
4165.000000	65.076446 
4164.000000	65.056562 
4163.000000	65.048599 
4162.000000	65.050768 
4161.000000	65.059685 
4160.000000	65.072131 
4159.000000	65.084934 
