PE IR       SPECTRUM    SPECTRUM    ASCII       PEDS        1.60        
  -1
BZ6CA0~1.ASC
17/04/07
16:01:17.00
17/04/07
16:01:17.00
tln
$BZ1503107-1_t0034$<tbV0>[13.0,-5.2,8.0,0.0,27,1,0]
370.000000
64









2002,4.07    
MIRTGS : RIGHTBACK : INTERNAL 2
MIR : ON : INTERNAL 2
OPTKBR

0.200000
8
8.000000
FILLER
RATIO
SPECTRUM
UNLOCKED 256

DOUBLE
64
COMBINED
1
0
0


1.000000
RATIO


1
0
TRUE
51149
0
LEFT NOT FITTED RIGHT NOT FITTED 0
NONE
NONE
15600
12.000000
4.427000
51148
TRUE
1 0 8 72 0 0 0 0 

15798.010000






#HDR
-1
-1
#GR
CM-1
%T
0.00002384185791015625
0.0
5000.000000
-1.000000
4631
8
85.139369
46.016383
#DATA
5000.000000	65.550971 
4999.000000	65.454792 
4998.000000	65.355420 
4997.000000	65.262627 
4996.000000	65.182232 
4995.000000	65.116906 
4994.000000	65.065693 
4993.000000	65.026164 
4992.000000	64.995026 
4991.000000	64.969921 
4990.000000	64.949226 
4989.000000	64.931130 
4988.000000	64.914536 
4987.000000	64.898490 
4986.000000	64.881443 
4985.000000	64.860701 
4984.000000	64.833617 
4983.000000	64.798116 
4982.000000	64.753222 
4981.000000	64.699506 
4980.000000	64.639163 
4979.000000	64.575934 
4978.000000	64.514064 
4977.000000	64.458179 
4976.000000	64.412426 
4975.000000	64.380621 
4974.000000	64.364862 
4973.000000	64.366626 
4972.000000	64.386129 
4971.000000	64.423060 
4970.000000	64.476132 
4969.000000	64.543628 
4968.000000	64.622640 
4967.000000	64.709091 
4966.000000	64.798092 
4965.000000	64.883041 
4964.000000	64.956164 
4963.000000	65.009450 
4962.000000	65.036392 
4961.000000	65.032625 
4960.000000	64.997196 
4959.000000	64.933681 
4958.000000	64.850378 
4957.000000	64.758467 
4956.000000	64.670062 
4955.000000	64.596128 
4954.000000	64.544296 
4953.000000	64.516878 
4952.000000	64.511203 
4951.000000	64.520239 
4950.000000	64.535570 
4949.000000	64.549779 
4948.000000	64.559221 
4947.000000	64.564418 
4946.000000	64.569950 
4945.000000	64.582419 
4944.000000	64.607667 
4943.000000	64.647698 
4942.000000	64.699912 
4941.000000	64.756536 
4940.000000	64.807224 
4939.000000	64.841580 
4938.000000	64.853048 
4937.000000	64.840674 
4936.000000	64.810514 
4935.000000	64.774107 
4934.000000	64.745712 
4933.000000	64.738321 
4932.000000	64.759993 
4931.000000	64.811491 
4930.000000	64.886021 
4929.000000	64.971041 
4928.000000	65.051507 
4927.000000	65.113663 
4926.000000	65.148210 
4925.000000	65.151882 
4924.000000	65.127468 
4923.000000	65.082001 
4922.000000	65.023851 
4921.000000	64.960169 
4920.000000	64.895272 
4919.000000	64.830684 
4918.000000	64.765882 
4917.000000	64.700484 
4916.000000	64.636254 
4915.000000	64.578175 
4914.000000	64.533948 
4913.000000	64.512872 
4912.000000	64.522981 
4911.000000	64.568758 
4910.000000	64.648437 
4909.000000	64.754438 
4908.000000	64.873766 
4907.000000	64.991116 
4906.000000	65.091991 
4905.000000	65.165185 
4904.000000	65.204954 
4903.000000	65.210628 
4902.000000	65.185952 
4901.000000	65.137124 
4900.000000	65.071010 
4899.000000	64.994192 
4898.000000	64.912152 
4897.000000	64.829850 
4896.000000	64.751648 
4895.000000	64.681577 
4894.000000	64.623522 
4893.000000	64.580464 
4892.000000	64.555263 
4891.000000	64.549326 
4890.000000	64.563751 
4889.000000	64.597749 
4888.000000	64.650321 
4887.000000	64.719295 
4886.000000	64.802336 
4885.000000	64.896273 
4884.000000	64.997577 
4883.000000	65.102100 
4882.000000	65.205025 
4881.000000	65.300965 
4880.000000	65.384101 
4879.000000	65.449261 
4878.000000	65.491962 
4877.000000	65.509462 
4876.000000	65.501236 
4875.000000	65.469527 
4874.000000	65.419101 
4873.000000	65.357041 
4872.000000	65.292382 
4871.000000	65.234684 
4870.000000	65.193367 
4869.000000	65.175056 
4868.000000	65.182447 
4867.000000	65.212774 
4866.000000	65.258789 
4865.000000	65.309596 
4864.000000	65.352869 
4863.000000	65.377545 
4862.000000	65.376114 
4861.000000	65.346288 
4860.000000	65.291047 
4859.000000	65.217971 
4858.000000	65.136957 
4857.000000	65.058207 
4856.000000	64.990162 
4855.000000	64.937543 
4854.000000	64.901185 
4853.000000	64.878368 
4852.000000	64.864516 
4851.000000	64.854741 
4850.000000	64.845395 
4849.000000	64.835405 
4848.000000	64.826393 
4847.000000	64.821910 
4846.000000	64.826035 
4845.000000	64.842319 
4844.000000	64.872097 
4843.000000	64.914131 
4842.000000	64.964032 
4841.000000	65.015196 
4840.000000	65.059709 
4839.000000	65.090012 
4838.000000	65.100860 
4837.000000	65.090346 
4836.000000	65.060353 
4835.000000	65.016031 
4834.000000	64.964842 
4833.000000	64.914560 
4832.000000	64.872050 
4831.000000	64.841723 
4830.000000	64.825630 
4829.000000	64.823436 
4828.000000	64.833402 
4827.000000	64.853286 
4826.000000	64.881038 
4825.000000	64.914965 
4824.000000	64.954018 
4823.000000	64.997339 
4822.000000	65.044307 
4821.000000	65.093660 
4820.000000	65.144038 
4819.000000	65.193343 
4818.000000	65.239405 
4817.000000	65.279412 
4816.000000	65.310716 
4815.000000	65.330219 
4814.000000	65.334820 
4813.000000	65.321898 
4812.000000	65.289545 
4811.000000	65.237951 
4810.000000	65.169954 
4809.000000	65.091323 
4808.000000	65.010666 
4807.000000	64.937758 
4806.000000	64.882016 
4805.000000	64.850282 
4804.000000	64.845490 
4803.000000	64.865636 
4802.000000	64.903903 
4801.000000	64.950346 
4800.000000	64.994287 
4799.000000	65.026545 
4798.000000	65.041303 
4797.000000	65.037322 
4796.000000	65.017724 
4795.000000	64.988636 
4794.000000	64.957404 
4793.000000	64.930319 
4792.000000	64.910936 
4791.000000	64.900016 
4790.000000	64.895319 
4789.000000	64.892959 
4788.000000	64.888739 
4787.000000	64.879012 
4786.000000	64.862036 
4785.000000	64.838004 
4784.000000	64.809751 
4783.000000	64.781188 
4782.000000	64.757490 
4781.000000	64.743399 
4780.000000	64.742660 
4779.000000	64.757585 
4778.000000	64.788246 
4777.000000	64.832496 
4776.000000	64.886426 
4775.000000	64.944887 
4774.000000	65.002322 
4773.000000	65.053558 
4772.000000	65.094852 
4771.000000	65.124440 
4770.000000	65.142321 
4769.000000	65.150022 
4768.000000	65.149569 
4767.000000	65.142798 
4766.000000	65.130972 
4765.000000	65.115213 
4764.000000	65.096974 
4763.000000	65.079092 
4762.000000	65.066146 
4761.000000	65.063953 
4760.000000	65.078186 
4759.000000	65.112709 
4758.000000	65.168428 
4757.000000	65.241575 
4756.000000	65.324258 
4755.000000	65.404772 
4754.000000	65.470385 
4753.000000	65.508890 
4752.000000	65.511488 
4751.000000	65.474057 
4750.000000	65.398573 
4749.000000	65.292286 
4748.000000	65.166187 
4747.000000	65.033531 
4746.000000	64.907813 
4745.000000	64.800906 
4744.000000	64.721870 
4743.000000	64.676237 
4742.000000	64.665913 
4741.000000	64.688229 
4740.000000	64.736890 
4739.000000	64.802312 
4738.000000	64.873695 
4737.000000	64.940929 
4736.000000	64.996290 
4735.000000	65.035319 
4734.000000	65.057110 
4733.000000	65.063810 
4732.000000	65.059542 
4731.000000	65.048551 
4730.000000	65.034341 
4729.000000	65.019607 
4728.000000	65.005636 
4727.000000	64.993190 
4726.000000	64.982652 
4725.000000	64.975118 
4724.000000	64.972352 
4723.000000	64.975857 
4722.000000	64.988017 
4721.000000	65.010643 
4720.000000	65.045952 
4719.000000	65.094900 
4718.000000	65.159153 
4717.000000	65.240049 
4716.000000	65.338635 
4715.000000	65.454697 
4714.000000	65.584635 
4713.000000	65.720701 
4712.000000	65.851211 
4711.000000	65.961742 
4710.000000	66.038036 
4709.000000	66.068530 
4708.000000	66.048049 
4707.000000	65.978574 
4706.000000	65.869808 
4705.000000	65.736603 
4704.000000	65.596318 
4703.000000	65.464663 
4702.000000	65.353775 
4701.000000	65.269446 
4700.000000	65.211868 
4699.000000	65.176081 
4698.000000	65.154647 
4697.000000	65.139627 
4696.000000	65.124845 
4695.000000	65.106821 
4694.000000	65.084075 
4693.000000	65.057563 
4692.000000	65.028142 
4691.000000	64.997649 
4690.000000	64.967203 
4689.000000	64.938259 
4688.000000	64.912128 
4687.000000	64.890289 
4686.000000	64.874196 
4685.000000	64.864897 
4684.000000	64.862585 
4683.000000	64.866852 
4682.000000	64.876484 
4681.000000	64.889264 
4680.000000	64.902257 
4679.000000	64.912390 
4678.000000	64.917063 
4677.000000	64.913988 
4676.000000	64.902758 
4675.000000	64.884614 
4674.000000	64.862799 
4673.000000	64.842104 
4672.000000	64.828014 
4671.000000	64.825153 
4670.000000	64.837002 
4669.000000	64.864873 
4668.000000	64.907765 
4667.000000	64.962244 
4666.000000	65.023708 
4665.000000	65.086960 
4664.000000	65.147805 
4663.000000	65.203785 
4662.000000	65.254306 
4661.000000	65.300083 
4660.000000	65.342116 
4659.000000	65.380883 
4658.000000	65.415787 
4657.000000	65.444874 
4656.000000	65.465712 
4655.000000	65.475630 
4654.000000	65.473675 
4653.000000	65.460014 
4652.000000	65.436124 
4651.000000	65.403723 
4650.000000	65.364766 
4649.000000	65.320348 
4648.000000	65.270948 
4647.000000	65.216708 
4646.000000	65.158319 
4645.000000	65.097332 
4644.000000	65.036821 
4643.000000	64.980673 
4642.000000	64.933347 
4641.000000	64.898085 
4640.000000	64.876079 
4639.000000	64.865589 
4638.000000	64.861941 
4637.000000	64.858889 
4636.000000	64.850258 
4635.000000	64.831542 
4634.000000	64.801073 
4633.000000	64.761352 
4632.000000	64.718699 
4631.000000	64.681124 
4630.000000	64.656448 
4629.000000	64.650511 
4628.000000	64.665913 
4627.000000	64.700818 
4626.000000	64.749836 
4625.000000	64.805150 
4624.000000	64.858508 
4623.000000	64.902973 
4622.000000	64.934420 
4621.000000	64.951825 
4620.000000	64.957284 
4619.000000	64.954829 
4618.000000	64.949512 
4617.000000	64.945554 
4616.000000	64.945650 
4615.000000	64.951300 
4614.000000	64.961409 
4613.000000	64.973521 
4612.000000	64.983558 
4611.000000	64.987921 
4610.000000	64.982342 
4609.000000	64.963150 
4608.000000	64.927458 
4607.000000	64.874005 
4606.000000	64.803504 
4605.000000	64.718818 
4604.000000	64.625334 
4603.000000	64.530563 
4602.000000	64.443135 
4601.000000	64.371633 
4600.000000	64.323282 
4599.000000	64.302682 
4598.000000	64.310836 
4597.000000	64.344978 
4596.000000	64.398765 
4595.000000	64.463663 
4594.000000	64.529919 
4593.000000	64.589071 
4592.000000	64.633941 
4591.000000	64.661240 
4590.000000	64.671325 
4589.000000	64.668369 
4588.000000	64.658665 
4587.000000	64.649462 
4586.000000	64.647245 
4585.000000	64.656114 
4584.000000	64.677405 
4583.000000	64.708852 
4582.000000	64.745855 
4581.000000	64.782428 
4580.000000	64.813113 
4579.000000	64.834237 
4578.000000	64.844989 
4577.000000	64.847803 
4576.000000	64.847445 
4575.000000	64.849376 
4574.000000	64.858055 
4573.000000	64.876484 
4572.000000	64.904880 
4571.000000	64.940977 
4570.000000	64.980149 
4569.000000	65.017557 
4568.000000	65.048289 
4567.000000	65.068387 
4566.000000	65.075159 
4565.000000	65.067267 
4564.000000	65.045022 
4563.000000	65.010404 
4562.000000	64.966678 
4561.000000	64.917802 
4560.000000	64.867925 
4559.000000	64.821338 
4558.000000	64.781260 
4557.000000	64.749503 
4556.000000	64.726614 
4555.000000	64.712142 
4554.000000	64.704847 
4553.000000	64.703083 
4552.000000	64.706683 
4551.000000	64.717197 
4550.000000	64.737367 
4549.000000	64.770293 
4548.000000	64.818406 
4547.000000	64.882135 
4546.000000	64.959216 
4545.000000	65.044045 
4544.000000	65.128946 
4543.000000	65.204691 
4542.000000	65.263438 
4541.000000	65.298986 
4540.000000	65.307879 
4539.000000	65.289473 
4538.000000	65.246319 
4537.000000	65.183186 
4536.000000	65.107154 
4535.000000	65.025568 
4534.000000	64.946627 
4533.000000	64.876317 
4532.000000	64.818739 
4531.000000	64.774060 
4530.000000	64.739513 
4529.000000	64.708995 
4528.000000	64.674878 
4527.000000	64.629459 
4526.000000	64.567208 
4525.000000	64.486575 
4524.000000	64.390945 
4523.000000	64.288783 
4522.000000	64.192366 
4521.000000	64.116072 
4520.000000	64.073443 
4519.000000	64.074301 
4518.000000	64.122486 
4517.000000	64.214491 
4516.000000	64.339876 
4515.000000	64.482903 
4514.000000	64.625787 
4513.000000	64.751553 
4512.000000	64.847731 
4511.000000	64.907288 
4510.000000	64.930033 
4509.000000	64.921283 
4508.000000	64.890003 
4507.000000	64.846062 
4506.000000	64.797878 
4505.000000	64.751529 
4504.000000	64.709544 
4503.000000	64.672660 
4502.000000	64.639306 
4501.000000	64.607572 
4500.000000	64.575982 
4499.000000	64.544796 
4498.000000	64.515924 
4497.000000	64.492678 
4496.000000	64.478874 
4495.000000	64.477920 
4494.000000	64.491105 
4493.000000	64.517784 
4492.000000	64.555764 
4491.000000	64.602303 
4490.000000	64.654469 
4489.000000	64.709711 
4488.000000	64.767241 
4487.000000	64.826035 
4486.000000	64.884161 
4485.000000	64.937210 
4484.000000	64.978170 
4483.000000	64.998388 
4482.000000	64.990496 
4481.000000	64.949607 
4480.000000	64.875721 
4479.000000	64.774322 
4478.000000	64.656758 
4477.000000	64.537286 
4476.000000	64.431118 
4475.000000	64.349651 
4474.000000	64.298343 
4473.000000	64.276146 
4472.000000	64.276814 
4471.000000	64.291167 
4470.000000	64.310264 
4469.000000	64.330244 
4468.000000	64.353942 
4467.000000	64.388275 
4466.000000	64.442348 
4465.000000	64.525008 
4464.000000	64.641594 
4463.000000	64.790487 
4462.000000	64.961838 
4461.000000	65.143847 
4460.000000	65.319919 
4459.000000	65.468382 
4458.000000	65.568161 
4457.000000	65.604329 
4456.000000	65.571451 
4455.000000	65.475869 
4454.000000	65.334630 
4453.000000	65.172934 
4452.000000	65.017724 
4451.000000	64.892292 
4450.000000	64.812397 
4449.000000	64.782094 
4448.000000	64.800047 
4447.000000	64.863634 
4446.000000	64.968776 
4445.000000	65.109133 
4444.000000	65.289068 
4443.000000	65.521931 
4442.000000	65.816783 
4441.000000	66.174793 
4440.000000	66.581511 
4439.000000	67.014265 
4438.000000	67.444109 
4437.000000	67.852497 
4436.000000	68.243980 
4435.000000	68.645071 
4434.000000	69.109344 
4433.000000	69.685459 
4432.000000	70.395827 
4431.000000	71.217751 
4430.000000	72.075772 
4429.000000	72.861623 
4428.000000	73.465132 
4427.000000	73.799014 
4426.000000	73.843336 
4425.000000	73.623633 
4424.000000	73.220348 
4423.000000	72.711491 
4422.000000	72.161746 
4421.000000	71.571755 
4420.000000	70.883846 
4419.000000	69.992899 
4418.000000	68.790459 
4417.000000	67.211055 
4416.000000	65.276050 
4415.000000	63.112282 
4414.000000	60.943317 
4413.000000	59.050178 
4412.000000	57.712793 
4411.000000	57.134008 
4410.000000	57.395458 
4409.000000	58.432960 
4408.000000	60.054421 
4407.000000	61.973953 
4406.000000	63.884544 
4405.000000	65.519809 
4404.000000	66.710400 
4403.000000	67.391633 
4402.000000	67.612648 
4401.000000	67.490983 
4400.000000	67.181563 
4399.000000	66.823053 
4398.000000	66.512823 
4397.000000	66.299843 
4396.000000	66.180038 
4395.000000	66.131806 
4394.000000	66.115140 
4393.000000	66.103219 
4392.000000	66.079592 
4391.000000	66.047120 
4390.000000	66.013193 
4389.000000	65.982794 
4388.000000	65.957117 
4387.000000	65.930533 
4386.000000	65.891909 
4385.000000	65.827727 
4384.000000	65.734505 
4383.000000	65.617704 
4382.000000	65.485715 
4381.000000	65.349364 
4380.000000	65.219259 
4379.000000	65.104126 
4378.000000	65.006923 
4377.000000	64.928388 
4376.000000	64.866876 
4375.000000	64.821767 
4374.000000	64.799571 
4373.000000	64.806199 
4372.000000	64.839243 
4371.000000	64.893174 
4370.000000	64.959573 
4369.000000	65.028262 
4368.000000	65.089178 
4367.000000	65.134096 
4366.000000	65.157318 
4365.000000	65.157914 
4364.000000	65.139698 
4363.000000	65.108370 
4362.000000	65.069842 
4361.000000	65.028142 
4360.000000	64.984869 
4359.000000	64.939951 
4358.000000	64.893054 
4357.000000	64.845561 
4356.000000	64.801049 
4355.000000	64.764928 
4354.000000	64.743113 
4353.000000	64.739727 
4352.000000	64.756250 
4351.000000	64.789938 
4350.000000	64.835000 
4349.000000	64.883804 
4348.000000	64.928960 
4347.000000	64.964413 
4346.000000	64.987754 
4345.000000	65.000200 
4344.000000	65.006566 
4343.000000	65.013599 
4342.000000	65.027999 
4341.000000	65.054655 
4340.000000	65.094566 
4339.000000	65.144681 
4338.000000	65.198063 
4337.000000	65.245747 
4336.000000	65.278697 
4335.000000	65.289926 
4334.000000	65.275812 
4333.000000	65.236973 
4332.000000	65.177154 
4331.000000	65.102291 
4330.000000	65.019440 
4329.000000	64.935398 
4328.000000	64.855790 
4327.000000	64.784479 
4326.000000	64.724493 
4325.000000	64.677047 
4324.000000	64.642238 
4323.000000	64.619183 
4322.000000	64.605617 
4321.000000	64.599037 
4320.000000	64.596629 
4319.000000	64.596152 
4318.000000	64.595437 
4317.000000	64.593768 
4316.000000	64.591097 
4315.000000	64.588332 
4314.000000	64.586281 
4313.000000	64.586186 
4312.000000	64.588975 
4311.000000	64.595556 
4310.000000	64.606285 
4309.000000	64.621567 
4308.000000	64.641785 
4307.000000	64.667463 
4306.000000	64.699029 
4305.000000	64.736580 
4304.000000	64.779448 
4303.000000	64.825940 
4302.000000	64.873647 
4301.000000	64.919185 
4300.000000	64.958715 
4299.000000	64.989280 
4298.000000	65.008521 
4297.000000	65.014982 
4296.000000	65.008258 
4295.000000	64.989781 
4294.000000	64.962291 
4293.000000	64.929461 
4292.000000	64.895415 
4291.000000	64.864373 
4290.000000	64.839529 
4289.000000	64.822912 
4288.000000	64.814496 
4287.000000	64.812445 
4286.000000	64.813899 
4285.000000	64.815926 
4284.000000	64.816427 
4283.000000	64.814710 
4282.000000	64.812159 
4281.000000	64.811658 
4280.000000	64.816856 
4279.000000	64.830827 
4278.000000	64.855170 
4277.000000	64.889597 
4276.000000	64.931368 
4275.000000	64.976406 
4274.000000	65.020513 
4273.000000	65.060639 
4272.000000	65.095710 
4271.000000	65.126657 
4270.000000	65.156149 
4269.000000	65.186524 
4268.000000	65.219473 
4267.000000	65.253543 
4266.000000	65.285086 
4265.000000	65.307712 
4264.000000	65.314722 
4263.000000	65.300440 
4262.000000	65.262103 
4261.000000	65.201115 
4260.000000	65.123558 
4259.000000	65.038752 
4258.000000	64.957332 
4257.000000	64.889001 
4256.000000	64.840626 
4255.000000	64.814519 
4254.000000	64.808297 
4253.000000	64.815998 
4252.000000	64.829850 
4251.000000	64.842343 
4250.000000	64.848589 
4249.000000	64.846539 
4248.000000	64.837694 
4247.000000	64.825940 
4246.000000	64.816451 
4245.000000	64.813280 
4244.000000	64.818811 
4243.000000	64.833211 
4242.000000	64.854598 
4241.000000	64.879846 
4240.000000	64.905452 
4239.000000	64.928770 
4238.000000	64.948630 
4237.000000	64.964962 
4236.000000	64.979100 
4235.000000	64.992642 
4234.000000	65.007495 
4233.000000	65.024995 
4232.000000	65.046167 
4231.000000	65.071630 
4230.000000	65.101861 
4229.000000	65.137147 
4228.000000	65.176963 
4227.000000	65.219879 
4226.000000	65.263414 
4225.000000	65.304112 
4224.000000	65.337777 
4223.000000	65.360069 
4222.000000	65.367674 
4221.000000	65.359091 
4220.000000	65.334725 
4219.000000	65.297079 
4218.000000	65.250515 
4217.000000	65.200161 
4216.000000	65.151238 
4215.000000	65.108108 
4214.000000	65.073943 
4213.000000	65.050554 
4212.000000	65.038084 
4211.000000	65.035605 
4210.000000	65.041446 
4209.000000	65.053606 
4208.000000	65.070176 
4207.000000	65.089416 
4206.000000	65.109133 
4205.000000	65.127396 
4204.000000	65.142250 
4203.000000	65.152049 
4202.000000	65.155482 
4201.000000	65.152215 
4200.000000	65.143299 
4199.000000	65.130734 
4198.000000	65.117335 
4197.000000	65.106225 
4196.000000	65.100288 
4195.000000	65.101265 
4194.000000	65.109896 
4193.000000	65.125608 
4192.000000	65.147280 
4191.000000	65.173339 
4190.000000	65.202188 
4189.000000	65.232872 
4188.000000	65.264725 
4187.000000	65.297532 
4186.000000	65.330576 
4185.000000	65.362620 
4184.000000	65.391445 
4183.000000	65.414357 
4182.000000	65.428328 
4181.000000	65.431022 
4180.000000	65.421128 
4179.000000	65.399122 
4178.000000	65.366649 
4177.000000	65.326285 
4176.000000	65.281295 
4175.000000	65.235233 
4174.000000	65.191483 
4173.000000	65.152788 
4172.000000	65.121459 
4171.000000	65.099167 
4170.000000	65.086746 
4169.000000	65.084004 
4168.000000	65.089511 
4167.000000	65.100884 
4166.000000	65.114903 
4165.000000	65.128469 
4164.000000	65.138769 
4163.000000	65.144252 
4162.000000	65.144944 
4161.000000	65.142035 
4160.000000	65.137481 
4159.000000	65.132617 
