PE IR       SPECTRUM    SPECTRUM    ASCII       PEDS        1.60        
  -1
BZCB7B~1.ASC
17/04/07
21:37:27.00
17/04/07
21:37:27.00
tln
$BZ1503107-1_t0102$<tbV0>[7.8,10.4,8.0,0.0,27,1,0]
370.000000
64









2002,4.07    
MIRTGS : RIGHTBACK : INTERNAL 2
MIR : ON : INTERNAL 2
OPTKBR

0.200000
8
8.000000
FILLER
RATIO
SPECTRUM
UNLOCKED 256

DOUBLE
64
COMBINED
1
0
0


1.000000
RATIO


1
0
TRUE
51149
0
LEFT NOT FITTED RIGHT NOT FITTED 0
NONE
NONE
15600
12.000000
4.427000
51148
TRUE
1 0 8 72 0 0 0 0 

15798.010000






#HDR
-1
-1
#GR
CM-1
%T
0.00002384185791015625
0.0
5000.000000
-1.000000
4631
8
79.772019
57.984113
#DATA
5000.000000	62.183761 
4999.000000	62.277126 
4998.000000	62.497806 
4997.000000	62.817573 
4996.000000	63.194441 
4995.000000	63.581848 
4994.000000	63.935494 
4993.000000	64.224195 
4992.000000	64.426493 
4991.000000	64.531087 
4990.000000	64.532470 
4989.000000	64.429044 
4988.000000	64.221858 
4987.000000	63.915634 
4986.000000	63.524937 
4985.000000	63.077282 
4984.000000	62.616062 
4983.000000	62.196397 
4982.000000	61.878252 
4981.000000	61.713457 
4980.000000	61.730933 
4979.000000	61.927223 
4978.000000	62.262201 
4977.000000	62.666678 
4976.000000	63.055014 
4975.000000	63.346290 
4974.000000	63.479232 
4973.000000	63.430070 
4972.000000	63.213849 
4971.000000	62.883615 
4970.000000	62.512421 
4969.000000	62.179160 
4968.000000	61.948585 
4967.000000	61.859655 
4966.000000	61.920142 
4965.000000	62.108254 
4964.000000	62.385201 
4963.000000	62.703061 
4962.000000	63.017964 
4961.000000	63.297700 
4960.000000	63.525462 
4959.000000	63.699698 
4958.000000	63.827824 
4957.000000	63.925933 
4956.000000	64.010834 
4955.000000	64.100360 
4954.000000	64.206719 
4953.000000	64.333844 
4952.000000	64.473605 
4951.000000	64.609551 
4950.000000	64.717388 
4949.000000	64.769029 
4948.000000	64.739489 
4947.000000	64.614009 
4946.000000	64.393830 
4945.000000	64.098548 
4944.000000	63.762664 
4943.000000	63.430380 
4942.000000	63.144278 
4941.000000	62.937831 
4940.000000	62.826538 
4939.000000	62.806057 
4938.000000	62.853789 
4937.000000	62.935161 
4936.000000	63.014411 
4935.000000	63.063740 
4934.000000	63.070178 
4933.000000	63.036751 
4932.000000	62.978911 
4931.000000	62.916684 
4930.000000	62.870001 
4929.000000	62.851762 
4928.000000	62.864542 
4927.000000	62.900400 
4926.000000	62.947416 
4925.000000	62.993431 
4924.000000	63.031077 
4923.000000	63.059186 
4922.000000	63.080811 
4921.000000	63.102364 
4920.000000	63.127160 
4919.000000	63.157629 
4918.000000	63.193082 
4917.000000	63.233184 
4916.000000	63.279843 
4915.000000	63.336801 
4914.000000	63.410043 
4913.000000	63.504266 
4912.000000	63.622522 
4911.000000	63.760900 
4910.000000	63.907694 
4909.000000	64.044880 
4908.000000	64.152407 
4907.000000	64.211893 
4906.000000	64.211940 
4905.000000	64.150738 
4904.000000	64.037537 
4903.000000	63.889813 
4902.000000	63.729715 
4901.000000	63.578557 
4900.000000	63.452768 
4899.000000	63.362121 
4898.000000	63.308763 
4897.000000	63.289451 
4896.000000	63.296890 
4895.000000	63.321876 
4894.000000	63.355875 
4893.000000	63.390278 
4892.000000	63.420343 
4891.000000	63.443589 
4890.000000	63.461947 
4889.000000	63.479757 
4888.000000	63.502740 
4887.000000	63.536190 
4886.000000	63.582563 
4885.000000	63.640642 
4884.000000	63.704395 
4883.000000	63.764834 
4882.000000	63.810896 
4881.000000	63.832235 
4880.000000	63.822555 
4879.000000	63.781809 
4878.000000	63.716292 
4877.000000	63.637638 
4876.000000	63.559746 
4875.000000	63.495516 
4874.000000	63.453316 
4873.000000	63.435196 
4872.000000	63.436651 
4871.000000	63.448786 
4870.000000	63.461589 
4869.000000	63.467597 
4868.000000	63.463401 
4867.000000	63.451719 
4866.000000	63.439750 
4865.000000	63.437962 
4864.000000	63.456368 
4863.000000	63.501811 
4862.000000	63.575649 
4861.000000	63.672518 
4860.000000	63.781642 
4859.000000	63.888072 
4858.000000	63.976931 
4857.000000	64.035201 
4856.000000	64.054703 
4855.000000	64.033627 
4854.000000	63.976263 
4853.000000	63.892436 
4852.000000	63.795065 
4851.000000	63.698005 
4850.000000	63.613629 
4849.000000	63.550853 
4848.000000	63.514304 
4847.000000	63.503813 
4846.000000	63.515353 
4845.000000	63.541960 
4844.000000	63.575410 
4843.000000	63.607645 
4842.000000	63.632678 
4841.000000	63.646531 
4840.000000	63.648462 
4839.000000	63.639974 
4838.000000	63.625216 
4837.000000	63.609099 
4836.000000	63.597202 
4835.000000	63.594555 
4834.000000	63.604855 
4833.000000	63.630008 
4832.000000	63.669610 
4831.000000	63.721394 
4830.000000	63.781046 
4829.000000	63.843107 
4828.000000	63.901638 
4827.000000	63.950753 
4826.000000	63.986229 
4825.000000	64.006161 
4824.000000	64.011073 
4823.000000	64.003682 
4822.000000	63.988280 
4821.000000	63.969588 
4820.000000	63.951778 
4819.000000	63.937520 
4818.000000	63.927674 
4817.000000	63.921713 
4816.000000	63.918328 
4815.000000	63.916540 
4814.000000	63.916492 
4813.000000	63.920331 
4812.000000	63.931274 
4811.000000	63.953280 
4810.000000	63.989830 
4809.000000	64.042592 
4808.000000	64.110398 
4807.000000	64.188957 
4806.000000	64.271521 
4805.000000	64.350056 
4804.000000	64.416933 
4803.000000	64.466333 
4802.000000	64.495587 
4801.000000	64.505076 
4800.000000	64.498186 
4799.000000	64.479374 
4798.000000	64.453434 
4797.000000	64.423346 
4796.000000	64.389944 
4795.000000	64.351391 
4794.000000	64.304518 
4793.000000	64.245748 
4792.000000	64.173245 
4791.000000	64.087796 
4790.000000	63.993835 
4789.000000	63.898658 
4788.000000	63.811516 
4787.000000	63.741564 
4786.000000	63.696241 
4785.000000	63.679051 
4784.000000	63.689422 
4783.000000	63.722705 
4782.000000	63.771462 
4781.000000	63.826990 
4780.000000	63.881063 
4779.000000	63.926815 
4778.000000	63.960123 
4777.000000	63.979148 
4776.000000	63.984441 
4775.000000	63.977837 
4774.000000	63.961839 
4773.000000	63.938593 
4772.000000	63.910150 
4771.000000	63.878536 
4770.000000	63.845801 
4769.000000	63.814473 
4768.000000	63.787508 
4767.000000	63.768076 
4766.000000	63.758969 
4765.000000	63.761973 
4764.000000	63.776755 
4763.000000	63.800835 
4762.000000	63.829421 
4761.000000	63.856840 
4760.000000	63.877224 
4759.000000	63.887047 
4758.000000	63.885283 
4757.000000	63.875079 
4756.000000	63.862895 
4755.000000	63.857626 
4754.000000	63.868474 
4753.000000	63.902330 
4752.000000	63.962554 
4751.000000	64.046645 
4750.000000	64.146804 
4749.000000	64.250779 
4748.000000	64.345002 
4747.000000	64.416790 
4746.000000	64.457225 
4745.000000	64.462924 
4744.000000	64.436817 
4743.000000	64.387321 
4742.000000	64.326262 
4741.000000	64.266061 
4740.000000	64.216828 
4739.000000	64.184689 
4738.000000	64.170718 
4737.000000	64.170932 
4736.000000	64.178037 
4735.000000	64.183545 
4734.000000	64.180231 
4733.000000	64.163827 
4732.000000	64.134073 
4731.000000	64.094352 
4730.000000	64.050245 
4729.000000	64.007806 
4728.000000	63.971471 
4727.000000	63.942980 
4726.000000	63.920664 
4725.000000	63.900613 
4724.000000	63.877677 
4723.000000	63.847255 
4722.000000	63.807082 
4721.000000	63.757872 
4720.000000	63.703656 
4719.000000	63.650369 
4718.000000	63.605213 
4717.000000	63.574504 
4716.000000	63.562488 
4715.000000	63.569808 
4714.000000	63.594079 
4713.000000	63.630199 
4712.000000	63.671755 
4711.000000	63.712358 
4710.000000	63.746619 
4709.000000	63.771486 
4708.000000	63.786411 
4707.000000	63.793516 
4706.000000	63.796877 
4705.000000	63.801479 
4704.000000	63.812398 
4703.000000	63.832879 
4702.000000	63.863658 
4701.000000	63.902473 
4700.000000	63.944935 
4699.000000	63.985419 
4698.000000	64.018845 
4697.000000	64.041304 
4696.000000	64.052128 
4695.000000	64.052653 
4694.000000	64.045596 
4693.000000	64.034366 
4692.000000	64.021992 
4691.000000	64.010810 
4690.000000	64.001893 
4689.000000	63.995981 
4688.000000	63.993644 
4687.000000	63.995242 
4686.000000	64.001083 
4685.000000	64.011001 
4684.000000	64.024066 
4683.000000	64.037990 
4682.000000	64.049696 
4681.000000	64.055514 
4680.000000	64.052772 
4679.000000	64.041090 
4678.000000	64.023065 
4677.000000	64.003920 
4676.000000	63.990235 
4675.000000	63.988494 
4674.000000	64.003181 
4673.000000	64.034676 
4672.000000	64.079952 
4671.000000	64.133262 
4670.000000	64.187979 
4669.000000	64.238405 
4668.000000	64.280986 
4667.000000	64.315533 
4666.000000	64.344072 
4665.000000	64.369916 
4664.000000	64.396071 
4663.000000	64.423727 
4662.000000	64.451932 
4661.000000	64.477705 
4660.000000	64.497303 
4659.000000	64.507484 
4658.000000	64.507031 
4657.000000	64.497303 
4656.000000	64.481902 
4655.000000	64.465570 
4654.000000	64.452672 
4653.000000	64.445447 
4652.000000	64.443707 
4651.000000	64.444112 
4650.000000	64.441800 
4649.000000	64.431309 
4648.000000	64.408302 
4647.000000	64.370918 
4646.000000	64.320468 
4645.000000	64.261269 
4644.000000	64.199638 
4643.000000	64.142823 
4642.000000	64.097118 
4641.000000	64.066958 
4640.000000	64.054250 
4639.000000	64.058160 
4638.000000	64.075231 
4637.000000	64.100837 
4636.000000	64.130282 
4635.000000	64.159059 
4634.000000	64.183425 
4633.000000	64.200830 
4632.000000	64.209747 
4631.000000	64.209556 
4630.000000	64.200162 
4629.000000	64.182257 
4628.000000	64.157390 
4627.000000	64.127874 
4626.000000	64.096832 
4625.000000	64.068031 
4624.000000	64.045691 
4623.000000	64.033627 
4622.000000	64.034581 
4621.000000	64.049816 
4620.000000	64.078450 
4619.000000	64.117670 
4618.000000	64.162921 
4617.000000	64.208698 
4616.000000	64.248991 
4615.000000	64.278793 
4614.000000	64.294242 
4613.000000	64.293265 
4612.000000	64.275789 
4611.000000	64.243769 
4610.000000	64.200258 
4609.000000	64.149045 
4608.000000	64.093875 
4607.000000	64.038419 
4606.000000	63.985538 
4605.000000	63.937401 
4604.000000	63.895368 
4603.000000	63.860106 
4602.000000	63.831639 
4601.000000	63.809680 
4600.000000	63.793301 
4599.000000	63.781332 
4598.000000	63.772058 
4597.000000	63.763737 
4596.000000	63.754463 
4595.000000	63.742971 
4594.000000	63.728499 
4593.000000	63.711762 
4592.000000	63.693904 
4591.000000	63.677191 
4590.000000	63.663721 
4589.000000	63.655495 
4588.000000	63.653445 
4587.000000	63.657689 
4586.000000	63.667774 
4585.000000	63.682460 
4584.000000	63.700079 
4583.000000	63.718295 
4582.000000	63.734745 
4581.000000	63.746833 
4580.000000	63.752293 
4579.000000	63.749766 
4578.000000	63.738942 
4577.000000	63.721132 
4576.000000	63.698935 
4575.000000	63.675498 
4574.000000	63.653707 
4573.000000	63.635706 
4572.000000	63.622379 
4571.000000	63.613176 
4570.000000	63.606142 
4569.000000	63.599181 
4568.000000	63.590097 
4567.000000	63.577651 
4566.000000	63.561296 
4565.000000	63.541555 
4564.000000	63.519287 
4563.000000	63.495206 
4562.000000	63.469648 
4561.000000	63.442182 
4560.000000	63.412523 
4559.000000	63.380742 
4558.000000	63.347864 
4557.000000	63.315868 
4556.000000	63.287377 
4555.000000	63.265180 
4554.000000	63.251280 
4553.000000	63.246226 
4552.000000	63.249158 
4551.000000	63.258075 
4550.000000	63.270449 
4549.000000	63.283967 
4548.000000	63.297128 
4547.000000	63.309621 
4546.000000	63.321924 
4545.000000	63.335084 
4544.000000	63.349962 
4543.000000	63.366723 
4542.000000	63.384580 
4541.000000	63.401627 
4540.000000	63.415718 
4539.000000	63.424539 
4538.000000	63.427019 
4537.000000	63.422703 
4536.000000	63.411903 
4535.000000	63.395237 
4534.000000	63.373732 
4533.000000	63.348364 
4532.000000	63.320112 
4531.000000	63.289880 
4530.000000	63.258862 
4529.000000	63.228416 
4528.000000	63.200020 
4527.000000	63.175392 
4526.000000	63.156223 
4525.000000	63.144469 
4524.000000	63.141632 
4523.000000	63.148593 
4522.000000	63.164997 
4521.000000	63.188815 
4520.000000	63.216304 
4519.000000	63.242006 
4518.000000	63.259792 
4517.000000	63.263893 
4516.000000	63.250923 
4515.000000	63.220334 
4514.000000	63.176059 
4513.000000	63.126206 
4512.000000	63.081645 
4511.000000	63.053870 
4510.000000	63.051342 
4509.000000	63.077449 
4508.000000	63.128805 
4507.000000	63.195919 
4506.000000	63.264942 
4505.000000	63.321304 
4504.000000	63.353037 
4503.000000	63.354301 
4502.000000	63.325357 
4501.000000	63.271975 
4500.000000	63.203549 
4499.000000	63.130140 
4498.000000	63.059997 
4497.000000	62.997698 
4496.000000	62.944507 
4495.000000	62.899017 
4494.000000	62.858939 
4493.000000	62.822175 
4492.000000	62.788701 
4491.000000	62.759995 
4490.000000	62.737035 
4489.000000	62.720108 
4488.000000	62.707662 
4487.000000	62.696933 
4486.000000	62.683105 
4485.000000	62.662410 
4484.000000	62.634205 
4483.000000	62.601637 
4482.000000	62.568616 
4481.000000	62.541937 
4480.000000	62.531375 
4479.000000	62.544846 
4478.000000	62.581896 
4477.000000	62.640047 
4476.000000	62.719154 
4475.000000	62.813520 
4474.000000	62.910628 
4473.000000	62.998723 
4472.000000	63.069057 
4471.000000	63.117599 
4470.000000	63.147139 
4469.000000	63.158392 
4468.000000	63.150668 
4467.000000	63.131260 
4466.000000	63.114142 
4465.000000	63.115191 
4464.000000	63.149833 
4463.000000	63.229680 
4462.000000	63.361597 
4461.000000	63.535809 
4460.000000	63.739418 
4459.000000	63.964247 
4458.000000	64.211034 
4457.000000	64.487004 
4456.000000	64.809823 
4455.000000	65.179777 
4454.000000	65.613794 
4453.000000	66.109967 
4452.000000	66.705608 
4451.000000	67.475152 
4450.000000	68.512225 
4449.000000	69.924092 
4448.000000	71.733379 
4447.000000	73.854207 
4446.000000	76.058983 
4445.000000	78.011417 
4444.000000	79.349350 
4443.000000	79.772019 
4442.000000	79.134607 
4441.000000	77.487635 
4440.000000	75.045895 
4439.000000	72.140669 
4438.000000	69.127583 
4437.000000	66.320872 
4436.000000	63.954710 
4435.000000	62.148809 
4434.000000	60.942387 
4433.000000	60.286068 
4432.000000	60.077834 
4431.000000	60.189080 
4430.000000	60.465121 
4429.000000	60.785746 
4428.000000	61.053991 
4427.000000	61.238145 
4426.000000	61.334133 
4425.000000	61.387610 
4424.000000	61.454463 
4423.000000	61.595654 
4422.000000	61.845612 
4421.000000	62.214565 
4420.000000	62.686061 
4419.000000	63.217926 
4418.000000	63.754010 
4417.000000	64.237737 
4416.000000	64.626526 
4415.000000	64.896559 
4414.000000	65.046238 
4413.000000	65.096330 
4412.000000	65.080952 
4411.000000	65.036273 
4410.000000	64.990568 
4409.000000	64.958882 
4408.000000	64.939069 
4407.000000	64.930391 
4406.000000	64.924812 
4405.000000	64.905476 
4404.000000	64.854526 
4403.000000	64.765715 
4402.000000	64.640045 
4401.000000	64.482879 
4400.000000	64.305758 
4399.000000	64.123964 
4398.000000	63.952517 
4397.000000	63.803482 
4396.000000	63.683009 
4395.000000	63.589382 
4394.000000	63.517284 
4393.000000	63.460779 
4392.000000	63.414525 
4391.000000	63.375282 
4390.000000	63.341641 
4389.000000	63.313412 
4388.000000	63.288259 
4387.000000	63.261723 
4386.000000	63.230466 
4385.000000	63.193535 
4384.000000	63.152170 
4383.000000	63.111042 
4382.000000	63.078260 
4381.000000	63.063335 
4380.000000	63.073945 
4379.000000	63.114094 
4378.000000	63.181686 
4377.000000	63.269257 
4376.000000	63.365316 
4375.000000	63.457584 
4374.000000	63.535451 
4373.000000	63.592863 
4372.000000	63.629460 
4371.000000	63.649821 
4370.000000	63.661122 
4369.000000	63.671064 
4368.000000	63.685441 
4367.000000	63.706111 
4366.000000	63.730573 
4365.000000	63.753604 
4364.000000	63.769555 
4363.000000	63.773250 
4362.000000	63.761758 
4361.000000	63.735079 
4360.000000	63.696575 
4359.000000	63.651871 
4358.000000	63.608074 
4357.000000	63.572335 
4356.000000	63.550615 
4355.000000	63.546943 
4354.000000	63.562440 
4353.000000	63.595795 
4352.000000	63.642930 
4351.000000	63.697814 
4350.000000	63.753366 
4349.000000	63.802123 
4348.000000	63.837885 
4347.000000	63.856863 
4346.000000	63.858032 
4345.000000	63.843035 
4344.000000	63.815903 
4343.000000	63.782334 
4342.000000	63.747763 
4341.000000	63.716363 
4340.000000	63.690066 
4339.000000	63.668751 
4338.000000	63.650584 
4337.000000	63.632845 
4336.000000	63.613128 
4335.000000	63.590335 
4334.000000	63.564825 
4333.000000	63.538694 
4332.000000	63.514876 
4331.000000	63.496613 
4330.000000	63.486433 
4329.000000	63.485717 
4328.000000	63.494563 
4327.000000	63.511562 
4326.000000	63.534998 
4325.000000	63.562226 
4324.000000	63.590025 
4323.000000	63.614583 
4322.000000	63.632059 
4321.000000	63.638901 
4320.000000	63.632154 
4319.000000	63.610243 
4318.000000	63.573670 
4317.000000	63.525176 
4316.000000	63.469910 
4315.000000	63.414311 
4314.000000	63.365221 
4313.000000	63.328266 
4312.000000	63.307046 
4311.000000	63.302206 
4310.000000	63.311457 
4309.000000	63.330650 
4308.000000	63.354802 
4307.000000	63.379383 
4306.000000	63.401532 
4305.000000	63.420271 
4304.000000	63.436698 
4303.000000	63.452792 
4302.000000	63.471078 
4301.000000	63.493609 
4300.000000	63.521718 
4299.000000	63.555884 
4298.000000	63.595771 
4297.000000	63.640713 
4296.000000	63.689756 
4295.000000	63.742065 
4294.000000	63.796210 
4293.000000	63.850259 
4292.000000	63.901090 
4291.000000	63.944959 
4290.000000	63.977479 
4289.000000	63.994765 
4288.000000	63.994097 
4287.000000	63.975214 
4286.000000	63.939952 
4285.000000	63.892340 
4284.000000	63.837909 
4283.000000	63.783025 
4282.000000	63.733530 
4281.000000	63.693881 
4280.000000	63.666629 
4279.000000	63.652229 
4278.000000	63.649010 
4277.000000	63.654136 
4276.000000	63.663768 
4275.000000	63.674521 
4274.000000	63.683986 
4273.000000	63.691544 
4272.000000	63.697695 
4271.000000	63.704252 
4270.000000	63.713359 
4269.000000	63.727092 
4268.000000	63.746404 
4267.000000	63.771057 
4266.000000	63.799762 
4265.000000	63.830494 
4264.000000	63.860821 
4263.000000	63.888764 
4262.000000	63.913440 
4261.000000	63.934683 
4260.000000	63.953018 
4259.000000	63.968825 
4258.000000	63.981938 
4257.000000	63.991212 
4256.000000	63.994741 
4255.000000	63.990640 
4254.000000	63.977742 
4253.000000	63.956427 
4252.000000	63.928890 
4251.000000	63.899016 
4250.000000	63.871574 
4249.000000	63.851070 
4248.000000	63.840675 
4247.000000	63.841438 
4246.000000	63.852095 
4245.000000	63.869309 
4244.000000	63.888955 
4243.000000	63.906884 
4242.000000	63.920116 
4241.000000	63.927435 
4240.000000	63.929295 
4239.000000	63.927268 
4238.000000	63.923668 
4237.000000	63.920545 
4236.000000	63.919448 
4235.000000	63.920998 
4234.000000	63.924908 
4233.000000	63.930487 
4232.000000	63.936185 
4231.000000	63.940238 
4230.000000	63.940262 
4229.000000	63.933873 
4228.000000	63.918542 
4227.000000	63.892316 
4226.000000	63.854360 
4225.000000	63.805556 
4224.000000	63.748908 
4223.000000	63.689351 
4222.000000	63.633275 
4221.000000	63.587284 
4220.000000	63.556861 
4219.000000	63.545536 
4218.000000	63.553714 
4217.000000	63.579392 
4216.000000	63.618254 
4215.000000	63.665771 
4214.000000	63.717317 
4213.000000	63.770079 
4212.000000	63.822722 
4211.000000	63.875651 
4210.000000	63.929390 
4209.000000	63.984584 
4208.000000	64.040589 
4207.000000	64.095544 
4206.000000	64.146757 
4205.000000	64.191102 
4204.000000	64.225840 
4203.000000	64.249587 
4202.000000	64.262986 
4201.000000	64.267730 
4200.000000	64.266157 
4199.000000	64.260530 
4198.000000	64.252376 
4197.000000	64.242100 
4196.000000	64.229178 
4195.000000	64.212989 
4194.000000	64.193224 
4193.000000	64.170455 
4192.000000	64.146447 
4191.000000	64.123773 
4190.000000	64.105749 
4189.000000	64.095354 
4188.000000	64.094829 
4187.000000	64.104652 
4186.000000	64.123582 
4185.000000	64.148545 
4184.000000	64.175581 
4183.000000	64.199948 
4182.000000	64.218401 
4181.000000	64.229679 
4180.000000	64.235091 
4179.000000	64.237594 
4178.000000	64.241838 
4177.000000	64.252638 
4176.000000	64.273452 
4175.000000	64.305067 
4174.000000	64.345812 
4173.000000	64.391922 
4172.000000	64.437961 
4171.000000	64.478087 
4170.000000	64.507460 
4169.000000	64.523029 
4168.000000	64.524030 
4167.000000	64.511609 
4166.000000	64.488029 
4165.000000	64.455938 
4164.000000	64.418029 
4163.000000	64.376497 
4162.000000	64.333128 
4161.000000	64.289236 
4160.000000	64.246702 
4159.000000	64.207291 
