PE IR       SPECTRUM    SPECTRUM    ASCII       PEDS        1.60        
  -1
BZ6A24~1.ASC
17/04/07
16:38:14.00
17/04/07
16:38:14.00
tln
$BZ1503107-1_t0042$<tbV0>[-7.8,-5.2,8.0,0.0,27,1,0]
370.000000
64









2002,4.07    
MIRTGS : RIGHTBACK : INTERNAL 2
MIR : ON : INTERNAL 2
OPTKBR

0.200000
8
8.000000
FILLER
RATIO
SPECTRUM
UNLOCKED 256

DOUBLE
64
COMBINED
1
0
0


1.000000
RATIO


1
0
TRUE
51149
0
LEFT NOT FITTED RIGHT NOT FITTED 0
NONE
NONE
15600
12.000000
4.427000
51148
TRUE
1 0 8 72 0 0 0 0 

15798.010000






#HDR
-1
-1
#GR
CM-1
%T
0.00002384185791015625
0.0
5000.000000
-1.000000
4631
8
83.852910
53.647685
#DATA
5000.000000	65.106916 
4999.000000	65.056204 
4998.000000	65.015292 
4997.000000	64.987969 
4996.000000	64.975428 
4995.000000	64.976859 
4994.000000	64.989471 
4993.000000	65.009617 
4992.000000	65.032672 
4991.000000	65.053915 
4990.000000	65.068817 
4989.000000	65.073275 
4988.000000	65.064144 
4987.000000	65.039300 
4986.000000	64.998078 
4985.000000	64.941430 
4984.000000	64.872050 
4983.000000	64.794254 
4982.000000	64.713168 
4981.000000	64.634156 
4980.000000	64.562273 
4979.000000	64.501190 
4978.000000	64.452552 
4977.000000	64.415431 
4976.000000	64.386487 
4975.000000	64.361166 
4974.000000	64.333677 
4973.000000	64.300155 
4972.000000	64.259123 
4971.000000	64.213466 
4970.000000	64.169311 
4969.000000	64.135456 
4968.000000	64.120769 
4967.000000	64.132285 
4966.000000	64.172530 
4965.000000	64.238977 
4964.000000	64.324116 
4963.000000	64.416599 
4962.000000	64.503622 
4961.000000	64.573383 
4960.000000	64.617490 
4959.000000	64.632511 
4958.000000	64.620447 
4957.000000	64.587759 
4956.000000	64.543199 
4955.000000	64.496517 
4954.000000	64.456009 
4953.000000	64.426493 
4952.000000	64.408516 
4951.000000	64.399743 
4950.000000	64.395642 
4949.000000	64.390778 
4948.000000	64.380836 
4947.000000	64.363884 
4946.000000	64.340829 
4945.000000	64.315176 
4944.000000	64.291191 
4943.000000	64.273118 
4942.000000	64.262509 
4941.000000	64.257407 
4940.000000	64.252614 
4939.000000	64.240789 
4938.000000	64.215016 
4937.000000	64.171028 
4936.000000	64.109778 
4935.000000	64.037609 
4934.000000	63.965821 
4933.000000	63.908123 
4932.000000	63.877558 
4931.000000	63.882923 
4930.000000	63.927817 
4929.000000	64.009690 
4928.000000	64.120388 
4927.000000	64.247798 
4926.000000	64.378809 
4925.000000	64.501357 
4924.000000	64.606261 
4923.000000	64.687705 
4922.000000	64.742779 
4921.000000	64.771175 
4920.000000	64.774155 
4919.000000	64.754438 
4918.000000	64.716124 
4917.000000	64.664125 
4916.000000	64.605665 
4915.000000	64.548039 
4914.000000	64.499235 
4913.000000	64.465641 
4912.000000	64.451980 
4911.000000	64.459729 
4910.000000	64.486861 
4909.000000	64.528250 
4908.000000	64.577007 
4907.000000	64.625024 
4906.000000	64.664602 
4905.000000	64.689493 
4904.000000	64.695882 
4903.000000	64.682579 
4902.000000	64.651107 
4901.000000	64.605426 
4900.000000	64.551091 
4899.000000	64.494943 
4898.000000	64.443755 
4897.000000	64.403676 
4896.000000	64.378833 
4895.000000	64.370584 
4894.000000	64.377427 
4893.000000	64.394664 
4892.000000	64.416289 
4891.000000	64.435863 
4890.000000	64.449024 
4889.000000	64.453577 
4888.000000	64.450955 
4887.000000	64.444851 
4886.000000	64.441204 
4885.000000	64.445590 
4884.000000	64.462757 
4883.000000	64.494848 
4882.000000	64.541220 
4881.000000	64.598703 
4880.000000	64.662194 
4879.000000	64.725732 
4878.000000	64.783501 
4877.000000	64.830803 
4876.000000	64.864373 
4875.000000	64.882779 
4874.000000	64.886498 
4873.000000	64.877843 
4872.000000	64.861273 
4871.000000	64.842963 
4870.000000	64.830303 
4869.000000	64.830374 
4868.000000	64.848828 
4867.000000	64.888429 
4866.000000	64.948439 
4865.000000	65.024256 
4864.000000	65.108704 
4863.000000	65.192914 
4862.000000	65.268373 
4861.000000	65.327882 
4860.000000	65.367031 
4859.000000	65.383982 
4858.000000	65.379595 
4857.000000	65.356469 
4856.000000	65.318155 
4855.000000	65.268850 
4854.000000	65.213227 
4853.000000	65.156126 
4852.000000	65.102934 
4851.000000	65.058803 
4850.000000	65.028572 
4849.000000	65.015459 
4848.000000	65.020442 
4847.000000	65.040969 
4846.000000	65.071320 
4845.000000	65.103673 
4844.000000	65.129566 
4843.000000	65.141606 
4842.000000	65.134978 
4841.000000	65.108251 
4840.000000	65.063381 
4839.000000	65.004849 
4838.000000	64.938902 
4837.000000	64.871978 
4836.000000	64.810276 
4835.000000	64.758110 
4834.000000	64.718937 
4833.000000	64.695405 
4832.000000	64.689779 
4831.000000	64.703345 
4830.000000	64.736771 
4829.000000	64.789438 
4828.000000	64.858818 
4827.000000	64.939737 
4826.000000	65.024924 
4825.000000	65.105271 
4824.000000	65.172076 
4823.000000	65.218305 
4822.000000	65.240025 
4821.000000	65.236926 
4820.000000	65.213227 
4819.000000	65.176606 
4818.000000	65.136551 
4817.000000	65.102100 
4816.000000	65.080523 
4815.000000	65.075016 
4814.000000	65.085101 
4813.000000	65.105843 
4812.000000	65.129661 
4811.000000	65.147709 
4810.000000	65.152359 
4809.000000	65.138649 
4808.000000	65.105128 
4807.000000	65.054416 
4806.000000	64.991855 
4805.000000	64.925169 
4804.000000	64.862608 
4803.000000	64.811849 
4802.000000	64.778304 
4801.000000	64.765167 
4800.000000	64.773368 
4799.000000	64.802002 
4798.000000	64.848995 
4797.000000	64.911580 
4796.000000	64.986419 
4795.000000	65.069770 
4794.000000	65.157365 
4793.000000	65.243887 
4792.000000	65.322899 
4791.000000	65.387630 
4790.000000	65.431332 
4789.000000	65.448689 
4788.000000	65.436339 
4787.000000	65.393376 
4786.000000	65.321731 
4785.000000	65.227079 
4784.000000	65.117955 
4783.000000	65.004682 
4782.000000	64.898324 
4781.000000	64.809465 
4780.000000	64.746713 
4779.000000	64.715456 
4778.000000	64.717268 
4777.000000	64.749383 
4776.000000	64.805936 
4775.000000	64.878654 
4774.000000	64.958882 
4773.000000	65.038084 
4772.000000	65.109729 
4771.000000	65.169358 
4770.000000	65.214872 
4769.000000	65.245795 
4768.000000	65.262603 
4767.000000	65.266227 
4766.000000	65.257763 
4765.000000	65.238904 
4764.000000	65.213060 
4763.000000	65.185618 
4762.000000	65.163898 
4761.000000	65.156078 
4760.000000	65.169930 
4759.000000	65.210914 
4758.000000	65.280222 
4757.000000	65.374302 
4756.000000	65.484952 
4755.000000	65.600514 
4754.000000	65.708708 
4753.000000	65.797877 
4752.000000	65.859460 
4751.000000	65.888857 
4750.000000	65.886378 
4749.000000	65.856194 
4748.000000	65.804862 
4747.000000	65.740275 
4746.000000	65.670609 
4745.000000	65.603137 
4744.000000	65.543937 
4743.000000	65.497255 
4742.000000	65.465760 
4741.000000	65.449881 
4740.000000	65.448141 
4739.000000	65.456676 
4738.000000	65.470099 
4737.000000	65.482783 
4736.000000	65.490245 
4735.000000	65.489864 
4734.000000	65.481781 
4733.000000	65.468525 
4732.000000	65.454840 
4731.000000	65.445470 
4730.000000	65.444493 
4729.000000	65.454196 
4728.000000	65.474319 
4727.000000	65.502071 
4726.000000	65.532946 
4725.000000	65.561938 
4724.000000	65.584874 
4723.000000	65.598869 
4722.000000	65.603709 
4721.000000	65.602040 
4720.000000	65.598440 
4719.000000	65.597677 
4718.000000	65.604186 
4717.000000	65.620470 
4716.000000	65.646600 
4715.000000	65.680146 
4714.000000	65.716552 
4713.000000	65.750217 
4712.000000	65.775847 
4711.000000	65.789699 
4710.000000	65.790009 
4709.000000	65.777158 
4708.000000	65.753483 
4707.000000	65.722322 
4706.000000	65.686917 
4705.000000	65.649485 
4704.000000	65.611433 
4703.000000	65.573072 
4702.000000	65.534710 
4701.000000	65.496659 
4700.000000	65.460181 
4699.000000	65.426659 
4698.000000	65.397691 
4697.000000	65.374302 
4696.000000	65.355992 
4695.000000	65.341329 
4694.000000	65.327858 
4693.000000	65.312886 
4692.000000	65.294027 
4691.000000	65.269947 
4690.000000	65.240669 
4689.000000	65.207386 
4688.000000	65.172028 
4687.000000	65.137028 
4686.000000	65.104961 
4685.000000	65.078282 
4684.000000	65.059256 
4683.000000	65.050387 
4682.000000	65.053987 
4681.000000	65.072369 
4680.000000	65.106606 
4679.000000	65.156126 
4678.000000	65.217804 
4677.000000	65.286111 
4676.000000	65.353322 
4675.000000	65.410780 
4674.000000	65.450429 
4673.000000	65.466952 
4672.000000	65.458559 
4671.000000	65.427803 
4670.000000	65.380764 
4669.000000	65.326094 
4668.000000	65.272450 
4667.000000	65.227389 
4666.000000	65.195083 
4665.000000	65.176367 
4664.000000	65.168905 
4663.000000	65.168380 
4662.000000	65.170121 
4661.000000	65.170407 
4660.000000	65.167355 
4659.000000	65.161395 
4658.000000	65.154767 
4657.000000	65.150618 
4656.000000	65.152263 
4655.000000	65.162444 
4654.000000	65.182733 
4653.000000	65.212965 
4652.000000	65.251755 
4651.000000	65.296101 
4650.000000	65.342211 
4649.000000	65.385317 
4648.000000	65.420675 
4647.000000	65.443563 
4646.000000	65.450191 
4645.000000	65.438103 
4644.000000	65.406823 
4643.000000	65.357732 
4642.000000	65.294313 
4641.000000	65.221047 
4640.000000	65.142941 
4639.000000	65.064668 
4638.000000	64.990305 
4637.000000	64.922881 
4636.000000	64.864373 
4635.000000	64.816212 
4634.000000	64.779376 
4633.000000	64.754724 
4632.000000	64.742684 
4631.000000	64.742684 
4630.000000	64.752960 
4629.000000	64.770317 
4628.000000	64.790511 
4627.000000	64.808559 
4626.000000	64.819669 
4625.000000	64.820146 
4624.000000	64.808297 
4623.000000	64.784860 
4622.000000	64.752674 
4621.000000	64.716148 
4620.000000	64.680361 
4619.000000	64.649629 
4618.000000	64.627361 
4617.000000	64.615583 
4616.000000	64.615106 
4615.000000	64.625620 
4614.000000	64.646005 
4613.000000	64.674949 
4612.000000	64.710330 
4611.000000	64.749622 
4610.000000	64.789247 
4609.000000	64.824342 
4608.000000	64.849519 
4607.000000	64.859747 
4606.000000	64.851260 
4605.000000	64.822626 
4604.000000	64.775967 
4603.000000	64.716911 
4602.000000	64.653730 
4601.000000	64.595794 
4600.000000	64.551997 
4599.000000	64.528512 
4598.000000	64.527797 
4597.000000	64.547705 
4596.000000	64.582252 
4595.000000	64.622640 
4594.000000	64.659118 
4593.000000	64.683198 
4592.000000	64.688849 
4591.000000	64.674186 
4590.000000	64.641141 
4589.000000	64.595389 
4588.000000	64.544320 
4587.000000	64.495754 
4586.000000	64.456415 
4585.000000	64.430427 
4584.000000	64.418935 
4583.000000	64.420056 
4582.000000	64.429855 
4581.000000	64.443230 
4580.000000	64.455294 
4579.000000	64.462423 
4578.000000	64.462876 
4577.000000	64.456653 
4576.000000	64.445090 
4575.000000	64.429807 
4574.000000	64.412212 
4573.000000	64.393043 
4572.000000	64.372730 
4571.000000	64.351582 
4570.000000	64.330172 
4569.000000	64.310193 
4568.000000	64.293646 
4567.000000	64.282488 
4566.000000	64.277410 
4565.000000	64.277315 
4564.000000	64.279007 
4563.000000	64.277625 
4562.000000	64.267706 
4561.000000	64.244270 
4560.000000	64.204859 
4559.000000	64.150524 
4558.000000	64.086174 
4557.000000	64.019393 
4556.000000	63.959121 
4555.000000	63.913464 
4554.000000	63.888192 
4553.000000	63.885402 
4552.000000	63.904023 
4551.000000	63.940191 
4550.000000	63.988924 
4549.000000	64.045381 
4548.000000	64.105200 
4547.000000	64.164948 
4546.000000	64.222145 
4545.000000	64.274668 
4544.000000	64.320063 
4543.000000	64.355397 
4542.000000	64.378070 
4541.000000	64.385557 
4540.000000	64.376640 
4539.000000	64.351010 
4538.000000	64.310789 
4537.000000	64.259171 
4536.000000	64.200663 
4535.000000	64.139676 
4534.000000	64.080333 
4533.000000	64.025402 
4532.000000	63.976621 
4531.000000	63.934206 
4530.000000	63.897180 
4529.000000	63.864302 
4528.000000	63.834428 
4527.000000	63.807439 
4526.000000	63.784098 
4525.000000	63.767266 
4524.000000	63.761234 
4523.000000	63.771295 
4522.000000	63.802218 
4521.000000	63.857150 
4520.000000	63.936471 
4519.000000	64.036583 
4518.000000	64.150023 
4517.000000	64.266371 
4516.000000	64.373779 
4515.000000	64.461398 
4514.000000	64.521026 
4513.000000	64.549207 
4512.000000	64.546895 
4511.000000	64.519596 
4510.000000	64.474606 
4509.000000	64.420032 
4508.000000	64.361524 
4507.000000	64.302062 
4506.000000	64.241147 
4505.000000	64.177036 
4504.000000	64.107251 
4503.000000	64.031338 
4502.000000	63.950300 
4501.000000	63.867259 
4500.000000	63.786315 
4499.000000	63.711547 
4498.000000	63.646221 
4497.000000	63.592028 
4496.000000	63.549041 
4495.000000	63.516235 
4494.000000	63.492226 
4493.000000	63.476443 
4492.000000	63.469314 
4491.000000	63.472843 
4490.000000	63.489890 
4489.000000	63.522958 
4488.000000	63.573551 
4487.000000	63.639497 
4486.000000	63.714432 
4485.000000	63.787293 
4484.000000	63.844227 
4483.000000	63.871240 
4482.000000	63.857579 
4481.000000	63.798546 
4480.000000	63.697957 
4479.000000	63.566923 
4478.000000	63.421368 
4477.000000	63.279533 
4476.000000	63.158464 
4475.000000	63.070511 
4474.000000	63.021636 
4473.000000	63.010406 
4472.000000	63.029885 
4471.000000	63.067626 
4470.000000	63.109374 
4469.000000	63.142895 
4468.000000	63.161420 
4467.000000	63.163661 
4466.000000	63.154864 
4465.000000	63.146328 
4464.000000	63.152766 
4463.000000	63.187074 
4462.000000	63.256883 
4461.000000	63.366055 
4460.000000	63.510513 
4459.000000	63.672924 
4458.000000	63.831424 
4457.000000	63.968229 
4456.000000	64.072394 
4455.000000	64.138126 
4454.000000	64.170503 
4453.000000	64.191389 
4452.000000	64.221596 
4451.000000	64.271330 
4450.000000	64.339089 
4449.000000	64.408755 
4448.000000	64.461636 
4447.000000	64.484763 
4446.000000	64.476752 
4445.000000	64.451026 
4444.000000	64.432454 
4443.000000	64.451384 
4442.000000	64.533591 
4441.000000	64.694046 
4440.000000	64.930725 
4439.000000	65.229606 
4438.000000	65.567016 
4437.000000	65.924668 
4436.000000	66.294932 
4435.000000	66.694617 
4434.000000	67.143797 
4433.000000	67.684388 
4432.000000	68.363237 
4431.000000	69.236183 
4430.000000	70.340204 
4429.000000	71.695733 
4428.000000	73.307204 
4427.000000	75.135564 
4426.000000	77.112698 
4425.000000	79.111146 
4424.000000	80.971360 
4423.000000	82.499980 
4422.000000	83.509063 
4421.000000	83.852910 
4420.000000	83.467960 
4419.000000	82.402586 
4418.000000	80.820894 
4417.000000	78.986358 
4416.000000	77.212905 
4415.000000	75.804281 
4414.000000	74.984955 
4413.000000	74.851393 
4412.000000	75.343632 
4411.000000	76.262569 
4410.000000	77.310681 
4409.000000	78.163909 
4408.000000	78.544473 
4407.000000	78.274321 
4406.000000	77.317810 
4405.000000	75.773382 
4404.000000	73.851370 
4403.000000	71.803808 
4402.000000	69.878244 
4401.000000	68.267703 
4400.000000	67.075943 
4399.000000	66.316795 
4398.000000	65.922451 
4397.000000	65.790200 
4396.000000	65.800118 
4395.000000	65.846848 
4394.000000	65.859818 
4393.000000	65.805625 
4392.000000	65.682482 
4391.000000	65.497112 
4390.000000	65.274262 
4389.000000	65.039896 
4388.000000	64.824056 
4387.000000	64.652180 
4386.000000	64.539623 
4385.000000	64.488220 
4384.000000	64.490151 
4383.000000	64.528822 
4382.000000	64.577031 
4381.000000	64.606976 
4380.000000	64.599633 
4379.000000	64.548087 
4378.000000	64.457273 
4377.000000	64.342308 
4376.000000	64.220809 
4375.000000	64.110016 
4374.000000	64.020514 
4373.000000	63.955974 
4372.000000	63.917732 
4371.000000	63.900279 
4370.000000	63.889575 
4369.000000	63.873767 
4368.000000	63.849782 
4367.000000	63.819313 
4366.000000	63.786506 
4365.000000	63.759088 
4364.000000	63.744592 
4363.000000	63.749217 
4362.000000	63.775324 
4361.000000	63.822150 
4360.000000	63.885498 
4359.000000	63.958644 
4358.000000	64.033508 
4357.000000	64.102673 
4356.000000	64.160227 
4355.000000	64.201521 
4354.000000	64.223909 
4353.000000	64.227414 
4352.000000	64.214324 
4351.000000	64.188432 
4350.000000	64.154243 
4349.000000	64.117050 
4348.000000	64.081454 
4347.000000	64.051651 
4346.000000	64.030218 
4345.000000	64.018607 
4344.000000	64.016389 
4343.000000	64.021539 
4342.000000	64.031243 
4341.000000	64.042830 
4340.000000	64.054346 
4339.000000	64.064645 
4338.000000	64.073824 
4337.000000	64.082765 
4336.000000	64.092421 
4335.000000	64.103078 
4334.000000	64.114236 
4333.000000	64.124441 
4332.000000	64.131808 
4331.000000	64.134883 
4330.000000	64.133381 
4329.000000	64.128494 
4328.000000	64.122819 
4327.000000	64.119625 
4326.000000	64.121913 
4325.000000	64.131093 
4324.000000	64.146780 
4323.000000	64.166092 
4322.000000	64.184737 
4321.000000	64.197587 
4320.000000	64.200186 
4319.000000	64.190173 
4318.000000	64.167761 
4317.000000	64.136219 
4316.000000	64.100623 
4315.000000	64.067196 
4314.000000	64.041638 
4313.000000	64.028263 
4312.000000	64.029240 
4311.000000	64.044356 
4310.000000	64.071035 
4309.000000	64.105319 
4308.000000	64.142632 
4307.000000	64.178442 
4306.000000	64.209342 
4305.000000	64.233446 
4304.000000	64.250850 
4303.000000	64.263391 
4302.000000	64.273858 
4301.000000	64.285516 
4300.000000	64.301085 
4299.000000	64.322209 
4298.000000	64.349031 
4297.000000	64.380073 
4296.000000	64.412522 
4295.000000	64.443445 
4294.000000	64.470171 
4293.000000	64.491271 
4292.000000	64.506268 
4291.000000	64.516305 
4290.000000	64.522624 
4289.000000	64.526581 
4288.000000	64.528417 
4287.000000	64.527130 
4286.000000	64.520645 
4285.000000	64.506697 
4284.000000	64.483690 
4283.000000	64.451622 
4282.000000	64.412403 
4281.000000	64.369869 
4280.000000	64.329099 
4279.000000	64.295578 
4278.000000	64.274024 
4277.000000	64.267778 
4276.000000	64.277791 
4275.000000	64.302992 
4274.000000	64.340496 
4273.000000	64.386677 
4272.000000	64.437460 
4271.000000	64.489126 
4270.000000	64.538621 
4269.000000	64.583420 
4268.000000	64.621734 
4267.000000	64.651846 
4266.000000	64.672327 
4265.000000	64.681649 
4264.000000	64.679169 
4263.000000	64.664387 
4262.000000	64.637923 
4261.000000	64.601302 
4260.000000	64.557385 
4259.000000	64.509892 
4258.000000	64.463376 
4257.000000	64.422321 
4256.000000	64.390778 
4255.000000	64.371562 
4254.000000	64.365935 
4253.000000	64.373397 
4252.000000	64.392018 
4251.000000	64.418292 
4250.000000	64.448356 
4249.000000	64.478564 
4248.000000	64.506411 
4247.000000	64.530396 
4246.000000	64.550805 
4245.000000	64.568924 
4244.000000	64.586973 
4243.000000	64.607024 
4242.000000	64.630460 
4241.000000	64.657497 
4240.000000	64.687156 
4239.000000	64.718151 
4238.000000	64.748787 
4237.000000	64.777588 
4236.000000	64.803528 
4235.000000	64.826464 
4234.000000	64.846730 
4233.000000	64.864730 
4232.000000	64.880776 
4231.000000	64.894652 
4230.000000	64.905953 
4229.000000	64.914274 
4228.000000	64.919662 
4227.000000	64.922952 
4226.000000	64.926099 
4225.000000	64.931917 
4224.000000	64.943432 
4223.000000	64.962935 
4222.000000	64.991521 
4221.000000	65.028524 
4220.000000	65.071773 
4219.000000	65.117383 
4218.000000	65.160894 
4217.000000	65.197205 
4216.000000	65.221858 
4215.000000	65.231347 
4214.000000	65.223765 
4213.000000	65.198993 
4212.000000	65.159225 
4211.000000	65.108203 
4210.000000	65.051364 
4209.000000	64.994478 
4208.000000	64.943408 
4207.000000	64.902544 
4206.000000	64.874482 
4205.000000	64.859747 
4204.000000	64.856982 
4203.000000	64.863514 
4202.000000	64.875936 
4201.000000	64.891552 
4200.000000	64.908695 
4199.000000	64.926886 
4198.000000	64.946413 
4197.000000	64.967107 
4196.000000	64.987969 
4195.000000	65.006422 
4194.000000	65.019249 
4193.000000	65.023612 
4192.000000	65.018033 
4191.000000	65.003824 
4190.000000	64.984416 
4189.000000	64.965081 
4188.000000	64.951181 
4187.000000	64.946913 
4186.000000	64.954042 
4185.000000	64.971590 
4184.000000	64.995956 
4183.000000	65.022134 
4182.000000	65.044283 
4181.000000	65.057468 
4180.000000	65.058326 
4179.000000	65.046024 
4178.000000	65.021944 
4177.000000	64.988756 
4176.000000	64.950656 
4175.000000	64.912343 
4174.000000	64.878559 
4173.000000	64.853191 
4172.000000	64.839100 
4171.000000	64.837813 
4170.000000	64.848995 
4169.000000	64.870834 
4168.000000	64.899754 
4167.000000	64.931702 
4166.000000	64.963364 
4165.000000	64.992928 
4164.000000	65.020155 
4163.000000	65.046024 
4162.000000	65.072369 
4161.000000	65.100288 
4160.000000	65.129184 
4159.000000	65.156888 
