PE IR       SPECTRUM    SPECTRUM    ASCII       PEDS        1.60        
  -1
BZ6824~1.ASC
17/04/07
16:29:00.00
17/04/07
16:29:00.00
tln
$BZ1503107-1_t0040$<tbV0>[-2.6,-5.2,8.0,0.0,27,1,0]
370.000000
64









2002,4.07    
MIRTGS : RIGHTBACK : INTERNAL 2
MIR : ON : INTERNAL 2
OPTKBR

0.200000
8
8.000000
FILLER
RATIO
SPECTRUM
UNLOCKED 256

DOUBLE
64
COMBINED
1
0
0


1.000000
RATIO


1
0
TRUE
51149
0
LEFT NOT FITTED RIGHT NOT FITTED 0
NONE
NONE
15600
12.000000
4.427000
51148
TRUE
1 0 8 72 0 0 0 0 

15798.010000






#HDR
-1
-1
#GR
CM-1
%T
0.00002384185791015625
0.0
5000.000000
-1.000000
4631
8
76.008200
46.290779
#DATA
5000.000000	65.435266 
4999.000000	65.432858 
4998.000000	65.406751 
4997.000000	65.359091 
4996.000000	65.294718 
4995.000000	65.222001 
4994.000000	65.150809 
4993.000000	65.091943 
4992.000000	65.053915 
4991.000000	65.041851 
4990.000000	65.055370 
4989.000000	65.088725 
4988.000000	65.132284 
4987.000000	65.174770 
4986.000000	65.205979 
4985.000000	65.218949 
4984.000000	65.211606 
4983.000000	65.186643 
4982.000000	65.150213 
4981.000000	65.109705 
4980.000000	65.071892 
4979.000000	65.040874 
4978.000000	65.017533 
4977.000000	64.999556 
4976.000000	64.982295 
4975.000000	64.960789 
4974.000000	64.930915 
4973.000000	64.891672 
4972.000000	64.845609 
4971.000000	64.798879 
4970.000000	64.759325 
4969.000000	64.735198 
4968.000000	64.733314 
4967.000000	64.756679 
4966.000000	64.803814 
4965.000000	64.867782 
4964.000000	64.937520 
4963.000000	64.999365 
4962.000000	65.040159 
4961.000000	65.049695 
4960.000000	65.022850 
4959.000000	64.960837 
4958.000000	64.870977 
4957.000000	64.764857 
4956.000000	64.655876 
4955.000000	64.556479 
4954.000000	64.476132 
4953.000000	64.420557 
4952.000000	64.391779 
4951.000000	64.388608 
4950.000000	64.407896 
4949.000000	64.445447 
4948.000000	64.496922 
4947.000000	64.557361 
4946.000000	64.621996 
4945.000000	64.685249 
4944.000000	64.741635 
4943.000000	64.785432 
4942.000000	64.811825 
4941.000000	64.817237 
4940.000000	64.800620 
4939.000000	64.764428 
4938.000000	64.713931 
4937.000000	64.656448 
4936.000000	64.599919 
4935.000000	64.551758 
4934.000000	64.517164 
4933.000000	64.498353 
4932.000000	64.494299 
4931.000000	64.501357 
4930.000000	64.514040 
4929.000000	64.526700 
4928.000000	64.534449 
4927.000000	64.534163 
4926.000000	64.524412 
4925.000000	64.505171 
4924.000000	64.477610 
4923.000000	64.442992 
4922.000000	64.401197 
4921.000000	64.351892 
4920.000000	64.294314 
4919.000000	64.229917 
4918.000000	64.162659 
4917.000000	64.100313 
4916.000000	64.053344 
4915.000000	64.033079 
4914.000000	64.048647 
4913.000000	64.104485 
4912.000000	64.197802 
4911.000000	64.318966 
4910.000000	64.452576 
4909.000000	64.580726 
4908.000000	64.686775 
4907.000000	64.758419 
4906.000000	64.790272 
4905.000000	64.784479 
4904.000000	64.749813 
4903.000000	64.699077 
4902.000000	64.645695 
4901.000000	64.601373 
4900.000000	64.573669 
4899.000000	64.565992 
4898.000000	64.577484 
4897.000000	64.604902 
4896.000000	64.643430 
4895.000000	64.687824 
4894.000000	64.733839 
4893.000000	64.777779 
4892.000000	64.818215 
4891.000000	64.854860 
4890.000000	64.889073 
4889.000000	64.923310 
4888.000000	64.959812 
4887.000000	64.999628 
4886.000000	65.042138 
4885.000000	65.084958 
4884.000000	65.124726 
4883.000000	65.158343 
4882.000000	65.183758 
4881.000000	65.200805 
4880.000000	65.210938 
4879.000000	65.217185 
4878.000000	65.221834 
4877.000000	65.225577 
4876.000000	65.226936 
4875.000000	65.222787 
4874.000000	65.208911 
4873.000000	65.181517 
4872.000000	65.139555 
4871.000000	65.085744 
4870.000000	65.027022 
4869.000000	64.973235 
4868.000000	64.934492 
4867.000000	64.919042 
4866.000000	64.930534 
4865.000000	64.967513 
4864.000000	65.023946 
4863.000000	65.090465 
4862.000000	65.156984 
4861.000000	65.214514 
4860.000000	65.257024 
4859.000000	65.281653 
4858.000000	65.288519 
4857.000000	65.279459 
4856.000000	65.256857 
4855.000000	65.222597 
4854.000000	65.177655 
4853.000000	65.122318 
4852.000000	65.057492 
4851.000000	64.984703 
4850.000000	64.907121 
4849.000000	64.829659 
4848.000000	64.758467 
4847.000000	64.699792 
4846.000000	64.658927 
4845.000000	64.639234 
4844.000000	64.641928 
4843.000000	64.665651 
4842.000000	64.706993 
4841.000000	64.760518 
4840.000000	64.820075 
4839.000000	64.879179 
4838.000000	64.932656 
4837.000000	64.976572 
4836.000000	65.009713 
4835.000000	65.032672 
4834.000000	65.048289 
4833.000000	65.060758 
4832.000000	65.073990 
4831.000000	65.091085 
4830.000000	65.112614 
4829.000000	65.137267 
4828.000000	65.160560 
4827.000000	65.176653 
4826.000000	65.178751 
4825.000000	65.161538 
4824.000000	65.122222 
4823.000000	65.061950 
4822.000000	64.985489 
4821.000000	64.900612 
4820.000000	64.817261 
4819.000000	64.745879 
4818.000000	64.695572 
4817.000000	64.672374 
4816.000000	64.678978 
4815.000000	64.714002 
4814.000000	64.771723 
4813.000000	64.843201 
4812.000000	64.917922 
4811.000000	64.985561 
4810.000000	65.037250 
4809.000000	65.067267 
4808.000000	65.073204 
4807.000000	65.056157 
4806.000000	65.019631 
4805.000000	64.968562 
4804.000000	64.908218 
4803.000000	64.843249 
4802.000000	64.777350 
4801.000000	64.713549 
4800.000000	64.654469 
4799.000000	64.603352 
4798.000000	64.564466 
4797.000000	64.542460 
4796.000000	64.541506 
4795.000000	64.564180 
4794.000000	64.610409 
4793.000000	64.676690 
4792.000000	64.756655 
4791.000000	64.842510 
4790.000000	64.926719 
4789.000000	65.003919 
4788.000000	65.071821 
4787.000000	65.130567 
4786.000000	65.182423 
4785.000000	65.230369 
4784.000000	65.276932 
4783.000000	65.323281 
4782.000000	65.368819 
4781.000000	65.412139 
4780.000000	65.450620 
4779.000000	65.482711 
4778.000000	65.506458 
4777.000000	65.521454 
4776.000000	65.526986 
4775.000000	65.522956 
4774.000000	65.508508 
4773.000000	65.482854 
4772.000000	65.445327 
4771.000000	65.396380 
4770.000000	65.338134 
4769.000000	65.274930 
4768.000000	65.212702 
4767.000000	65.158152 
4766.000000	65.117692 
4765.000000	65.096044 
4764.000000	65.095925 
4763.000000	65.117287 
4762.000000	65.157365 
4761.000000	65.211319 
4760.000000	65.273046 
4759.000000	65.336179 
4758.000000	65.394020 
4757.000000	65.440940 
4756.000000	65.473365 
4755.000000	65.489625 
4754.000000	65.490031 
4753.000000	65.476226 
4752.000000	65.451121 
4751.000000	65.417623 
4750.000000	65.378999 
4749.000000	65.337419 
4748.000000	65.294408 
4747.000000	65.250301 
4746.000000	65.205264 
4745.000000	65.159583 
4744.000000	65.114092 
4743.000000	65.070700 
4742.000000	65.032291 
4741.000000	65.002274 
4740.000000	64.983654 
4739.000000	64.978623 
4738.000000	64.987826 
4737.000000	65.009856 
4736.000000	65.041184 
4735.000000	65.076732 
4734.000000	65.110707 
4733.000000	65.137195 
4732.000000	65.151739 
4731.000000	65.151262 
4730.000000	65.135812 
4729.000000	65.108442 
4728.000000	65.075159 
4727.000000	65.043616 
4726.000000	65.022015 
4725.000000	65.017724 
4724.000000	65.035295 
4723.000000	65.075707 
4722.000000	65.135717 
4721.000000	65.208888 
4720.000000	65.286731 
4719.000000	65.360450 
4718.000000	65.423035 
4717.000000	65.470194 
4716.000000	65.501666 
4715.000000	65.520477 
4714.000000	65.532112 
4713.000000	65.542602 
4712.000000	65.556740 
4711.000000	65.576505 
4710.000000	65.600204 
4709.000000	65.622854 
4708.000000	65.637683 
4707.000000	65.638017 
4706.000000	65.619754 
4705.000000	65.582370 
4704.000000	65.529823 
4703.000000	65.469264 
4702.000000	65.409755 
4701.000000	65.359497 
4700.000000	65.323925 
4699.000000	65.303921 
4698.000000	65.296101 
4697.000000	65.293812 
4696.000000	65.289163 
4695.000000	65.275716 
4694.000000	65.250468 
4693.000000	65.214681 
4692.000000	65.173268 
4691.000000	65.133118 
4690.000000	65.100646 
4689.000000	65.079712 
4688.000000	65.070247 
4687.000000	65.068960 
4686.000000	65.070676 
4685.000000	65.070033 
4684.000000	65.063261 
4683.000000	65.049123 
4682.000000	65.029072 
4681.000000	65.006113 
4680.000000	64.984083 
4679.000000	64.966154 
4678.000000	64.954257 
4677.000000	64.948630 
4676.000000	64.948201 
4675.000000	64.951300 
4674.000000	64.956092 
4673.000000	64.961385 
4672.000000	64.966487 
4671.000000	64.970850 
4670.000000	64.974045 
4669.000000	64.975357 
4668.000000	64.974021 
4667.000000	64.969205 
4666.000000	64.960885 
4665.000000	64.949846 
4664.000000	64.938020 
4663.000000	64.927816 
4662.000000	64.921998 
4661.000000	64.923071 
4660.000000	64.932870 
4659.000000	64.952087 
4658.000000	64.980483 
4657.000000	65.016746 
4656.000000	65.057992 
4655.000000	65.100026 
4654.000000	65.137887 
4653.000000	65.166735 
4652.000000	65.182423 
4651.000000	65.182399 
4650.000000	65.166616 
4649.000000	65.137243 
4648.000000	65.098524 
4647.000000	65.055847 
4646.000000	65.014815 
4645.000000	64.980077 
4644.000000	64.955115 
4643.000000	64.941167 
4642.000000	64.937472 
4641.000000	64.941930 
4640.000000	64.951777 
4639.000000	64.964413 
4638.000000	64.977717 
4637.000000	64.990639 
4636.000000	65.002703 
4635.000000	65.014147 
4634.000000	65.025138 
4633.000000	65.036201 
4632.000000	65.047717 
4631.000000	65.060019 
4630.000000	65.073132 
4629.000000	65.086746 
4628.000000	65.100216 
4627.000000	65.112638 
4626.000000	65.122818 
4625.000000	65.129852 
4624.000000	65.132665 
4623.000000	65.130710 
4622.000000	65.123009 
4621.000000	65.108561 
4620.000000	65.085744 
4619.000000	65.052676 
4618.000000	65.008115 
4617.000000	64.951610 
4616.000000	64.884805 
4615.000000	64.811468 
4614.000000	64.737677 
4613.000000	64.670729 
4612.000000	64.617800 
4611.000000	64.584660 
4610.000000	64.573478 
4609.000000	64.582061 
4608.000000	64.604043 
4607.000000	64.630270 
4606.000000	64.650940 
4605.000000	64.657831 
4604.000000	64.646601 
4603.000000	64.617681 
4602.000000	64.576125 
4601.000000	64.530348 
4600.000000	64.489626 
4599.000000	64.462089 
4598.000000	64.452910 
4597.000000	64.463043 
4596.000000	64.489960 
4595.000000	64.527821 
4594.000000	64.569473 
4593.000000	64.607763 
4592.000000	64.636898 
4591.000000	64.653539 
4590.000000	64.656376 
4589.000000	64.646935 
4588.000000	64.628124 
4587.000000	64.604735 
4586.000000	64.582061 
4585.000000	64.566040 
4584.000000	64.562344 
4583.000000	64.575147 
4582.000000	64.606380 
4581.000000	64.655089 
4580.000000	64.717555 
4579.000000	64.787030 
4578.000000	64.855027 
4577.000000	64.912748 
4576.000000	64.953184 
4575.000000	64.972114 
4574.000000	64.969086 
4573.000000	64.947509 
4572.000000	64.913630 
4571.000000	64.875435 
4570.000000	64.840555 
4569.000000	64.814901 
4568.000000	64.801383 
4567.000000	64.800047 
4566.000000	64.808106 
4565.000000	64.821338 
4564.000000	64.835143 
4563.000000	64.845705 
4562.000000	64.850711 
4561.000000	64.849185 
4560.000000	64.842033 
4559.000000	64.831376 
4558.000000	64.820146 
4557.000000	64.810729 
4556.000000	64.805507 
4555.000000	64.806556 
4554.000000	64.815282 
4553.000000	64.832186 
4552.000000	64.857411 
4551.000000	64.890742 
4550.000000	64.931106 
4549.000000	64.976286 
4548.000000	65.022826 
4547.000000	65.066123 
4546.000000	65.100860 
4545.000000	65.121769 
4544.000000	65.124464 
4543.000000	65.106391 
4542.000000	65.067791 
4541.000000	65.011811 
4540.000000	64.944386 
4539.000000	64.873147 
4538.000000	64.806699 
4537.000000	64.752173 
4536.000000	64.714741 
4535.000000	64.695358 
4534.000000	64.691710 
4533.000000	64.697432 
4532.000000	64.704298 
4531.000000	64.702749 
4530.000000	64.684271 
4529.000000	64.642548 
4528.000000	64.574694 
4527.000000	64.482212 
4526.000000	64.370512 
4525.000000	64.249086 
4524.000000	64.129924 
4523.000000	64.026117 
4522.000000	63.949871 
4521.000000	63.910317 
4520.000000	63.912200 
4519.000000	63.954782 
4518.000000	64.032125 
4517.000000	64.133596 
4516.000000	64.246320 
4515.000000	64.356827 
4514.000000	64.453673 
4513.000000	64.528536 
4512.000000	64.577674 
4511.000000	64.601325 
4510.000000	64.602923 
4509.000000	64.587593 
4508.000000	64.560604 
4507.000000	64.526820 
4506.000000	64.489293 
4505.000000	64.450025 
4504.000000	64.409828 
4503.000000	64.370179 
4502.000000	64.332199 
4501.000000	64.296936 
4500.000000	64.265322 
4499.000000	64.238023 
4498.000000	64.215707 
4497.000000	64.199018 
4496.000000	64.189028 
4495.000000	64.187097 
4494.000000	64.194202 
4493.000000	64.210796 
4492.000000	64.237022 
4491.000000	64.272689 
4490.000000	64.317226 
4489.000000	64.368915 
4488.000000	64.426231 
4487.000000	64.485669 
4486.000000	64.541816 
4485.000000	64.587354 
4484.000000	64.612984 
4483.000000	64.611148 
4482.000000	64.578652 
4481.000000	64.518165 
4480.000000	64.438748 
4479.000000	64.353871 
4478.000000	64.278888 
4477.000000	64.227175 
4476.000000	64.206767 
4475.000000	64.219212 
4474.000000	64.259743 
4473.000000	64.318585 
4472.000000	64.384198 
4471.000000	64.444756 
4470.000000	64.490866 
4469.000000	64.519190 
4468.000000	64.533042 
4467.000000	64.540314 
4466.000000	64.551472 
4465.000000	64.578104 
4464.000000	64.628911 
4463.000000	64.707660 
4462.000000	64.809942 
4461.000000	64.928221 
4460.000000	65.048193 
4459.000000	65.147447 
4458.000000	65.203094 
4457.000000	65.198993 
4456.000000	65.129756 
4455.000000	65.004062 
4454.000000	64.841556 
4453.000000	64.672160 
4452.000000	64.522838 
4451.000000	64.412546 
4450.000000	64.344096 
4449.000000	64.298129 
4448.000000	64.254426 
4447.000000	64.201974 
4446.000000	64.145445 
4445.000000	64.106512 
4444.000000	64.119505 
4443.000000	64.220666 
4442.000000	64.434313 
4441.000000	64.763903 
4440.000000	65.182685 
4439.000000	65.643215 
4438.000000	66.089081 
4437.000000	66.477179 
4436.000000	66.790294 
4435.000000	67.049050 
4434.000000	67.305374 
4433.000000	67.630362 
4432.000000	68.094658 
4431.000000	68.740725 
4430.000000	69.574618 
4429.000000	70.542097 
4428.000000	71.553301 
4427.000000	72.469615 
4426.000000	73.153996 
4425.000000	73.464894 
4424.000000	73.297691 
4423.000000	72.591304 
4422.000000	71.346473 
4421.000000	69.635295 
4420.000000	67.594313 
4419.000000	65.422534 
4418.000000	63.352346 
4417.000000	61.629915 
4416.000000	60.473966 
4415.000000	60.038900 
4414.000000	60.382294 
4413.000000	61.443161 
4412.000000	63.051438 
4411.000000	64.943456 
4410.000000	66.822504 
4409.000000	68.412566 
4408.000000	69.519233 
4407.000000	70.054721 
4406.000000	70.050287 
4405.000000	69.629740 
4404.000000	68.969154 
4403.000000	68.244886 
4402.000000	67.590737 
4401.000000	67.084479 
4400.000000	66.730570 
4399.000000	66.496944 
4398.000000	66.317796 
4397.000000	66.139030 
4396.000000	65.923047 
4395.000000	65.664577 
4394.000000	65.385270 
4393.000000	65.120339 
4392.000000	64.906907 
4391.000000	64.766001 
4390.000000	64.702534 
4389.000000	64.701318 
4388.000000	64.743137 
4387.000000	64.810132 
4386.000000	64.885187 
4385.000000	64.956045 
4384.000000	65.015459 
4383.000000	65.061569 
4382.000000	65.093111 
4381.000000	65.111017 
4380.000000	65.114927 
4379.000000	65.105652 
4378.000000	65.090489 
4377.000000	65.077781 
4376.000000	65.071892 
4375.000000	65.074801 
4374.000000	65.088343 
4373.000000	65.111255 
4372.000000	65.142130 
4371.000000	65.176534 
4370.000000	65.205907 
4369.000000	65.222287 
4368.000000	65.221357 
4367.000000	65.201687 
4366.000000	65.165090 
4365.000000	65.116786 
4364.000000	65.064191 
4363.000000	65.014433 
4362.000000	64.972543 
4361.000000	64.941048 
4360.000000	64.919614 
4359.000000	64.905357 
4358.000000	64.894056 
4357.000000	64.881992 
4356.000000	64.866781 
4355.000000	64.847898 
4354.000000	64.826607 
4353.000000	64.804458 
4352.000000	64.783000 
4351.000000	64.762902 
4350.000000	64.743828 
4349.000000	64.724302 
4348.000000	64.702868 
4347.000000	64.678597 
4346.000000	64.652204 
4345.000000	64.626049 
4344.000000	64.603948 
4343.000000	64.590215 
4342.000000	64.588427 
4341.000000	64.600515 
4340.000000	64.625239 
4339.000000	64.658188 
4338.000000	64.692020 
4337.000000	64.718031 
4336.000000	64.727115 
4335.000000	64.711880 
4334.000000	64.668726 
4333.000000	64.598941 
4332.000000	64.508962 
4331.000000	64.409327 
4330.000000	64.313530 
4329.000000	64.235067 
4328.000000	64.184069 
4327.000000	64.165449 
4326.000000	64.177870 
4325.000000	64.214539 
4324.000000	64.264416 
4323.000000	64.315605 
4322.000000	64.357614 
4321.000000	64.384484 
4320.000000	64.394855 
4319.000000	64.392948 
4318.000000	64.385414 
4317.000000	64.380383 
4316.000000	64.384055 
4315.000000	64.399957 
4314.000000	64.427852 
4313.000000	64.464735 
4312.000000	64.506196 
4311.000000	64.547944 
4310.000000	64.587235 
4309.000000	64.622974 
4308.000000	64.655780 
4307.000000	64.686775 
4306.000000	64.717102 
4305.000000	64.747357 
4304.000000	64.777445 
4303.000000	64.807295 
4302.000000	64.836859 
4301.000000	64.866518 
4300.000000	64.896488 
4299.000000	64.927530 
4298.000000	64.959096 
4297.000000	64.988946 
4296.000000	65.013146 
4295.000000	65.026879 
4294.000000	65.025758 
4293.000000	65.007162 
4292.000000	64.971327 
4291.000000	64.922285 
4290.000000	64.866709 
4289.000000	64.812803 
4288.000000	64.768004 
4287.000000	64.737105 
4286.000000	64.721202 
4285.000000	64.717984 
4284.000000	64.722371 
4283.000000	64.728403 
4282.000000	64.730930 
4281.000000	64.727258 
4280.000000	64.717483 
4279.000000	64.704322 
4278.000000	64.692354 
4277.000000	64.686918 
4276.000000	64.692115 
4275.000000	64.709877 
4274.000000	64.739704 
4273.000000	64.778852 
4272.000000	64.823460 
4271.000000	64.869070 
4270.000000	64.912009 
4269.000000	64.949774 
4268.000000	64.981293 
4267.000000	65.006589 
4266.000000	65.026545 
4265.000000	65.041851 
4264.000000	65.053296 
4263.000000	65.060758 
4262.000000	65.063452 
4261.000000	65.060353 
4260.000000	65.050888 
4259.000000	65.035200 
4258.000000	65.014624 
4257.000000	64.991497 
4256.000000	64.969038 
4255.000000	64.950013 
4254.000000	64.936041 
4253.000000	64.927315 
4252.000000	64.922547 
4251.000000	64.919781 
4250.000000	64.916944 
4249.000000	64.912891 
4248.000000	64.907622 
4247.000000	64.902353 
4246.000000	64.899158 
4245.000000	64.899849 
4244.000000	64.905834 
4243.000000	64.917182 
4242.000000	64.933156 
4241.000000	64.951920 
4240.000000	64.971709 
4239.000000	64.991426 
4238.000000	65.010714 
4237.000000	65.030002 
4236.000000	65.049958 
4235.000000	65.070915 
4234.000000	65.092372 
4233.000000	65.112566 
4232.000000	65.129208 
4231.000000	65.139985 
4230.000000	65.143704 
4229.000000	65.140891 
4228.000000	65.133690 
4227.000000	65.125536 
4226.000000	65.120339 
4225.000000	65.121579 
4224.000000	65.130972 
4223.000000	65.147686 
4222.000000	65.169072 
4221.000000	65.190815 
4220.000000	65.207982 
4219.000000	65.216040 
4218.000000	65.211963 
4217.000000	65.195083 
4216.000000	65.167236 
4215.000000	65.132403 
4214.000000	65.095400 
4213.000000	65.060997 
4212.000000	65.033316 
4211.000000	65.014481 
4210.000000	65.004563 
4209.000000	65.001726 
4208.000000	65.003228 
4207.000000	65.006160 
4206.000000	65.008091 
4205.000000	65.008378 
4204.000000	65.008091 
4203.000000	65.010070 
4202.000000	65.017962 
4201.000000	65.035605 
4200.000000	65.065813 
4199.000000	65.109705 
4198.000000	65.166115 
4197.000000	65.231895 
4196.000000	65.302062 
4195.000000	65.370965 
4194.000000	65.432548 
4193.000000	65.481591 
4192.000000	65.513396 
4191.000000	65.525221 
4190.000000	65.515470 
4189.000000	65.484142 
4188.000000	65.432548 
4187.000000	65.363836 
4186.000000	65.282487 
4185.000000	65.194201 
4184.000000	65.105462 
4183.000000	65.023303 
4182.000000	64.954233 
4181.000000	64.903426 
4180.000000	64.874196 
4179.000000	64.867234 
4178.000000	64.880681 
4177.000000	64.910316 
4176.000000	64.950537 
4175.000000	64.994955 
4174.000000	65.037751 
4173.000000	65.074372 
4172.000000	65.101957 
4171.000000	65.119171 
4170.000000	65.126347 
4169.000000	65.125083 
4168.000000	65.117573 
4167.000000	65.106272 
4166.000000	65.093803 
4165.000000	65.082597 
4164.000000	65.075111 
4163.000000	65.073204 
4162.000000	65.078759 
4161.000000	65.092349 
4160.000000	65.113592 
4159.000000	65.140271 
