PE IR       SPECTRUM    SPECTRUM    ASCII       PEDS        1.60        
  -1
BZ4CFC~1.ASC
17/04/07
22:52:59.00
17/04/07
22:52:59.00
tln
$BZ1503107-1_t0117$<tbV0>[-2.6,13.0,8.0,0.0,27,1,0]
370.000000
64









2002,4.07    
MIRTGS : RIGHTBACK : INTERNAL 2
MIR : ON : INTERNAL 2
OPTKBR

0.200000
8
8.000000
FILLER
RATIO
SPECTRUM
UNLOCKED 256

DOUBLE
64
COMBINED
1
0
0


1.000000
RATIO


1
0
TRUE
51149
0
LEFT NOT FITTED RIGHT NOT FITTED 0
NONE
NONE
15600
12.000000
4.427000
51148
TRUE
1 0 8 72 0 0 0 0 

15798.010000






#HDR
-1
-1
#GR
CM-1
%T
0.00002384185791015625
0.0
5000.000000
-1.000000
4631
8
86.443495
38.889002
#DATA
5000.000000	65.379571 
4999.000000	65.221333 
4998.000000	65.063977 
4997.000000	64.928555 
4996.000000	64.835858 
4995.000000	64.802765 
4994.000000	64.838814 
4993.000000	64.944267 
4992.000000	65.108704 
4991.000000	65.313053 
4990.000000	65.530824 
4989.000000	65.733575 
4988.000000	65.892457 
4987.000000	65.983009 
4986.000000	65.987396 
4985.000000	65.897369 
4984.000000	65.714645 
4983.000000	65.451288 
4982.000000	65.128803 
4981.000000	64.775609 
4980.000000	64.423465 
4979.000000	64.104104 
4978.000000	63.845157 
4977.000000	63.667654 
4976.000000	63.584423 
4975.000000	63.598871 
4974.000000	63.703250 
4973.000000	63.881754 
4972.000000	64.110636 
4971.000000	64.364671 
4970.000000	64.616131 
4969.000000	64.844250 
4968.000000	65.033841 
4967.000000	65.181112 
4966.000000	65.291333 
4965.000000	65.376520 
4964.000000	65.450930 
4963.000000	65.526223 
4962.000000	65.609693 
4961.000000	65.699410 
4960.000000	65.786337 
4959.000000	65.856027 
4958.000000	65.894436 
4957.000000	65.891599 
4956.000000	65.845680 
4955.000000	65.763592 
4954.000000	65.659499 
4953.000000	65.550351 
4952.000000	65.451073 
4951.000000	65.370798 
4950.000000	65.310788 
4949.000000	65.264272 
4948.000000	65.219783 
4947.000000	65.166473 
4946.000000	65.097856 
4945.000000	65.013289 
4944.000000	64.920449 
4943.000000	64.831233 
4942.000000	64.761757 
4941.000000	64.726853 
4940.000000	64.738178 
4939.000000	64.798760 
4938.000000	64.905142 
4937.000000	65.048074 
4936.000000	65.214228 
4935.000000	65.388131 
4934.000000	65.556049 
4933.000000	65.707826 
4932.000000	65.837168 
4931.000000	65.941023 
4930.000000	66.018676 
4929.000000	66.070199 
4928.000000	66.095685 
4927.000000	66.094756 
4926.000000	66.066884 
4925.000000	66.012167 
4924.000000	65.933275 
4923.000000	65.835881 
4922.000000	65.728878 
4921.000000	65.623021 
4920.000000	65.530610 
4919.000000	65.461683 
4918.000000	65.422034 
4917.000000	65.411520 
4916.000000	65.424227 
4915.000000	65.449953 
4914.000000	65.476489 
4913.000000	65.492939 
4912.000000	65.491652 
4911.000000	65.470290 
4910.000000	65.431141 
4909.000000	65.380358 
4908.000000	65.325331 
4907.000000	65.273261 
4906.000000	65.229225 
4905.000000	65.195727 
4904.000000	65.172481 
4903.000000	65.158176 
4902.000000	65.151596 
4901.000000	65.151977 
4900.000000	65.159440 
4899.000000	65.174818 
4898.000000	65.198874 
4897.000000	65.230751 
4896.000000	65.267753 
4895.000000	65.305233 
4894.000000	65.337824 
4893.000000	65.360713 
4892.000000	65.370535 
4891.000000	65.366506 
4890.000000	65.350270 
4889.000000	65.325713 
4888.000000	65.297627 
4887.000000	65.270209 
4886.000000	65.246033 
4885.000000	65.225815 
4884.000000	65.208554 
4883.000000	65.192270 
4882.000000	65.175700 
4881.000000	65.158939 
4880.000000	65.144419 
4879.000000	65.136671 
4878.000000	65.140891 
4877.000000	65.161299 
4876.000000	65.198445 
4875.000000	65.248227 
4874.000000	65.302324 
4873.000000	65.349721 
4872.000000	65.379309 
4871.000000	65.382814 
4870.000000	65.357422 
4869.000000	65.306520 
4868.000000	65.238952 
4867.000000	65.166425 
4866.000000	65.100884 
4865.000000	65.050888 
4864.000000	65.019845 
4863.000000	65.005064 
4862.000000	64.999675 
4861.000000	64.994549 
4860.000000	64.982056 
4859.000000	64.957666 
4858.000000	64.921236 
4857.000000	64.877009 
4856.000000	64.831352 
4855.000000	64.791655 
4854.000000	64.763045 
4853.000000	64.749002 
4852.000000	64.750337 
4851.000000	64.766764 
4850.000000	64.797139 
4849.000000	64.840030 
4848.000000	64.893770 
4847.000000	64.955949 
4846.000000	65.023064 
4845.000000	65.090322 
4844.000000	65.152049 
4843.000000	65.202641 
4842.000000	65.237712 
4841.000000	65.255379 
4840.000000	65.256547 
4839.000000	65.245628 
4838.000000	65.228414 
4837.000000	65.211057 
4836.000000	65.197539 
4835.000000	65.189528 
4834.000000	65.184807 
4833.000000	65.178704 
4832.000000	65.164756 
4831.000000	65.137553 
4830.000000	65.093731 
4829.000000	65.033316 
4828.000000	64.959836 
4827.000000	64.879512 
4826.000000	64.800667 
4825.000000	64.731812 
4824.000000	64.680433 
4823.000000	64.651250 
4822.000000	64.645791 
4821.000000	64.662170 
4820.000000	64.695405 
4819.000000	64.738917 
4818.000000	64.786124 
4817.000000	64.831948 
4816.000000	64.873170 
4815.000000	64.908790 
4814.000000	64.939880 
4813.000000	64.968562 
4812.000000	64.996552 
4811.000000	65.024280 
4810.000000	65.050578 
4809.000000	65.072250 
4808.000000	65.085625 
4807.000000	65.086793 
4806.000000	65.073442 
4805.000000	65.045142 
4804.000000	65.004491 
4803.000000	64.955949 
4802.000000	64.905118 
4801.000000	64.857387 
4800.000000	64.817047 
4799.000000	64.786267 
4798.000000	64.765095 
4797.000000	64.751672 
4796.000000	64.743447 
4795.000000	64.737272 
4794.000000	64.730215 
4793.000000	64.720082 
4792.000000	64.706063 
4791.000000	64.688062 
4790.000000	64.667010 
4789.000000	64.644336 
4788.000000	64.622044 
4787.000000	64.602160 
4786.000000	64.586710 
4785.000000	64.577436 
4784.000000	64.575433 
4783.000000	64.581394 
4782.000000	64.594960 
4781.000000	64.614987 
4780.000000	64.639186 
4779.000000	64.664244 
4778.000000	64.686679 
4777.000000	64.703011 
4776.000000	64.711093 
4775.000000	64.710569 
4774.000000	64.703178 
4773.000000	64.692544 
4772.000000	64.683270 
4771.000000	64.679718 
4770.000000	64.685225 
4769.000000	64.701533 
4768.000000	64.727973 
4767.000000	64.761638 
4766.000000	64.798665 
4765.000000	64.835095 
4764.000000	64.867663 
4763.000000	64.894604 
4762.000000	64.915609 
4761.000000	64.931654 
4760.000000	64.944386 
4759.000000	64.955496 
4758.000000	64.966320 
4757.000000	64.977645 
4756.000000	64.990162 
4755.000000	65.004014 
4754.000000	65.019774 
4753.000000	65.037155 
4752.000000	65.055441 
4751.000000	65.072894 
4750.000000	65.086722 
4749.000000	65.094232 
4748.000000	65.093159 
4747.000000	65.083265 
4746.000000	65.066528 
4745.000000	65.047502 
4744.000000	65.032768 
4743.000000	65.029191 
4742.000000	65.042185 
4741.000000	65.074205 
4740.000000	65.123677 
4739.000000	65.185022 
4738.000000	65.249633 
4737.000000	65.307879 
4736.000000	65.350985 
4735.000000	65.373468 
4734.000000	65.373849 
4733.000000	65.354847 
4732.000000	65.322160 
4731.000000	65.282797 
4730.000000	65.243220 
4729.000000	65.208315 
4728.000000	65.180420 
4727.000000	65.159344 
4726.000000	65.143322 
4725.000000	65.130519 
4724.000000	65.119504 
4723.000000	65.110158 
4722.000000	65.103244 
4721.000000	65.099906 
4720.000000	65.100860 
4719.000000	65.105605 
4718.000000	65.112423 
4717.000000	65.118432 
4716.000000	65.120601 
4715.000000	65.116477 
4714.000000	65.105175 
4713.000000	65.087914 
4712.000000	65.067720 
4711.000000	65.048813 
4710.000000	65.036082 
4709.000000	65.033674 
4708.000000	65.044164 
4707.000000	65.067100 
4706.000000	65.099406 
4705.000000	65.134739 
4704.000000	65.165162 
4703.000000	65.182256 
4702.000000	65.178775 
4701.000000	65.150666 
4700.000000	65.097904 
4699.000000	65.025305 
4698.000000	64.941382 
4697.000000	64.857602 
4696.000000	64.786267 
4695.000000	64.737963 
4694.000000	64.719223 
4693.000000	64.731287 
4692.000000	64.770007 
4691.000000	64.826273 
4690.000000	64.888381 
4689.000000	64.943838 
4688.000000	64.981961 
4687.000000	64.995551 
4686.000000	64.981961 
4685.000000	64.943099 
4684.000000	64.884710 
4683.000000	64.815425 
4682.000000	64.744830 
4681.000000	64.682102 
4680.000000	64.634037 
4679.000000	64.604640 
4678.000000	64.594316 
4677.000000	64.600253 
4676.000000	64.617800 
4675.000000	64.641308 
4674.000000	64.666295 
4673.000000	64.689636 
4672.000000	64.710831 
4671.000000	64.731121 
4670.000000	64.753222 
4669.000000	64.779853 
4668.000000	64.812684 
4667.000000	64.850878 
4666.000000	64.891219 
4665.000000	64.928913 
4664.000000	64.958119 
4663.000000	64.973521 
4662.000000	64.971756 
4661.000000	64.952588 
4660.000000	64.918565 
4659.000000	64.874291 
4658.000000	64.825463 
4657.000000	64.777398 
4656.000000	64.733886 
4655.000000	64.696550 
4654.000000	64.665055 
4653.000000	64.637708 
4652.000000	64.611768 
4651.000000	64.585113 
4650.000000	64.556860 
4649.000000	64.528656 
4648.000000	64.503383 
4647.000000	64.486002 
4646.000000	64.481163 
4645.000000	64.493155 
4644.000000	64.523887 
4643.000000	64.572787 
4642.000000	64.636087 
4641.000000	64.707922 
4640.000000	64.781188 
4639.000000	64.848899 
4638.000000	64.905285 
4637.000000	64.947175 
4636.000000	64.974308 
4635.000000	64.989089 
4634.000000	64.995622 
4633.000000	64.998817 
4632.000000	65.003371 
4631.000000	65.012812 
4630.000000	65.028929 
4629.000000	65.051865 
4628.000000	65.080308 
4627.000000	65.112304 
4626.000000	65.145969 
4625.000000	65.179705 
4624.000000	65.212631 
4623.000000	65.244388 
4622.000000	65.275382 
4621.000000	65.306091 
4620.000000	65.336799 
4619.000000	65.368008 
4618.000000	65.399479 
4617.000000	65.430998 
4616.000000	65.461063 
4615.000000	65.488123 
4614.000000	65.509152 
4613.000000	65.521168 
4612.000000	65.520477 
4611.000000	65.503811 
4610.000000	65.469169 
4609.000000	65.416955 
4608.000000	65.350198 
4607.000000	65.274500 
4606.000000	65.197992 
4605.000000	65.129899 
4604.000000	65.078687 
4603.000000	65.050387 
4602.000000	65.046715 
4601.000000	65.064787 
4600.000000	65.097522 
4599.000000	65.135502 
4598.000000	65.169334 
4597.000000	65.192151 
4596.000000	65.201044 
4595.000000	65.197491 
4594.000000	65.186214 
4593.000000	65.173292 
4592.000000	65.164017 
4591.000000	65.161013 
4590.000000	65.163993 
4589.000000	65.169239 
4588.000000	65.171313 
4587.000000	65.164256 
4586.000000	65.144157 
4585.000000	65.109610 
4584.000000	65.062332 
4583.000000	65.007519 
4582.000000	64.952540 
4581.000000	64.905524 
4580.000000	64.873361 
4579.000000	64.860916 
4578.000000	64.869832 
4577.000000	64.898705 
4576.000000	64.943456 
4575.000000	64.997720 
4574.000000	65.054440 
4573.000000	65.107011 
4572.000000	65.151071 
4571.000000	65.185189 
4570.000000	65.210986 
4569.000000	65.232634 
4568.000000	65.255093 
4567.000000	65.282845 
4566.000000	65.317773 
4565.000000	65.358853 
4564.000000	65.401196 
4563.000000	65.438318 
4562.000000	65.462374 
4561.000000	65.467596 
4560.000000	65.449881 
4559.000000	65.408253 
4558.000000	65.344381 
4557.000000	65.262961 
4556.000000	65.170025 
4555.000000	65.072154 
4554.000000	64.976286 
4553.000000	64.889121 
4552.000000	64.817142 
4551.000000	64.766097 
4550.000000	64.740610 
4549.000000	64.742946 
4548.000000	64.772176 
4547.000000	64.823722 
4546.000000	64.888644 
4545.000000	64.955401 
4544.000000	65.011382 
4543.000000	65.045928 
4542.000000	65.051913 
4541.000000	65.027809 
4540.000000	64.977717 
4539.000000	64.910912 
4538.000000	64.839220 
4537.000000	64.774942 
4536.000000	64.728426 
4535.000000	64.706540 
4534.000000	64.711999 
4533.000000	64.743518 
4532.000000	64.796805 
4531.000000	64.865708 
4530.000000	64.943838 
4529.000000	65.024685 
4528.000000	65.102338 
4527.000000	65.170955 
4526.000000	65.224933 
4525.000000	65.259027 
4524.000000	65.268659 
4523.000000	65.251326 
4522.000000	65.207552 
4521.000000	65.141391 
4520.000000	65.060281 
4519.000000	64.974498 
4518.000000	64.895367 
4517.000000	64.833164 
4516.000000	64.795160 
4515.000000	64.783954 
4514.000000	64.797568 
4513.000000	64.829993 
4512.000000	64.873600 
4511.000000	64.920306 
4510.000000	64.964389 
4509.000000	65.003108 
4508.000000	65.037155 
4507.000000	65.069174 
4506.000000	65.102529 
4505.000000	65.139603 
4504.000000	65.179991 
4503.000000	65.220832 
4502.000000	65.255975 
4501.000000	65.277862 
4500.000000	65.279412 
4499.000000	65.256285 
4498.000000	65.208411 
4497.000000	65.140390 
4496.000000	65.061020 
4495.000000	64.980912 
4494.000000	64.908528 
4493.000000	64.848518 
4492.000000	64.800643 
4491.000000	64.761281 
4490.000000	64.725065 
4489.000000	64.687657 
4488.000000	64.648723 
4487.000000	64.611530 
4486.000000	64.581441 
4485.000000	64.564085 
4484.000000	64.561820 
4483.000000	64.573812 
4482.000000	64.594793 
4481.000000	64.617037 
4480.000000	64.631843 
4479.000000	64.632916 
4478.000000	64.618039 
4477.000000	64.590144 
4476.000000	64.556241 
4475.000000	64.526295 
4474.000000	64.510273 
4473.000000	64.515471 
4472.000000	64.543080 
4471.000000	64.594888 
4470.000000	64.674139 
4469.000000	64.780592 
4468.000000	64.909839 
4467.000000	65.059733 
4466.000000	65.228772 
4465.000000	65.403747 
4464.000000	65.565872 
4463.000000	65.702033 
4462.000000	65.803027 
4461.000000	65.873575 
4460.000000	65.922164 
4459.000000	65.943098 
4458.000000	65.926933 
4457.000000	65.875911 
4456.000000	65.794944 
4455.000000	65.682744 
4454.000000	65.545225 
4453.000000	65.405750 
4452.000000	65.288996 
4451.000000	65.218496 
4450.000000	65.202879 
4449.000000	65.234780 
4448.000000	65.283584 
4447.000000	65.304946 
4446.000000	65.240263 
4445.000000	65.030431 
4444.000000	64.619994 
4443.000000	63.966751 
4442.000000	63.030934 
4441.000000	61.783862 
4440.000000	60.188627 
4439.000000	58.237862 
4438.000000	55.940461 
4437.000000	53.395771 
4436.000000	50.799250 
4435.000000	48.480582 
4434.000000	46.841239 
4433.000000	46.315217 
4432.000000	47.264051 
4431.000000	49.888586 
4430.000000	54.139447 
4429.000000	59.702610 
4428.000000	66.029524 
4427.000000	72.423028 
4426.000000	78.162813 
4425.000000	82.633805 
4424.000000	85.436606 
4423.000000	86.443495 
4422.000000	85.805678 
4421.000000	83.882308 
4420.000000	81.149601 
4419.000000	78.094196 
4418.000000	75.132775 
4417.000000	72.545766 
4416.000000	70.468950 
4415.000000	68.918442 
4414.000000	67.836833 
4413.000000	67.121267 
4412.000000	66.670370 
4411.000000	66.388869 
4410.000000	66.215586 
4409.000000	66.097331 
4408.000000	66.009664 
4407.000000	65.925669 
4406.000000	65.836286 
4405.000000	65.731644 
4404.000000	65.615224 
4403.000000	65.497899 
4402.000000	65.396857 
4401.000000	65.330505 
4400.000000	65.311360 
4399.000000	65.333366 
4398.000000	65.382575 
4397.000000	65.447473 
4396.000000	65.511751 
4395.000000	65.550899 
4394.000000	65.552878 
4393.000000	65.526962 
4392.000000	65.485143 
4391.000000	65.436053 
4390.000000	65.388321 
4389.000000	65.346288 
4388.000000	65.317893 
4387.000000	65.314126 
4386.000000	65.335893 
4385.000000	65.375781 
4384.000000	65.428829 
4383.000000	65.491008 
4382.000000	65.554189 
4381.000000	65.609407 
4380.000000	65.650606 
4379.000000	65.673923 
4378.000000	65.677738 
4377.000000	65.662288 
4376.000000	65.630602 
4375.000000	65.586280 
4374.000000	65.533566 
4373.000000	65.475559 
4372.000000	65.414881 
4371.000000	65.352964 
4370.000000	65.290284 
4369.000000	65.227961 
4368.000000	65.168571 
4367.000000	65.116524 
4366.000000	65.077638 
4365.000000	65.058016 
4364.000000	65.062260 
4363.000000	65.091991 
4362.000000	65.144705 
4361.000000	65.213489 
4360.000000	65.287899 
4359.000000	65.356516 
4358.000000	65.408754 
4357.000000	65.437531 
4356.000000	65.439867 
4355.000000	65.417051 
4354.000000	65.373134 
4353.000000	65.313649 
4352.000000	65.243792 
4351.000000	65.167450 
4350.000000	65.087175 
4349.000000	65.004897 
4348.000000	64.923119 
4347.000000	64.846491 
4346.000000	64.781618 
4345.000000	64.736199 
4344.000000	64.717578 
4343.000000	64.730238 
4342.000000	64.774537 
4341.000000	64.845108 
4340.000000	64.932465 
4339.000000	65.024065 
4338.000000	65.107607 
4337.000000	65.173220 
4336.000000	65.214467 
4335.000000	65.229010 
4334.000000	65.218091 
4333.000000	65.185761 
4332.000000	65.137386 
4331.000000	65.078806 
4330.000000	65.015959 
4329.000000	64.954233 
4328.000000	64.899182 
4327.000000	64.855670 
4326.000000	64.827895 
4325.000000	64.818263 
4324.000000	64.827322 
4323.000000	64.852786 
4322.000000	64.889597 
4321.000000	64.930272 
4320.000000	64.965462 
4319.000000	64.986443 
4318.000000	64.986681 
4317.000000	64.963746 
4316.000000	64.919185 
4315.000000	64.859294 
4314.000000	64.793586 
4313.000000	64.733266 
4312.000000	64.688706 
4311.000000	64.667797 
4310.000000	64.674305 
4309.000000	64.707827 
4308.000000	64.763808 
4307.000000	64.834809 
4306.000000	64.911794 
4305.000000	64.985489 
4304.000000	65.047669 
4303.000000	65.091943 
4302.000000	65.114402 
4301.000000	65.113377 
4300.000000	65.089797 
4299.000000	65.046977 
4298.000000	64.990448 
4297.000000	64.927124 
4296.000000	64.864659 
4295.000000	64.811229 
4294.000000	64.773631 
4293.000000	64.757108 
4292.000000	64.763832 
4291.000000	64.792442 
4290.000000	64.838194 
4289.000000	64.893913 
4288.000000	64.950776 
4287.000000	64.999604 
4286.000000	65.033221 
4285.000000	65.047621 
4284.000000	65.043020 
4283.000000	65.023303 
4282.000000	64.995980 
4281.000000	64.970064 
4280.000000	64.954614 
4279.000000	64.956569 
4278.000000	64.979147 
4277.000000	65.021491 
4276.000000	65.078687 
4275.000000	65.142989 
4274.000000	65.206027 
4273.000000	65.260148 
4272.000000	65.300178 
4271.000000	65.323662 
4270.000000	65.331149 
4269.000000	65.324831 
4268.000000	65.308022 
4267.000000	65.282988 
4266.000000	65.250682 
4265.000000	65.210223 
4264.000000	65.160608 
4263.000000	65.100765 
4262.000000	65.031123 
4261.000000	64.954137 
4260.000000	64.874649 
4259.000000	64.798760 
4258.000000	64.732789 
4257.000000	64.681863 
4256.000000	64.648246 
4255.000000	64.631724 
4254.000000	64.629864 
4253.000000	64.638447 
4252.000000	64.652752 
4251.000000	64.668560 
4250.000000	64.683008 
4249.000000	64.694404 
4248.000000	64.702510 
4247.000000	64.707541 
4246.000000	64.710235 
4245.000000	64.711117 
4244.000000	64.710855 
4243.000000	64.710068 
4242.000000	64.709734 
4241.000000	64.711070 
4240.000000	64.715647 
4239.000000	64.725208 
4238.000000	64.741086 
4237.000000	64.763665 
4236.000000	64.792132 
4235.000000	64.824819 
4234.000000	64.858961 
4233.000000	64.891600 
4232.000000	64.919590 
4231.000000	64.940071 
4230.000000	64.951181 
4229.000000	64.952468 
4228.000000	64.944624 
4227.000000	64.929485 
4226.000000	64.910221 
4225.000000	64.890861 
4224.000000	64.875411 
4223.000000	64.867377 
4222.000000	64.869427 
4221.000000	64.883041 
4220.000000	64.908385 
4219.000000	64.944362 
4218.000000	64.988684 
4217.000000	65.038013 
4216.000000	65.088582 
4215.000000	65.136027 
4214.000000	65.176129 
4213.000000	65.204668 
4212.000000	65.218114 
4211.000000	65.214014 
4210.000000	65.191459 
4209.000000	65.151691 
4208.000000	65.098333 
4207.000000	65.037059 
4206.000000	64.974951 
4205.000000	64.919257 
4204.000000	64.876437 
4203.000000	64.850664 
4202.000000	64.843630 
4201.000000	64.854192 
4200.000000	64.879274 
4199.000000	64.914417 
4198.000000	64.954614 
4197.000000	64.994907 
4196.000000	65.031075 
4195.000000	65.059494 
4194.000000	65.077710 
4193.000000	65.084075 
4192.000000	65.078091 
4191.000000	65.060544 
4190.000000	65.033507 
4189.000000	65.000581 
4188.000000	64.965939 
4187.000000	64.934444 
4186.000000	64.909815 
4185.000000	64.894628 
4184.000000	64.889025 
4183.000000	64.890861 
4182.000000	64.896464 
4181.000000	64.901781 
4180.000000	64.903354 
4179.000000	64.899325 
4178.000000	64.889883 
4177.000000	64.876961 
4176.000000	64.863801 
4175.000000	64.854073 
4174.000000	64.850926 
4173.000000	64.856266 
4172.000000	64.870834 
4171.000000	64.894032 
4170.000000	64.924144 
4169.000000	64.958572 
4168.000000	64.994502 
4167.000000	65.028977 
4166.000000	65.059280 
4165.000000	65.083265 
4164.000000	65.099477 
4163.000000	65.107250 
4162.000000	65.107274 
4161.000000	65.101075 
4160.000000	65.091395 
4159.000000	65.080761 
