PE IR       SPECTRUM    SPECTRUM    ASCII       PEDS        1.60        
  -1
BZ6B22~1.ASC
17/04/07
13:29:44.00
17/04/07
13:29:44.00
tln
$BZ1503107-1_t0003$<tbV0>[7.8,-13.0,8.0,0.0,27,1,0]
370.000000
64









2002,4.07    
MIRTGS : RIGHTBACK : INTERNAL 2
MIR : ON : INTERNAL 2
OPTKBR

0.200000
8
8.000000
FILLER
RATIO
SPECTRUM
UNLOCKED 256

DOUBLE
64
COMBINED
1
0
0


1.000000
RATIO


1
0
TRUE
51149
0
LEFT NOT FITTED RIGHT NOT FITTED 0
NONE
NONE
15600
12.000000
4.427000
51148
TRUE
1 0 8 72 0 0 0 0 

15798.010000






#HDR
-1
-1
#GR
CM-1
%T
0.00002384185791015625
0.0
5000.000000
-1.000000
4631
8
101.088881
29.386591
#DATA
5000.000000	64.886283  
4999.000000	64.888262  
4998.000000	64.868307  
4997.000000	64.826631  
4996.000000	64.766621  
4995.000000	64.693689  
4994.000000	64.615178  
4993.000000	64.538550  
4992.000000	64.471316  
4991.000000	64.419579  
4990.000000	64.388036  
4989.000000	64.379143  
4988.000000	64.393043  
4987.000000	64.427375  
4986.000000	64.477252  
4985.000000	64.535737  
4984.000000	64.595723  
4983.000000	64.651012  
4982.000000	64.697599  
4981.000000	64.733862  
4980.000000	64.760541  
4979.000000	64.779400  
4978.000000	64.792919  
4977.000000	64.802598  
4976.000000	64.807963  
4975.000000	64.806389  
4974.000000	64.794850  
4973.000000	64.770650  
4972.000000	64.732956  
4971.000000	64.683723  
4970.000000	64.628362  
4969.000000	64.574694  
4968.000000	64.531302  
4967.000000	64.505457  
4966.000000	64.501500  
4965.000000	64.519381  
4964.000000	64.555311  
4963.000000	64.601206  
4962.000000	64.647221  
4961.000000	64.682054  
4960.000000	64.695549  
4959.000000	64.680051  
4958.000000	64.631748  
4957.000000	64.552712  
4956.000000	64.450979  
4955.000000	64.339947  
4954.000000	64.236569  
4953.000000	64.158582  
4952.000000	64.121389  
4951.000000	64.134979  
4950.000000	64.201998  
4949.000000	64.317584  
4948.000000	64.470148  
4947.000000	64.643025  
4946.000000	64.818000  
4945.000000	64.978313  
4944.000000	65.111231  
4943.000000	65.209221  
4942.000000	65.269970  
4941.000000	65.295624  
4940.000000	65.290498  
4939.000000	65.260481  
4938.000000	65.210294  
4937.000000	65.144085  
4936.000000	65.064001  
4935.000000	64.972543  
4934.000000	64.871621  
4933.000000	64.764428  
4932.000000	64.655113  
4931.000000	64.549136  
4930.000000	64.453458  
4929.000000	64.375686  
4928.000000	64.323091  
4927.000000	64.300870  
4926.000000	64.309835  
4925.000000	64.345765  
4924.000000	64.399147  
4923.000000	64.457035  
4922.000000	64.504909  
4921.000000	64.530038  
4920.000000	64.523339  
4919.000000	64.482283  
4918.000000	64.410591  
4917.000000	64.318108  
4916.000000	64.218330  
4915.000000	64.125752  
4914.000000	64.052987  
4913.000000	64.007568  
4912.000000	63.992238  
4911.000000	64.002346  
4910.000000	64.027309  
4909.000000	64.053106  
4908.000000	64.066767  
4907.000000	64.057469  
4906.000000	64.017915  
4905.000000	63.949370  
4904.000000	63.861274  
4903.000000	63.770890  
4902.000000	63.698911  
4901.000000	63.666200  
4900.000000	63.687562  
4899.000000	63.767981  
4898.000000	63.899922  
4897.000000	64.062237  
4896.000000	64.225578  
4895.000000	64.359235  
4894.000000	64.439845  
4893.000000	64.455437  
4892.000000	64.410996  
4891.000000	64.326214  
4890.000000	64.232921  
4889.000000	64.164543  
4888.000000	64.151692  
4887.000000	64.212369  
4886.000000	64.353322  
4885.000000	64.566659  
4884.000000	64.838886  
4883.000000	65.154552  
4882.000000	65.502285  
4881.000000	65.876460  
4880.000000	66.274142  
4879.000000	66.691327  
4878.000000	67.116785  
4877.000000	67.529296  
4876.000000	67.895483  
4875.000000	68.173933  
4874.000000	68.324017  
4873.000000	68.314695  
4872.000000	68.132328  
4871.000000	67.784881  
4870.000000	67.303729  
4869.000000	66.738343  
4868.000000	66.148829  
4867.000000	65.595674  
4866.000000	65.130090  
4865.000000	64.786577  
4864.000000	64.582347  
4863.000000	64.514493  
4862.000000	64.563751  
4861.000000	64.698863  
4860.000000	64.882278  
4859.000000	65.077066  
4858.000000	65.246796  
4857.000000	65.366864  
4856.000000	65.421271  
4855.000000	65.410685  
4854.000000	65.346002  
4853.000000	65.252089  
4852.000000	65.161013  
4851.000000	65.105390  
4850.000000	65.110659  
4849.000000	65.189599  
4848.000000	65.339279  
4847.000000	65.539288  
4846.000000	65.756416  
4845.000000	65.952396  
4844.000000	66.092348  
4843.000000	66.152000  
4842.000000	66.122221  
4841.000000	66.009664  
4840.000000	65.833616  
4839.000000	65.620517  
4838.000000	65.397644  
4837.000000	65.185952  
4836.000000	64.998936  
4835.000000	64.845323  
4834.000000	64.728331  
4833.000000	64.648318  
4832.000000	64.604640  
4831.000000	64.598584  
4830.000000	64.630150  
4829.000000	64.696073  
4828.000000	64.788269  
4827.000000	64.890980  
4826.000000	64.986324  
4825.000000	65.056324  
4824.000000	65.088748  
4823.000000	65.079665  
4822.000000	65.035629  
4821.000000	64.971971  
4820.000000	64.908790  
4819.000000	64.864921  
4818.000000	64.852094  
4817.000000	64.871335  
4816.000000	64.912414  
4815.000000	64.957404  
4814.000000	64.986729  
4813.000000	64.985823  
4812.000000	64.948725  
4811.000000	64.882206  
4810.000000	64.803910  
4809.000000	64.738607  
4808.000000	64.710426  
4807.000000	64.736771  
4806.000000	64.822745  
4805.000000	64.959621  
4804.000000	65.128040  
4803.000000	65.301251  
4802.000000	65.452122  
4801.000000	65.558862  
4800.000000	65.609884  
4799.000000	65.606045  
4798.000000	65.559363  
4797.000000	65.489339  
4796.000000	65.417218  
4795.000000	65.361642  
4794.000000	65.334224  
4793.000000	65.339112  
4792.000000	65.372419  
4791.000000	65.423989  
4790.000000	65.479564  
4789.000000	65.525078  
4788.000000	65.548539  
4787.000000	65.541124  
4786.000000	65.498781  
4785.000000	65.421009  
4784.000000	65.312385  
4783.000000	65.181446  
4782.000000	65.040445  
4781.000000	64.903831  
4780.000000	64.785671  
4779.000000	64.699244  
4778.000000	64.652013  
4777.000000	64.645433  
4776.000000	64.671874  
4775.000000	64.715957  
4774.000000	64.757442  
4773.000000	64.774441  
4772.000000	64.751243  
4771.000000	64.681553  
4770.000000	64.573073  
4769.000000	64.445042  
4768.000000	64.327740  
4767.000000	64.254784  
4766.000000	64.255928  
4765.000000	64.348244  
4764.000000	64.530992  
4763.000000	64.783620  
4762.000000	65.070104  
4761.000000	65.345668  
4760.000000	65.566444  
4759.000000	65.698599  
4758.000000	65.725207  
4757.000000	65.648722  
4756.000000	65.488338  
4755.000000	65.274930  
4754.000000	65.042805  
4753.000000	64.822959  
4752.000000	64.638781  
4751.000000	64.502167  
4750.000000	64.416670  
4749.000000	64.376688  
4748.000000	64.372920  
4747.000000	64.393973  
4746.000000	64.429879  
4745.000000	64.472651  
4744.000000	64.515638  
4743.000000	64.554452  
4742.000000	64.585232  
4741.000000	64.606618  
4740.000000	64.618873  
4739.000000	64.624834  
4738.000000	64.628791  
4737.000000	64.635920  
4736.000000	64.650511  
4735.000000	64.675283  
4734.000000	64.709830  
4733.000000	64.751315  
4732.000000	64.793848  
4731.000000	64.830780  
4730.000000	64.854407  
4729.000000	64.858436  
4728.000000	64.837932  
4727.000000	64.789247  
4726.000000	64.712214  
4725.000000	64.609789  
4724.000000	64.489698  
4723.000000	64.363336  
4722.000000	64.245128  
4721.000000	64.149451  
4720.000000	64.089417  
4719.000000	64.074659  
4718.000000	64.108133  
4717.000000	64.184880  
4716.000000	64.292645  
4715.000000	64.413928  
4714.000000	64.529395  
4713.000000	64.621663  
4712.000000	64.678931  
4711.000000	64.697170  
4710.000000	64.680576  
4709.000000	64.640021  
4708.000000	64.590358  
4707.000000	64.546227  
4706.000000	64.519214  
4705.000000	64.514398  
4704.000000	64.531064  
4703.000000	64.561891  
4702.000000	64.596247  
4701.000000	64.622402  
4700.000000	64.630746  
4699.000000	64.616560  
4698.000000	64.580559  
4697.000000	64.529681  
4696.000000	64.474248  
4695.000000	64.426898  
4694.000000	64.398670  
4693.000000	64.397478  
4692.000000	64.426374  
4691.000000	64.482903  
4690.000000	64.559984  
4689.000000	64.647841  
4688.000000	64.736413  
4687.000000	64.817333  
4686.000000	64.885568  
4685.000000	64.939880  
4684.000000	64.982295  
4683.000000	65.017724  
4682.000000	65.051651  
4681.000000	65.088677  
4680.000000	65.130305  
4679.000000	65.175056  
4678.000000	65.218091  
4677.000000	65.253281  
4676.000000	65.274286  
4675.000000	65.276694  
4674.000000	65.259051  
4673.000000	65.223741  
4672.000000	65.176153  
4671.000000	65.123534  
4670.000000	65.073323  
4669.000000	65.031313  
4668.000000	65.001034  
4667.000000	64.983963  
4666.000000	64.979219  
4665.000000	64.984869  
4664.000000	64.997935  
4663.000000	65.015387  
4662.000000	65.033793  
4661.000000	65.049695  
4660.000000	65.059280  
4659.000000	65.059089  
4658.000000	65.045976  
4657.000000	65.018320  
4656.000000	64.977836  
4655.000000	64.929699  
4654.000000	64.882159  
4653.000000	64.844512  
4652.000000	64.825773  
4651.000000	64.831614  
4650.000000	64.862799  
4649.000000	64.914274  
4648.000000	64.976143  
4647.000000	65.035533  
4646.000000	65.079545  
4645.000000	65.098047  
4644.000000	65.085387  
4643.000000	65.041780  
4642.000000	64.972519  
4641.000000	64.887452  
4640.000000	64.798283  
4639.000000	64.716815  
4638.000000	64.652824  
4637.000000	64.612197  
4636.000000	64.596796  
4635.000000	64.603900  
4634.000000	64.628005  
4633.000000	64.661049  
4632.000000	64.694523  
4631.000000	64.720296  
4630.000000	64.732360  
4629.000000	64.727234  
4628.000000	64.704942  
4627.000000	64.668655  
4626.000000	64.624500  
4625.000000	64.580273  
4624.000000	64.544057  
4623.000000	64.523553  
4622.000000	64.523935  
4621.000000	64.547300  
4620.000000	64.591670  
4619.000000	64.652085  
4618.000000	64.720582  
4617.000000	64.787721  
4616.000000	64.844131  
4615.000000	64.881968  
4614.000000	64.896488  
4613.000000	64.886522  
4612.000000	64.854741  
4611.000000	64.806890  
4610.000000	64.750766  
4609.000000	64.694809  
4608.000000	64.646601  
4607.000000	64.611935  
4606.000000	64.593577  
4605.000000	64.591455  
4604.000000	64.602994  
4603.000000	64.624381  
4602.000000	64.651727  
4601.000000	64.682316  
4600.000000	64.714455  
4599.000000	64.748167  
4598.000000	64.784097  
4597.000000	64.823532  
4596.000000	64.866566  
4595.000000	64.912676  
4594.000000	64.960384  
4593.000000	65.007781  
4592.000000	65.053176  
4591.000000	65.095090  
4590.000000	65.133357  
4589.000000	65.167593  
4588.000000	65.197944  
4587.000000	65.223193  
4586.000000	65.241456  
4585.000000	65.249252  
4584.000000	65.242934  
4583.000000	65.219426  
4582.000000	65.177893  
4581.000000	65.120172  
4580.000000	65.051198  
4579.000000	64.977383  
4578.000000	64.905476  
4577.000000	64.841198  
4576.000000	64.788150  
4575.000000	64.747428  
4574.000000	64.717817  
4573.000000	64.697098  
4572.000000	64.682340  
4571.000000	64.670729  
4570.000000	64.659643  
4569.000000	64.646530  
4568.000000	64.629268  
4567.000000	64.605927  
4566.000000	64.575242  
4565.000000	64.536690  
4564.000000	64.490938  
4563.000000	64.439916  
4562.000000	64.386940  
4561.000000	64.335823  
4560.000000	64.290666  
4559.000000	64.255285  
4558.000000	64.232301  
4557.000000	64.222621  
4556.000000	64.225292  
4555.000000	64.237666  
4554.000000	64.256405  
4553.000000	64.278244  
4552.000000	64.301109  
4551.000000	64.324402  
4550.000000	64.349150  
4549.000000	64.377641  
4548.000000	64.411544  
4547.000000	64.451360  
4546.000000	64.496111  
4545.000000	64.543652  
4544.000000	64.591097  
4543.000000	64.635777  
4542.000000	64.676928  
4541.000000	64.714694  
4540.000000	64.749979  
4539.000000	64.783263  
4538.000000	64.814543  
4537.000000	64.842247  
4536.000000	64.863562  
4535.000000	64.875173  
4534.000000	64.875340  
4533.000000	64.863920  
4532.000000	64.842963  
4531.000000	64.817047  
4530.000000	64.792656  
4529.000000	64.776635  
4528.000000	64.774513  
4527.000000	64.789652  
4526.000000	64.822316  
4525.000000	64.869928  
4524.000000	64.927268  
4523.000000	64.988994  
4522.000000	65.050506  
4521.000000	65.107226  
4520.000000	65.155553  
4519.000000	65.192079  
4518.000000	65.214776  
4517.000000	65.224099  
4516.000000	65.222883  
4515.000000	65.216994  
4514.000000	65.212988  
4513.000000	65.214204  
4512.000000	65.222525  
4511.000000	65.237450  
4510.000000	65.259170  
4509.000000	65.290760  
4508.000000	65.336513  
4507.000000	65.401935  
4506.000000	65.489077  
4505.000000	65.595221  
4504.000000	65.710735  
4503.000000	65.816736  
4502.000000	65.896463  
4501.000000	65.939593  
4500.000000	65.948939  
4499.000000	65.940356  
4498.000000	65.941572  
4497.000000	65.984320  
4496.000000	66.090297  
4495.000000	66.262984  
4494.000000	66.484546  
4493.000000	66.720676  
4492.000000	66.924047  
4491.000000	67.052936  
4490.000000	67.087936  
4489.000000	67.040252  
4488.000000	66.954302  
4487.000000	66.892218  
4486.000000	66.917777  
4485.000000	67.070746  
4484.000000	67.357397  
4483.000000	67.737650  
4482.000000	68.135428  
4481.000000	68.452692  
4480.000000	68.601846  
4479.000000	68.521046  
4478.000000	68.193101  
4477.000000	67.648744  
4476.000000	66.961312  
4475.000000	66.226053  
4474.000000	65.538096  
4473.000000	64.967441  
4472.000000	64.545917  
4471.000000	64.255952  
4470.000000	64.040279  
4469.000000	63.817024  
4468.000000	63.506579  
4467.000000	63.051867  
4466.000000	62.440085  
4465.000000	61.701250  
4464.000000	60.910320  
4463.000000	60.164284  
4462.000000	59.569025  
4461.000000	59.206151  
4460.000000	59.126543  
4459.000000	59.337425  
4458.000000	59.809374  
4457.000000	60.479855  
4456.000000	61.273694  
4455.000000	62.115144  
4454.000000	62.942004  
4453.000000	63.706731  
4452.000000	64.381241  
4451.000000	64.947414  
4450.000000	65.397787  
4449.000000	65.726900  
4448.000000	65.936350  
4447.000000	66.034817  
4446.000000	66.040849  
4445.000000	65.985727  
4444.000000	65.901184  
4443.000000	65.815973  
4442.000000	65.750622  
4441.000000	65.715360  
4440.000000	65.706396  
4439.000000	65.709376  
4438.000000	65.709495  
4437.000000	65.694570  
4436.000000	65.657639  
4435.000000	65.598177  
4434.000000	65.521454  
4433.000000	65.436053  
4432.000000	65.349245  
4431.000000	65.266084  
4430.000000	65.189480  
4429.000000	65.118765  
4428.000000	65.050673  
4427.000000	64.980912  
4426.000000	64.905309  
4425.000000	64.822864  
4424.000000	64.737987  
4423.000000	64.657735  
4422.000000	64.587545  
4421.000000	64.534401  
4420.000000	64.505434  
4419.000000	64.504957  
4418.000000	64.532256  
4417.000000	64.584064  
4416.000000	64.654970  
4415.000000	64.737272  
4414.000000	64.822626  
4413.000000	64.904403  
4412.000000	64.978551  
4411.000000	65.044474  
4410.000000	65.103816  
4409.000000	65.158700  
4408.000000	65.210247  
4407.000000	65.257525  
4406.000000	65.297818  
4405.000000	65.327453  
4404.000000	65.343260  
4403.000000	65.345096  
4402.000000	65.335369  
4401.000000	65.319275  
4400.000000	65.303468  
4399.000000	65.295290  
4398.000000	65.300226  
4397.000000	65.320920  
4396.000000	65.355706  
4395.000000	65.399813  
4394.000000	65.445184  
4393.000000	65.482687  
4392.000000	65.503525  
4391.000000	65.501427  
4390.000000	65.473961  
4389.000000	65.422964  
4388.000000	65.354514  
4387.000000	65.277457  
4386.000000	65.201449  
4385.000000	65.134787  
4384.000000	65.082836  
4383.000000	65.047144  
4382.000000	65.025997  
4381.000000	65.015339  
4380.000000	65.009927  
4379.000000	65.005421  
4378.000000	64.999294  
4377.000000	64.991784  
4376.000000	64.985108  
4375.000000	64.982771  
4374.000000	64.988160  
4373.000000	65.002536  
4372.000000	65.024614  
4371.000000	65.049457  
4370.000000	65.069246  
4369.000000	65.074777  
4368.000000	65.057754  
4367.000000	65.013527  
4366.000000	64.942765  
4365.000000	64.852118  
4364.000000	64.753270  
4363.000000	64.661097  
4362.000000	64.590430  
4361.000000	64.552521  
4360.000000	64.552760  
4359.000000	64.589571  
4358.000000	64.655160  
4357.000000	64.737153  
4356.000000	64.822101  
4355.000000	64.897799  
4354.000000	64.956784  
4353.000000	64.996361  
4352.000000	65.019726  
4351.000000	65.033388  
4350.000000	65.046072  
4349.000000	65.065407  
4348.000000	65.096354  
4347.000000	65.140461  
4346.000000	65.195035  
4345.000000	65.255522  
4344.000000	65.315032  
4343.000000	65.366840  
4342.000000	65.404653  
4341.000000	65.424489  
4340.000000	65.424132  
4339.000000	65.403270  
4338.000000	65.363264  
4337.000000	65.306949  
4336.000000	65.238261  
4335.000000	65.161800  
4334.000000	65.082764  
4333.000000	65.006518  
4332.000000	64.937853  
4331.000000	64.880132  
4330.000000	64.835166  
4329.000000	64.802646  
4328.000000	64.779710  
4327.000000	64.762234  
4326.000000	64.744710  
4325.000000	64.722990  
4324.000000	64.694786  
4323.000000	64.661836  
4322.000000	64.627861  
4321.000000	64.599776  
4320.000000	64.584970  
4319.000000	64.590501  
4318.000000	64.620137  
4317.000000	64.674329  
4316.000000	64.749193  
4315.000000	64.837741  
4314.000000	64.930796  
4313.000000	65.019178  
4312.000000	65.095162  
4311.000000	65.153741  
4310.000000	65.193080  
4309.000000	65.214300  
4308.000000	65.220403  
4307.000000	65.215682  
4306.000000	65.204358  
4305.000000	65.189862  
4304.000000	65.174126  
4303.000000	65.158438  
4302.000000	65.142822  
4301.000000	65.126633  
4300.000000	65.108585  
4299.000000	65.087723  
4298.000000	65.063881  
4297.000000	65.037703  
4296.000000	65.010952  
4295.000000	64.986348  
4294.000000	64.966750  
4293.000000	64.954519  
4292.000000	64.950990  
4291.000000	64.955663  
4290.000000	64.966797  
4289.000000	64.981555  
4288.000000	64.997124  
4287.000000	65.011215  
4286.000000	65.022802  
4285.000000	65.032291  
4284.000000	65.041089  
4283.000000	65.050864  
4282.000000	65.063190  
4281.000000	65.078759  
4280.000000	65.096664  
4279.000000	65.114617  
4278.000000	65.129804  
4277.000000	65.139675  
4276.000000	65.142798  
4275.000000	65.139055  
4274.000000	65.129709  
4273.000000	65.117144  
4272.000000	65.104317  
4271.000000	65.094161  
4270.000000	65.088891  
4269.000000	65.089511  
4268.000000	65.096259  
4267.000000	65.107917  
4266.000000	65.122199  
4265.000000	65.136098  
4264.000000	65.146684  
4263.000000	65.151810  
4262.000000	65.150880  
4261.000000	65.145111  
4260.000000	65.136981  
4259.000000	65.129899  
4258.000000	65.127182  
4257.000000	65.130686  
4256.000000	65.140175  
4255.000000	65.153098  
4254.000000	65.165281  
4253.000000	65.171623  
4252.000000	65.167760  
4251.000000	65.151405  
4250.000000	65.123152  
4249.000000	65.086460  
4248.000000	65.047192  
4247.000000	65.011930  
4246.000000	64.986705  
4245.000000	64.975547  
4244.000000	64.979767  
4243.000000	64.998435  
4242.000000	65.028333  
4241.000000	65.065503  
4240.000000	65.105104  
4239.000000	65.142464  
4238.000000	65.173220  
4237.000000	65.193390  
4236.000000	65.199947  
4235.000000	65.190815  
4234.000000	65.165662  
4233.000000	65.126013  
4232.000000	65.075349  
4231.000000	65.018773  
4230.000000	64.962100  
4229.000000	64.911270  
4228.000000	64.871025  
4227.000000	64.844369  
4226.000000	64.831829  
4225.000000	64.831686  
4224.000000	64.840650  
4223.000000	64.854884  
4222.000000	64.870810  
4221.000000	64.885902  
4220.000000	64.899063  
4219.000000	64.910387  
4218.000000	64.920520  
4217.000000	64.930105  
4216.000000	64.938902  
4215.000000	64.945840  
4214.000000	64.949274  
4213.000000	64.947795  
4212.000000	64.940500  
4211.000000	64.927959  
4210.000000	64.912605  
4209.000000	64.897871  
4208.000000	64.887809  
4207.000000	64.885640  
4206.000000	64.893054  
4205.000000	64.909029  
4204.000000	64.929842  
4203.000000	64.949822  
4202.000000	64.962697  
4201.000000	64.962911  
4200.000000	64.947104  
4199.000000	64.915227  
4198.000000	64.870548  
4197.000000	64.818906  
4196.000000	64.767265  
4195.000000	64.722418  
4194.000000	64.689707  
