PE IR       SPECTRUM    SPECTRUM    ASCII       PEDS        1.60        
  -1
BZ6BA5~1.ASC
17/04/07
20:55:14.00
17/04/07
20:55:14.00
tln
$BZ1503107-1_t0093$<tbV0>[2.6,7.8,8.0,0.0,27,1,0]
370.000000
64









2002,4.07    
MIRTGS : RIGHTBACK : INTERNAL 2
MIR : ON : INTERNAL 2
OPTKBR

0.200000
8
8.000000
FILLER
RATIO
SPECTRUM
UNLOCKED 256

DOUBLE
64
COMBINED
1
0
0


1.000000
RATIO


1
0
TRUE
51149
0
LEFT NOT FITTED RIGHT NOT FITTED 0
NONE
NONE
15600
12.000000
4.427000
51148
TRUE
1 0 8 72 0 0 0 0 

15798.010000






#HDR
-1
-1
#GR
CM-1
%T
0.00002384185791015625
0.0
5000.000000
-1.000000
4631
8
101.733064
54.710626
#DATA
5000.000000	65.588665  
4999.000000	65.718507  
4998.000000	65.786075  
4997.000000	65.782976  
4996.000000	65.703725  
4995.000000	65.546894  
4994.000000	65.317440  
4993.000000	65.029025  
4992.000000	64.704108  
4991.000000	64.372801  
4990.000000	64.069199  
4989.000000	63.827800  
4988.000000	63.674521  
4987.000000	63.621997  
4986.000000	63.665342  
4985.000000	63.783264  
4984.000000	63.940262  
4983.000000	64.094233  
4982.000000	64.205431  
4981.000000	64.245390  
4980.000000	64.200782  
4979.000000	64.076519  
4978.000000	63.891744  
4977.000000	63.676738  
4976.000000	63.464689  
4975.000000	63.287806  
4974.000000	63.168287  
4973.000000	63.120508  
4972.000000	63.151717  
4971.000000	63.264155  
4970.000000	63.455057  
4969.000000	63.718819  
4968.000000	64.046430  
4967.000000	64.424729  
4966.000000	64.832234  
4965.000000	65.244030  
4964.000000	65.632009  
4963.000000	65.971064  
4962.000000	66.241621  
4961.000000	66.435503  
4960.000000	66.556596  
4959.000000	66.622090  
4958.000000	66.658806  
4957.000000	66.696500  
4956.000000	66.760110  
4955.000000	66.865897  
4954.000000	67.015600  
4953.000000	67.194294  
4952.000000	67.371511  
4951.000000	67.508888  
4950.000000	67.567205  
4949.000000	67.516589  
4948.000000	67.343211  
4947.000000	67.054128  
4946.000000	66.676211  
4945.000000	66.251540  
4944.000000	65.827941  
4943.000000	65.452051  
4942.000000	65.156269  
4941.000000	64.955711  
4940.000000	64.843201  
4939.000000	64.794611  
4938.000000	64.774370  
4937.000000	64.745259  
4936.000000	64.678645  
4935.000000	64.557433  
4934.000000	64.386868  
4933.000000	64.190602  
4932.000000	64.006018  
4931.000000	63.871741  
4930.000000	63.821244  
4929.000000	63.872861  
4928.000000	64.025068  
4927.000000	64.256238  
4926.000000	64.530897  
4925.000000	64.807462  
4924.000000	65.047144  
4923.000000	65.221953  
4922.000000	65.317821  
4921.000000	65.337204  
4920.000000	65.293455  
4919.000000	65.209484  
4918.000000	65.110874  
4917.000000	65.022134  
4916.000000	64.964818  
4915.000000	64.951848  
4914.000000	64.989185  
4913.000000	65.071845  
4912.000000	65.191125  
4911.000000	65.329074  
4910.000000	65.462064  
4909.000000	65.564870  
4908.000000	65.615010  
4907.000000	65.599083  
4906.000000	65.515351  
4905.000000	65.376400  
4904.000000	65.206480  
4903.000000	65.036010  
4902.000000	64.894533  
4901.000000	64.803290  
4900.000000	64.770054  
4899.000000	64.788126  
4898.000000	64.838123  
4897.000000	64.894199  
4896.000000	64.930725  
4895.000000	64.928436  
4894.000000	64.880037  
4893.000000	64.788317  
4892.000000	64.667987  
4891.000000	64.540123  
4890.000000	64.429068  
4889.000000	64.354777  
4888.000000	64.330530  
4887.000000	64.361000  
4886.000000	64.440751  
4885.000000	64.558029  
4884.000000	64.694333  
4883.000000	64.828896  
4882.000000	64.941215  
4881.000000	65.013885  
4880.000000	65.036702  
4879.000000	65.007543  
4878.000000	64.933180  
4877.000000	64.827084  
4876.000000	64.706516  
4875.000000	64.588809  
4874.000000	64.488124  
4873.000000	64.413118  
4872.000000	64.365673  
4871.000000	64.341855  
4870.000000	64.335179  
4869.000000	64.338755  
4868.000000	64.346671  
4867.000000	64.355802  
4866.000000	64.365077  
4865.000000	64.375996  
4864.000000	64.390230  
4863.000000	64.409589  
4862.000000	64.433860  
4861.000000	64.461493  
4860.000000	64.490008  
4859.000000	64.516258  
4858.000000	64.538526  
4857.000000	64.555215  
4856.000000	64.565181  
4855.000000	64.567208  
4854.000000	64.559793  
4853.000000	64.542174  
4852.000000	64.514684  
4851.000000	64.479923  
4850.000000	64.442682  
4849.000000	64.410448  
4848.000000	64.392137  
4847.000000	64.396715  
4846.000000	64.431023  
4845.000000	64.497780  
4844.000000	64.594244  
4843.000000	64.712452  
4842.000000	64.839839  
4841.000000	64.960885  
4840.000000	65.060186  
4839.000000	65.125346  
4838.000000	65.149831  
4837.000000	65.134096  
4836.000000	65.085673  
4835.000000	65.017724  
4834.000000	64.945411  
4833.000000	64.883542  
4832.000000	64.842367  
4831.000000	64.826679  
4830.000000	64.834260  
4829.000000	64.857721  
4828.000000	64.886641  
4827.000000	64.910554  
4826.000000	64.922785  
4825.000000	64.922070  
4824.000000	64.913010  
4823.000000	64.903974  
4822.000000	64.904618  
4821.000000	64.922261  
4820.000000	64.959526  
4819.000000	65.012812  
4818.000000	65.073561  
4817.000000	65.130138  
4816.000000	65.171217  
4815.000000	65.188527  
4814.000000	65.179014  
4813.000000	65.145516  
4812.000000	65.095329  
4811.000000	65.038871  
4810.000000	64.986944  
4809.000000	64.948606  
4808.000000	64.929223  
4807.000000	64.929604  
4806.000000	64.947295  
4805.000000	64.976358  
4804.000000	65.009951  
4803.000000	65.040874  
4802.000000	65.062880  
4801.000000	65.071773  
4800.000000	65.065479  
4799.000000	65.045046  
4798.000000	65.013718  
4797.000000	64.976859  
4796.000000	64.940571  
4795.000000	64.910578  
4794.000000	64.890956  
4793.000000	64.883184  
4792.000000	64.886045  
4791.000000	64.896202  
4790.000000	64.909195  
4789.000000	64.920830  
4788.000000	64.928388  
4787.000000	64.931273  
4786.000000	64.931178  
4785.000000	64.930915  
4784.000000	64.933872  
4783.000000	64.942574  
4782.000000	64.958047  
4781.000000	64.979553  
4780.000000	65.004491  
4779.000000	65.029358  
4778.000000	65.050387  
4777.000000	65.064954  
4776.000000	65.071535  
4775.000000	65.069770  
4774.000000	65.060544  
4773.000000	65.045118  
4772.000000	65.025997  
4771.000000	65.006303  
4770.000000	64.989686  
4769.000000	64.979791  
4768.000000	64.979767  
4767.000000	64.991521  
4766.000000	65.015006  
4765.000000	65.047931  
4764.000000	65.085506  
4763.000000	65.121221  
4762.000000	65.148210  
4761.000000	65.160989  
4760.000000	65.156674  
4759.000000	65.136003  
4758.000000	65.103292  
4757.000000	65.065407  
4756.000000	65.030384  
4755.000000	65.005350  
4754.000000	64.995026  
4753.000000	65.000462  
4752.000000	65.019559  
4751.000000	65.047192  
4750.000000	65.077376  
4749.000000	65.103554  
4748.000000	65.120458  
4747.000000	65.124487  
4746.000000	65.113949  
4745.000000	65.089297  
4744.000000	65.052437  
4743.000000	65.006852  
4742.000000	64.956879  
4741.000000	64.907431  
4740.000000	64.863228  
4739.000000	64.828848  
4738.000000	64.807653  
4737.000000	64.801335  
4736.000000	64.809274  
4735.000000	64.828228  
4734.000000	64.852905  
4733.000000	64.877104  
4732.000000	64.895009  
4731.000000	64.901781  
4730.000000	64.895272  
4729.000000	64.876103  
4728.000000	64.848208  
4727.000000	64.816761  
4726.000000	64.788150  
4725.000000	64.768242  
4724.000000	64.761567  
4723.000000	64.770412  
4722.000000	64.794564  
4721.000000	64.831209  
4720.000000	64.876389  
4719.000000	64.925622  
4718.000000	64.975571  
4717.000000	65.024280  
4716.000000	65.071558  
4715.000000	65.118503  
4714.000000	65.166211  
4713.000000	65.214514  
4712.000000	65.261459  
4711.000000	65.302968  
4710.000000	65.333414  
4709.000000	65.346431  
4708.000000	65.337419  
4707.000000	65.304040  
4706.000000	65.247368  
4705.000000	65.171241  
4704.000000	65.082430  
4703.000000	64.988255  
4702.000000	64.895200  
4701.000000	64.807987  
4700.000000	64.728832  
4699.000000	64.658641  
4698.000000	64.597558  
4697.000000	64.546680  
4696.000000	64.508175  
4695.000000	64.486098  
4694.000000	64.484786  
4693.000000	64.508080  
4692.000000	64.556884  
4691.000000	64.628958  
4690.000000	64.718437  
4689.000000	64.816284  
4688.000000	64.911341  
4687.000000	64.992523  
4686.000000	65.050745  
4685.000000	65.080261  
4684.000000	65.079593  
4683.000000	65.052056  
4682.000000	65.005111  
4681.000000	64.948558  
4680.000000	64.893078  
4679.000000	64.848709  
4678.000000	64.822983  
4677.000000	64.820170  
4676.000000	64.840531  
4675.000000	64.880943  
4674.000000	64.935398  
4673.000000	64.996623  
4672.000000	65.057015  
4671.000000	65.109801  
4670.000000	65.149688  
4669.000000	65.173864  
4668.000000	65.181183  
4667.000000	65.171408  
4666.000000	65.145301  
4665.000000	65.104389  
4664.000000	65.050911  
4663.000000	64.987897  
4662.000000	64.919376  
4661.000000	64.850616  
4660.000000	64.786696  
4659.000000	64.732098  
4658.000000	64.689517  
4657.000000	64.659380  
4656.000000	64.639735  
4655.000000	64.626812  
4654.000000	64.615440  
4653.000000	64.600729  
4652.000000	64.579129  
4651.000000	64.549422  
4650.000000	64.512372  
4649.000000	64.470911  
4648.000000	64.429020  
4647.000000	64.391303  
4646.000000	64.360976  
4645.000000	64.340376  
4644.000000	64.330387  
4643.000000	64.331126  
4642.000000	64.341425  
4641.000000	64.360189  
4640.000000	64.386320  
4639.000000	64.419198  
4638.000000	64.457893  
4637.000000	64.502143  
4636.000000	64.551615  
4635.000000	64.606237  
4634.000000	64.665603  
4633.000000	64.728879  
4632.000000	64.794301  
4631.000000	64.859628  
4630.000000	64.921784  
4629.000000	64.977025  
4628.000000	65.020704  
4627.000000	65.048909  
4626.000000	65.058135  
4625.000000	65.046072  
4624.000000	65.011382  
4623.000000	64.954733  
4622.000000	64.878201  
4621.000000	64.785790  
4620.000000	64.682483  
4619.000000	64.574503  
4618.000000	64.468312  
4617.000000	64.370226  
4616.000000	64.285922  
4615.000000	64.220118  
4614.000000	64.175748  
4613.000000	64.153599  
4612.000000	64.152359  
4611.000000	64.168214  
4610.000000	64.196181  
4609.000000	64.230394  
4608.000000	64.265513  
4607.000000	64.296817  
4606.000000	64.322113  
4605.000000	64.341378  
4604.000000	64.356803  
4603.000000	64.371490  
4602.000000	64.389061  
4601.000000	64.411759  
4600.000000	64.439916  
4599.000000	64.470791  
4598.000000	64.499306  
4597.000000	64.518809  
4596.000000	64.522457  
4595.000000	64.505696  
4594.000000	64.467811  
4593.000000	64.412927  
4592.000000	64.349484  
4591.000000	64.288687  
4590.000000	64.241886  
4589.000000	64.218235  
4588.000000	64.222598  
4587.000000	64.254164  
4586.000000	64.306831  
4585.000000	64.370369  
4584.000000	64.433360  
4583.000000	64.485049  
4582.000000	64.517474  
4581.000000	64.527034  
4580.000000	64.514517  
4579.000000	64.484786  
4578.000000	64.445137  
4577.000000	64.403820  
4576.000000	64.367914  
4575.000000	64.342975  
4574.000000	64.331579  
4573.000000	64.333629  
4572.000000	64.345955  
4571.000000	64.363360  
4570.000000	64.379143  
4569.000000	64.386463  
4568.000000	64.379668  
4567.000000	64.355444  
4566.000000	64.313507  
4565.000000	64.256310  
4564.000000	64.188957  
4563.000000	64.117884  
4562.000000	64.049887  
4561.000000	63.990354  
4560.000000	63.942956  
4559.000000	63.908958  
4558.000000	63.887929  
4557.000000	63.878512  
4556.000000	63.878846  
4555.000000	63.886880  
4554.000000	63.900566  
4553.000000	63.918066  
4552.000000	63.936734  
4551.000000	63.953137  
4550.000000	63.963127  
4549.000000	63.962578  
4548.000000	63.948726  
4547.000000	63.921022  
4546.000000	63.882160  
4545.000000	63.837289  
4544.000000	63.793230  
4543.000000	63.756394  
4542.000000	63.731122  
4541.000000	63.718247  
4540.000000	63.714718  
4539.000000	63.714647  
4538.000000	63.710522  
4537.000000	63.696146  
4536.000000	63.667941  
4535.000000	63.627362  
4534.000000	63.579821  
4533.000000	63.535189  
4532.000000	63.504123  
4531.000000	63.497042  
4530.000000	63.520693  
4529.000000	63.577389  
4528.000000	63.663840  
4527.000000	63.772201  
4526.000000	63.891673  
4525.000000	64.010334  
4524.000000	64.117217  
4523.000000	64.203429  
4522.000000	64.262866  
4521.000000	64.293193  
4520.000000	64.295148  
4519.000000	64.271831  
4518.000000	64.227366  
4517.000000	64.166855  
4516.000000	64.095330  
4515.000000	64.018201  
4514.000000	63.940405  
4513.000000	63.867354  
4512.000000	63.804125  
4511.000000	63.755297  
4510.000000	63.724136  
4509.000000	63.711595  
4508.000000	63.716626  
4507.000000	63.734960  
4506.000000	63.761591  
4505.000000	63.791275  
4504.000000	63.820052  
4503.000000	63.846087  
4502.000000	63.868498  
4501.000000	63.886427  
4500.000000	63.898396  
4499.000000	63.902044  
4498.000000	63.893008  
4497.000000	63.865661  
4496.000000	63.814115  
4495.000000	63.734054  
4494.000000	63.624405  
4493.000000	63.488507  
4492.000000	63.334703  
4491.000000	63.175201  
4490.000000	63.022947  
4489.000000	62.889814  
4488.000000	62.785553  
4487.000000	62.715673  
4486.000000	62.679481  
4485.000000	62.671041  
4484.000000	62.682914  
4483.000000	62.705969  
4482.000000	62.724256  
4481.000000	62.726354  
4480.000000	62.709593  
4479.000000	62.680101  
4478.000000	62.640953  
4477.000000	62.607431  
4476.000000	62.612247  
4475.000000	62.678718  
4474.000000	62.807297  
4473.000000	62.987089  
4472.000000	63.198280  
4471.000000	63.412070  
4470.000000	63.599872  
4469.000000	63.730955  
4468.000000	63.781380  
4467.000000	63.756132  
4466.000000	63.686990  
4465.000000	63.620781  
4464.000000	63.607382  
4463.000000	63.684582  
4462.000000	63.872861  
4461.000000	64.147734  
4460.000000	64.473080  
4459.000000	64.824676  
4458.000000	65.203595  
4457.000000	65.634918  
4456.000000	66.174864  
4455.000000	66.848921  
4454.000000	67.716526  
4453.000000	68.784403  
4452.000000	70.132255  
4451.000000	71.902251  
4450.000000	74.276328  
4449.000000	77.456760  
4448.000000	81.496930  
4447.000000	86.250805  
4446.000000	91.302537  
4445.000000	96.017003  
4444.000000	99.690532  
4443.000000	101.709914 
4442.000000	101.733064 
4441.000000	99.769186  
4440.000000	96.141839  
4439.000000	91.405653  
4438.000000	86.190915  
4437.000000	81.074476  
4436.000000	76.504969  
4435.000000	72.731351  
4434.000000	69.863653  
4433.000000	67.856335  
4432.000000	66.590118  
4431.000000	65.900373  
4430.000000	65.598917  
4429.000000	65.534806  
4428.000000	65.571379  
4427.000000	65.634202  
4426.000000	65.643715  
4425.000000	65.573859  
4424.000000	65.408229  
4423.000000	65.165328  
4422.000000	64.869117  
4421.000000	64.562511  
4420.000000	64.296650  
4419.000000	64.110159  
4418.000000	64.016795  
4417.000000	64.012742  
4416.000000	64.079785  
4415.000000	64.186096  
4414.000000	64.295268  
4413.000000	64.382433  
4412.000000	64.437699  
4411.000000	64.455270  
4410.000000	64.436769  
4409.000000	64.385342  
4408.000000	64.306378  
4407.000000	64.219141  
4406.000000	64.144372  
4405.000000	64.083361  
4404.000000	64.030289  
4403.000000	63.989377  
4402.000000	63.963031  
4401.000000	63.946318  
4400.000000	63.934230  
4399.000000	63.926577  
4398.000000	63.923025  
4397.000000	63.921308  
4396.000000	63.918566  
4395.000000	63.910913  
4394.000000	63.895034  
4393.000000	63.868808  
4392.000000	63.833427  
4391.000000	63.793635  
4390.000000	63.755774  
4389.000000	63.726043  
4388.000000	63.709282  
4387.000000	63.707137  
4386.000000	63.716125  
4385.000000	63.728642  
4384.000000	63.734459  
4383.000000	63.724303  
4382.000000	63.692593  
4381.000000	63.639950  
4380.000000	63.572740  
4379.000000	63.502573  
4378.000000	63.442921  
4377.000000	63.406705  
4376.000000	63.402199  
4375.000000	63.432407  
4374.000000	63.493776  
4373.000000	63.578438  
4372.000000	63.676047  
4371.000000	63.776493  
4370.000000	63.871407  
4369.000000	63.955998  
4368.000000	64.028453  
4367.000000	64.089870  
4366.000000	64.142274  
4365.000000	64.187908  
4364.000000	64.228272  
4363.000000	64.263224  
4362.000000	64.291024  
4361.000000	64.309239  
4360.000000	64.315533  
4359.000000	64.308118  
4358.000000	64.286422  
4357.000000	64.251685  
4356.000000	64.206957  
4355.000000	64.156937  
4354.000000	64.107275  
4353.000000	64.064073  
4352.000000	64.032340  
4351.000000	64.015102  
4350.000000	64.012670  
4349.000000	64.022278  
4348.000000	64.039134  
4347.000000	64.057445  
4346.000000	64.072418  
4345.000000	64.080691  
4344.000000	64.082098  
4343.000000	64.078831  
4342.000000	64.075279  
4341.000000	64.076185  
4340.000000	64.085841  
4339.000000	64.106893  
4338.000000	64.139318  
4337.000000	64.180350  
4336.000000	64.225101  
4335.000000	64.267635  
4334.000000	64.302229  
4333.000000	64.324688  
4332.000000	64.332890  
4331.000000	64.327120  
4330.000000	64.310097  
4329.000000	64.285993  
4328.000000	64.259409  
4327.000000	64.234185  
4326.000000	64.213037  
4325.000000	64.196538  
4324.000000	64.183664  
4323.000000	64.171719  
4322.000000	64.157795  
4321.000000	64.139819  
4320.000000	64.116835  
4319.000000	64.090156  
4318.000000	64.062738  
4317.000000	64.039134  
4316.000000	64.023947  
4315.000000	64.021134  
4314.000000	64.032387  
4313.000000	64.057278  
4312.000000	64.093184  
4311.000000	64.136171  
4310.000000	64.181780  
4309.000000	64.226675  
4308.000000	64.269256  
4307.000000	64.310169  
4306.000000	64.351582  
4305.000000	64.396691  
4304.000000	64.448189  
4303.000000	64.507174  
4302.000000	64.572191  
4301.000000	64.639472  
4300.000000	64.703297  
4299.000000	64.757752  
4298.000000	64.797663  
4297.000000	64.820528  
4296.000000	64.826345  
4295.000000	64.818477  
4294.000000	64.801883  
4293.000000	64.782142  
4292.000000	64.763569  
4291.000000	64.748835  
4290.000000	64.738059  
4289.000000	64.729666  
4288.000000	64.720892  
4287.000000	64.709520  
4286.000000	64.694142  
4285.000000	64.674830  
4284.000000	64.652872  
4283.000000	64.630532  
4282.000000	64.610338  
4281.000000	64.594244  
4280.000000	64.583420  
4279.000000	64.577770  
4278.000000	64.576673  
4277.000000	64.579081  
4276.000000	64.583802  
4275.000000	64.589548  
4274.000000	64.595556  
4273.000000	64.601182  
4272.000000	64.605569  
4271.000000	64.607739  
4270.000000	64.606714  
4269.000000	64.601850  
4268.000000	64.592766  
4267.000000	64.579916  
4266.000000	64.564609  
4265.000000	64.549136  
4264.000000	64.536261  
4263.000000	64.529180  
4262.000000	64.530682  
4261.000000	64.542961  
4260.000000	64.567089  
4259.000000	64.602637  
4258.000000	64.647483  
4257.000000	64.698195  
4256.000000	64.750409  
4255.000000	64.799451  
4254.000000	64.840984  
4253.000000	64.871573  
4252.000000	64.889216  
4251.000000	64.893341  
4250.000000	64.884543  
4249.000000	64.864730  
4248.000000	64.836382  
4247.000000	64.802527  
4246.000000	64.766073  
4245.000000	64.730048  
4244.000000	64.697074  
4243.000000	64.669322  
4242.000000	64.648509  
4241.000000	64.635491  
4240.000000	64.630889  
4239.000000	64.634490  
4238.000000	64.646005  
4237.000000	64.664435  
4236.000000	64.688801  
4235.000000	64.717602  
4234.000000	64.749312  
4233.000000	64.782190  
4232.000000	64.814615  
4231.000000	64.845013  
4230.000000	64.872097  
4229.000000	64.894580  
4228.000000	64.911413  
4227.000000	64.921879  
4226.000000	64.925479  
4225.000000	64.922070  
4224.000000	64.912176  
4223.000000	64.896988  
4222.000000	64.878201  
4221.000000	64.857983  
4220.000000	64.838504  
4219.000000	64.821767  
4218.000000	64.809322  
4217.000000	64.802098  
4216.000000	64.800167  
4215.000000	64.803433  
4214.000000	64.811491  
4213.000000	64.824533  
4212.000000	64.842724  
4211.000000	64.866566  
4210.000000	64.896392  
4209.000000	64.931583  
4208.000000	64.970040  
4207.000000	65.008115  
4206.000000	65.040969  
4205.000000	65.063667  
4204.000000	65.072107  
4203.000000	65.064144  
4202.000000	65.040349  
4201.000000	65.003871  
4200.000000	64.959883  
4199.000000	64.914393  
4198.000000	64.872884  
4197.000000	64.839291  
4196.000000	64.815640  
4195.000000	64.801740  
4194.000000	64.796042  
