PE IR       SPECTRUM    SPECTRUM    ASCII       PEDS        1.60        
  -1
BZ60B3~1.ASC
17/04/07
17:59:44.00
17/04/07
17:59:44.00
tln
$BZ1503107-1_t0058$<tbV0>[7.8,0.0,8.0,0.0,27,1,0]
370.000000
64









2002,4.07    
MIRTGS : RIGHTBACK : INTERNAL 2
MIR : ON : INTERNAL 2
OPTKBR

0.200000
8
8.000000
FILLER
RATIO
SPECTRUM
UNLOCKED 256

DOUBLE
64
COMBINED
1
0
0


1.000000
RATIO


1
0
TRUE
51149
0
LEFT NOT FITTED RIGHT NOT FITTED 0
NONE
NONE
15600
12.000000
4.427000
51148
TRUE
1 0 8 72 0 0 0 0 

15798.010000






#HDR
-1
-1
#GR
CM-1
%T
0.00002384185791015625
0.0
5000.000000
-1.000000
4631
8
82.905387
49.025821
#DATA
5000.000000	65.789985 
4999.000000	66.003298 
4998.000000	66.213893 
4997.000000	66.398668 
4996.000000	66.537094 
4995.000000	66.618871 
4994.000000	66.644072 
4993.000000	66.625618 
4992.000000	66.581630 
4991.000000	66.533160 
4990.000000	66.492867 
4989.000000	66.462421 
4988.000000	66.431379 
4987.000000	66.382312 
4986.000000	66.297340 
4985.000000	66.166353 
4984.000000	65.992736 
4983.000000	65.795302 
4982.000000	65.604591 
4981.000000	65.455627 
4980.000000	65.378737 
4979.000000	65.390539 
4978.000000	65.488982 
4977.000000	65.652680 
4976.000000	65.845751 
4975.000000	66.025590 
4974.000000	66.154813 
4973.000000	66.207075 
4972.000000	66.172337 
4971.000000	66.055798 
4970.000000	65.875005 
4969.000000	65.652489 
4968.000000	65.408754 
4967.000000	65.158677 
4966.000000	64.910292 
4965.000000	64.666461 
4964.000000	64.428639 
4963.000000	64.201307 
4962.000000	63.995528 
4961.000000	63.827061 
4960.000000	63.713574 
4959.000000	63.668298 
4958.000000	63.694882 
4957.000000	63.782787 
4956.000000	63.907909 
4955.000000	64.036107 
4954.000000	64.131760 
4953.000000	64.167332 
4952.000000	64.132523 
4951.000000	64.036917 
4950.000000	63.910436 
4949.000000	63.795208 
4948.000000	63.737130 
4947.000000	63.772511 
4946.000000	63.920783 
4945.000000	64.179062 
4944.000000	64.524435 
4943.000000	64.918446 
4942.000000	65.318989 
4941.000000	65.689992 
4940.000000	66.009283 
4939.000000	66.270637 
4938.000000	66.482806 
4937.000000	66.663074 
4936.000000	66.829276 
4935.000000	66.993689 
4934.000000	67.155814 
4933.000000	67.302846 
4932.000000	67.413449 
4931.000000	67.466568 
4930.000000	67.445445 
4929.000000	67.344474 
4928.000000	67.171692 
4927.000000	66.947722 
4926.000000	66.700339 
4925.000000	66.458463 
4924.000000	66.245484 
4923.000000	66.075181 
4922.000000	65.952229 
4921.000000	65.871930 
4920.000000	65.824294 
4919.000000	65.796422 
4918.000000	65.777468 
4917.000000	65.758514 
4916.000000	65.732240 
4915.000000	65.693116 
4914.000000	65.635204 
4913.000000	65.554141 
4912.000000	65.444278 
4911.000000	65.305233 
4910.000000	65.142726 
4909.000000	64.969825 
4908.000000	64.804553 
4907.000000	64.668178 
4906.000000	64.581179 
4905.000000	64.557218 
4904.000000	64.599442 
4903.000000	64.699101 
4902.000000	64.836668 
4901.000000	64.985942 
4900.000000	65.119409 
4899.000000	65.213489 
4898.000000	65.252876 
4897.000000	65.232586 
4896.000000	65.157794 
4895.000000	65.040302 
4894.000000	64.895653 
4893.000000	64.740014 
4892.000000	64.586949 
4891.000000	64.446139 
4890.000000	64.322948 
4889.000000	64.221262 
4888.000000	64.142966 
4887.000000	64.088940 
4886.000000	64.059972 
4885.000000	64.055705 
4884.000000	64.075684 
4883.000000	64.116883 
4882.000000	64.176225 
4881.000000	64.249205 
4880.000000	64.331650 
4879.000000	64.418625 
4878.000000	64.506816 
4877.000000	64.593911 
4876.000000	64.678573 
4875.000000	64.759564 
4874.000000	64.836001 
4873.000000	64.906144 
4872.000000	64.967012 
4871.000000	65.013909 
4870.000000	65.041542 
4869.000000	65.044426 
4868.000000	65.018677 
4867.000000	64.962935 
4866.000000	64.878988 
4865.000000	64.772462 
4864.000000	64.652347 
4863.000000	64.530396 
4862.000000	64.419603 
4861.000000	64.332842 
4860.000000	64.279699 
4859.000000	64.266490 
4858.000000	64.294481 
4857.000000	64.360809 
4856.000000	64.458775 
4855.000000	64.579176 
4854.000000	64.710974 
4853.000000	64.843130 
4852.000000	64.965248 
4851.000000	65.068840 
4850.000000	65.147471 
4849.000000	65.198063 
4848.000000	65.220737 
4847.000000	65.218830 
4846.000000	65.197610 
4845.000000	65.163469 
4844.000000	65.122079 
4843.000000	65.078091 
4842.000000	65.034151 
4841.000000	64.991354 
4840.000000	64.949703 
4839.000000	64.909482 
4838.000000	64.871525 
4837.000000	64.838337 
4836.000000	64.812660 
4835.000000	64.797163 
4834.000000	64.792776 
4833.000000	64.797759 
4832.000000	64.807415 
4831.000000	64.814710 
4830.000000	64.812397 
4829.000000	64.794492 
4828.000000	64.758610 
4827.000000	64.707040 
4826.000000	64.646267 
4825.000000	64.585423 
4824.000000	64.533972 
4823.000000	64.498949 
4822.000000	64.484548 
4821.000000	64.491224 
4820.000000	64.516043 
4819.000000	64.553785 
4818.000000	64.599347 
4817.000000	64.648818 
4816.000000	64.700055 
4815.000000	64.752292 
4814.000000	64.805316 
4813.000000	64.858078 
4812.000000	64.908337 
4811.000000	64.951729 
4810.000000	64.982461 
4809.000000	64.994478 
4808.000000	64.983844 
4807.000000	64.949631 
4806.000000	64.894652 
4805.000000	64.825677 
4804.000000	64.752507 
4803.000000	64.686107 
4802.000000	64.636325 
4801.000000	64.610075 
4800.000000	64.610385 
4799.000000	64.635181 
4798.000000	64.677882 
4797.000000	64.728641 
4796.000000	64.776587 
4795.000000	64.811682 
4794.000000	64.826846 
4793.000000	64.818835 
4792.000000	64.788842 
4791.000000	64.741754 
4790.000000	64.685249 
4789.000000	64.628005 
4788.000000	64.578270 
4787.000000	64.542984 
4786.000000	64.526724 
4785.000000	64.531326 
4784.000000	64.555597 
4783.000000	64.596009 
4782.000000	64.647388 
4781.000000	64.703321 
4780.000000	64.757895 
4779.000000	64.806222 
4778.000000	64.845991 
4777.000000	64.876866 
4776.000000	64.901256 
4775.000000	64.923167 
4774.000000	64.947366 
4773.000000	64.977788 
4772.000000	65.016198 
4771.000000	65.061473 
4770.000000	65.109443 
4769.000000	65.154051 
4768.000000	65.188312 
4767.000000	65.205979 
4766.000000	65.203070 
4765.000000	65.179014 
4764.000000	65.136480 
4763.000000	65.080904 
4762.000000	65.019178 
4761.000000	64.958238 
4760.000000	64.903759 
4759.000000	64.859318 
4758.000000	64.826703 
4757.000000	64.805674 
4756.000000	64.794874 
4755.000000	64.792442 
4754.000000	64.796543 
4753.000000	64.805746 
4752.000000	64.818763 
4751.000000	64.834332 
4750.000000	64.850521 
4749.000000	64.865064 
4748.000000	64.875507 
4747.000000	64.879345 
4746.000000	64.874529 
4745.000000	64.860486 
4744.000000	64.838314 
4743.000000	64.810490 
4742.000000	64.780306 
4741.000000	64.751458 
4740.000000	64.727473 
4739.000000	64.710736 
4738.000000	64.702463 
4737.000000	64.703273 
4736.000000	64.713406 
4735.000000	64.732670 
4734.000000	64.760446 
4733.000000	64.795613 
4732.000000	64.836359 
4731.000000	64.879631 
4730.000000	64.921522 
4729.000000	64.957499 
4728.000000	64.983606 
4727.000000	64.997696 
4726.000000	64.999914 
4725.000000	64.992594 
4724.000000	64.979672 
4723.000000	64.966726 
4722.000000	64.958024 
4721.000000	64.955997 
4720.000000	64.959645 
4719.000000	64.965558 
4718.000000	64.968228 
4717.000000	64.962029 
4716.000000	64.942717 
4715.000000	64.908981 
4714.000000	64.862465 
4713.000000	64.807510 
4712.000000	64.749741 
4711.000000	64.694595 
4710.000000	64.645576 
4709.000000	64.603805 
4708.000000	64.567661 
4707.000000	64.534235 
4706.000000	64.500236 
4705.000000	64.464211 
4704.000000	64.426779 
4703.000000	64.392352 
4702.000000	64.367413 
4701.000000	64.360642 
4700.000000	64.379024 
4699.000000	64.427518 
4698.000000	64.507055 
4697.000000	64.613866 
4696.000000	64.739441 
4695.000000	64.871644 
4694.000000	64.996910 
4693.000000	65.102601 
4692.000000	65.179061 
4691.000000	65.221405 
4690.000000	65.229797 
4689.000000	65.209746 
4688.000000	65.170621 
4687.000000	65.123128 
4686.000000	65.076947 
4685.000000	65.039134 
4684.000000	65.013170 
4683.000000	64.998722 
4682.000000	64.992451 
4681.000000	64.990067 
4680.000000	64.987778 
4679.000000	64.983296 
4678.000000	64.976215 
4677.000000	64.968037 
4676.000000	64.960908 
4675.000000	64.956283 
4674.000000	64.953827 
4673.000000	64.951133 
4672.000000	64.943933 
4671.000000	64.927268 
4670.000000	64.897298 
4669.000000	64.852547 
4668.000000	64.795470 
4667.000000	64.732289 
4666.000000	64.672303 
4665.000000	64.625310 
4664.000000	64.600396 
4663.000000	64.603781 
4662.000000	64.636993 
4661.000000	64.696383 
4660.000000	64.774012 
4659.000000	64.859342 
4658.000000	64.941382 
4657.000000	65.010833 
4656.000000	65.061783 
4655.000000	65.092301 
4654.000000	65.104389 
4653.000000	65.102672 
4652.000000	65.092492 
4651.000000	65.078568 
4650.000000	65.064167 
4649.000000	65.050601 
4648.000000	65.038108 
4647.000000	65.026140 
4646.000000	65.015196 
4645.000000	65.006065 
4644.000000	65.000557 
4643.000000	65.000033 
4642.000000	65.005159 
4641.000000	65.014934 
4640.000000	65.026235 
4639.000000	65.035080 
4638.000000	65.037012 
4637.000000	65.029573 
4636.000000	65.012931 
4635.000000	64.990711 
4634.000000	64.969158 
4633.000000	64.955449 
4632.000000	64.955592 
4631.000000	64.972352 
4630.000000	65.004205 
4629.000000	65.045547 
4628.000000	65.088200 
4627.000000	65.123200 
4626.000000	65.143275 
4625.000000	65.145111 
4624.000000	65.130090 
4623.000000	65.103316 
4622.000000	65.072441 
4621.000000	65.045404 
4620.000000	65.028643 
4619.000000	65.025401 
4618.000000	65.035223 
4617.000000	65.054941 
4616.000000	65.079402 
4615.000000	65.103602 
4614.000000	65.123438 
4613.000000	65.136671 
4612.000000	65.142750 
4611.000000	65.142488 
4610.000000	65.137171 
4609.000000	65.127730 
4608.000000	65.114712 
4607.000000	65.098309 
4606.000000	65.078353 
4605.000000	65.054821 
4604.000000	65.028262 
4603.000000	64.999771 
4602.000000	64.970827 
4601.000000	64.942741 
4600.000000	64.916276 
4599.000000	64.891314 
4598.000000	64.867305 
4597.000000	64.843344 
4596.000000	64.818477 
4595.000000	64.792323 
4594.000000	64.765524 
4593.000000	64.739656 
4592.000000	64.716696 
4591.000000	64.698839 
4590.000000	64.687418 
4589.000000	64.683270 
4588.000000	64.686203 
4587.000000	64.695906 
4586.000000	64.711117 
4585.000000	64.731383 
4584.000000	64.756584 
4583.000000	64.787411 
4582.000000	64.824414 
4581.000000	64.867949 
4580.000000	64.917540 
4579.000000	64.971232 
4578.000000	65.025472 
4577.000000	65.075540 
4576.000000	65.116190 
4575.000000	65.142583 
4574.000000	65.151190 
4573.000000	65.140557 
4572.000000	65.111446 
4571.000000	65.067052 
4570.000000	65.012264 
4569.000000	64.953041 
4568.000000	64.895558 
4567.000000	64.845371 
4566.000000	64.807033 
4565.000000	64.783501 
4564.000000	64.776587 
4563.000000	64.786505 
4562.000000	64.812922 
4561.000000	64.854264 
4560.000000	64.909100 
4559.000000	64.975523 
4558.000000	65.051770 
4557.000000	65.135478 
4556.000000	65.223813 
4555.000000	65.313076 
4554.000000	65.398788 
4553.000000	65.475988 
4552.000000	65.539145 
4551.000000	65.583038 
4550.000000	65.603494 
4549.000000	65.598225 
4548.000000	65.567231 
4547.000000	65.512871 
4546.000000	65.439772 
4545.000000	65.354037 
4544.000000	65.262389 
4543.000000	65.171170 
4542.000000	65.085792 
4541.000000	65.010309 
4540.000000	64.947485 
4539.000000	64.898943 
4538.000000	64.865398 
4537.000000	64.846754 
4536.000000	64.841628 
4535.000000	64.848160 
4534.000000	64.862728 
4533.000000	64.882183 
4532.000000	64.903306 
4531.000000	64.924573 
4530.000000	64.945292 
4529.000000	64.967107 
4528.000000	64.992928 
4527.000000	65.026283 
4526.000000	65.069484 
4525.000000	65.123224 
4524.000000	65.185737 
4523.000000	65.252137 
4522.000000	65.315246 
4521.000000	65.367317 
4520.000000	65.401792 
4519.000000	65.414690 
4518.000000	65.405774 
4517.000000	65.378499 
4516.000000	65.339231 
4515.000000	65.296578 
4514.000000	65.258669 
4513.000000	65.232086 
4512.000000	65.219402 
4511.000000	65.220665 
4510.000000	65.231800 
4509.000000	65.246105 
4508.000000	65.255641 
4507.000000	65.253067 
4506.000000	65.233850 
4505.000000	65.197610 
4504.000000	65.148067 
4503.000000	65.091681 
4502.000000	65.035963 
4501.000000	64.987635 
4500.000000	64.950251 
4499.000000	64.923429 
4498.000000	64.902901 
4497.000000	64.882016 
4496.000000	64.853763 
4495.000000	64.813256 
4494.000000	64.759659 
4493.000000	64.696979 
4492.000000	64.632749 
4491.000000	64.577102 
4490.000000	64.539885 
4489.000000	64.528679 
4488.000000	64.547252 
4487.000000	64.594388 
4486.000000	64.664483 
4485.000000	64.747571 
4484.000000	64.832401 
4483.000000	64.906501 
4482.000000	64.958024 
4481.000000	64.977431 
4480.000000	64.960980 
4479.000000	64.908456 
4478.000000	64.819931 
4477.000000	64.701294 
4476.000000	64.564943 
4475.000000	64.427185 
4474.000000	64.304947 
4473.000000	64.216160 
4472.000000	64.177823 
4471.000000	64.196062 
4470.000000	64.264917 
4469.000000	64.366912 
4468.000000	64.477634 
4467.000000	64.575839 
4466.000000	64.649081 
4465.000000	64.692783 
4464.000000	64.711451 
4463.000000	64.721488 
4462.000000	64.742231 
4461.000000	64.781260 
4460.000000	64.836978 
4459.000000	64.896655 
4458.000000	64.947772 
4457.000000	64.975595 
4456.000000	64.984154 
4455.000000	64.996910 
4454.000000	65.060639 
4453.000000	65.230154 
4452.000000	65.561008 
4451.000000	66.087365 
4450.000000	66.818261 
4449.000000	67.725253 
4448.000000	68.757605 
4447.000000	69.850087 
4446.000000	70.936846 
4445.000000	71.962594 
4444.000000	72.875833 
4443.000000	73.627090 
4442.000000	74.163341 
4441.000000	74.425196 
4440.000000	74.343824 
4439.000000	73.851752 
4438.000000	72.907757 
4437.000000	71.511483 
4436.000000	69.724440 
4435.000000	67.664623 
4434.000000	65.505099 
4433.000000	63.437676 
4432.000000	61.638140 
4431.000000	60.237336 
4430.000000	59.291172 
4429.000000	58.790302 
4428.000000	58.668923 
4427.000000	58.832120 
4426.000000	59.175777 
4425.000000	59.610748 
4424.000000	60.062098 
4423.000000	60.484504 
4422.000000	60.835433 
4421.000000	61.103391 
4420.000000	61.290073 
4419.000000	61.420655 
4418.000000	61.530780 
4417.000000	61.663770 
4416.000000	61.858987 
4415.000000	62.138581 
4414.000000	62.501239 
4413.000000	62.925601 
4412.000000	63.374304 
4411.000000	63.804268 
4410.000000	64.176034 
4409.000000	64.461541 
4408.000000	64.649534 
4407.000000	64.749765 
4406.000000	64.786481 
4405.000000	64.787054 
4404.000000	64.776992 
4403.000000	64.780497 
4402.000000	64.809966 
4401.000000	64.863824 
4400.000000	64.930558 
4399.000000	65.003919 
4398.000000	65.073966 
4397.000000	65.130996 
4396.000000	65.166091 
4395.000000	65.171980 
4394.000000	65.145039 
4393.000000	65.086197 
4392.000000	65.000391 
4391.000000	64.895749 
4390.000000	64.783096 
4389.000000	64.674711 
4388.000000	64.580106 
4387.000000	64.505290 
4386.000000	64.454722 
4385.000000	64.431500 
4384.000000	64.437365 
4383.000000	64.472532 
4382.000000	64.536309 
4381.000000	64.626049 
4380.000000	64.733886 
4379.000000	64.849162 
4378.000000	64.960408 
4377.000000	65.057420 
4376.000000	65.131258 
4375.000000	65.177726 
4374.000000	65.197873 
4373.000000	65.197873 
4372.000000	65.187191 
4371.000000	65.176606 
4370.000000	65.175938 
4369.000000	65.191769 
4368.000000	65.226435 
4367.000000	65.277743 
4366.000000	65.340232 
4365.000000	65.406417 
4364.000000	65.469002 
4363.000000	65.521574 
4362.000000	65.559959 
4361.000000	65.582180 
4360.000000	65.588212 
4359.000000	65.579271 
4358.000000	65.557169 
4357.000000	65.524435 
4356.000000	65.483880 
4355.000000	65.438652 
4354.000000	65.391612 
4353.000000	65.346217 
4352.000000	65.305185 
4351.000000	65.271401 
4350.000000	65.246391 
4349.000000	65.230035 
4348.000000	65.220642 
4347.000000	65.215182 
4346.000000	65.210080 
4345.000000	65.200924 
4344.000000	65.185093 
4343.000000	65.162110 
4342.000000	65.134143 
4341.000000	65.105390 
4340.000000	65.081262 
4339.000000	65.066933 
4338.000000	65.065979 
4337.000000	65.079379 
4336.000000	65.105652 
4335.000000	65.141057 
4334.000000	65.180563 
4333.000000	65.219044 
4332.000000	65.252065 
4331.000000	65.276908 
4330.000000	65.292096 
4329.000000	65.297675 
4328.000000	65.294742 
4327.000000	65.284729 
4326.000000	65.269279 
4325.000000	65.249562 
4324.000000	65.226411 
4323.000000	65.199995 
4322.000000	65.170764 
4321.000000	65.139126 
4320.000000	65.105819 
4319.000000	65.072083 
4318.000000	65.039777 
4317.000000	65.011215 
4316.000000	64.988589 
4315.000000	64.973950 
4314.000000	64.968657 
4313.000000	64.972853 
4312.000000	64.985299 
4311.000000	65.003728 
4310.000000	65.025091 
4309.000000	65.046429 
4308.000000	65.065097 
4307.000000	65.079712 
4306.000000	65.090298 
4305.000000	65.097713 
4304.000000	65.103149 
4303.000000	65.107560 
4302.000000	65.110945 
4301.000000	65.112257 
4300.000000	65.109562 
4299.000000	65.100717 
4298.000000	65.084218 
4297.000000	65.060162 
4296.000000	65.030407 
4295.000000	64.998698 
4294.000000	64.969587 
4293.000000	64.947485 
4292.000000	64.935588 
4291.000000	64.934992 
4290.000000	64.944958 
4289.000000	64.962840 
4288.000000	64.985585 
4287.000000	65.010285 
4286.000000	65.035438 
4285.000000	65.060949 
4284.000000	65.088009 
4283.000000	65.118551 
4282.000000	65.154004 
4281.000000	65.194654 
4280.000000	65.239238 
4279.000000	65.285110 
4278.000000	65.329027 
4277.000000	65.367650 
4276.000000	65.398621 
4275.000000	65.420556 
4274.000000	65.433239 
4273.000000	65.437197 
4272.000000	65.433263 
4271.000000	65.422224 
4270.000000	65.404820 
4269.000000	65.381693 
4268.000000	65.354204 
4267.000000	65.324068 
4266.000000	65.293765 
4265.000000	65.265965 
4264.000000	65.243101 
4263.000000	65.226960 
4262.000000	65.218162 
4261.000000	65.216350 
4260.000000	65.219855 
4259.000000	65.227246 
4258.000000	65.237760 
4257.000000	65.251469 
4256.000000	65.269184 
4255.000000	65.292072 
4254.000000	65.320968 
4253.000000	65.355157 
4252.000000	65.392136 
4251.000000	65.428018 
4250.000000	65.458178 
4249.000000	65.478348 
4248.000000	65.485692 
4247.000000	65.480017 
4246.000000	65.463757 
4245.000000	65.441584 
4244.000000	65.419268 
4243.000000	65.402626 
4242.000000	65.395855 
4241.000000	65.400910 
4240.000000	65.416574 
4239.000000	65.439558 
4238.000000	65.464091 
4237.000000	65.484166 
4236.000000	65.493941 
4235.000000	65.488934 
4234.000000	65.467000 
4233.000000	65.428352 
4232.000000	65.375900 
4231.000000	65.314483 
4230.000000	65.250420 
4229.000000	65.190315 
4228.000000	65.139985 
4227.000000	65.103340 
4226.000000	65.081715 
4225.000000	65.073800 
4224.000000	65.075755 
4223.000000	65.082573 
4222.000000	65.088844 
4221.000000	65.090489 
4220.000000	65.085601 
4219.000000	65.075302 
4218.000000	65.062642 
4217.000000	65.051889 
4216.000000	65.046930 
4215.000000	65.050125 
4214.000000	65.061283 
4213.000000	65.077567 
4212.000000	65.094494 
4211.000000	65.106964 
4210.000000	65.111064 
4209.000000	65.104866 
4208.000000	65.088939 
4207.000000	65.066289 
4206.000000	65.041160 
4205.000000	65.018296 
4204.000000	65.001296 
4203.000000	64.992260 
4202.000000	64.991474 
4201.000000	64.997720 
4200.000000	65.008854 
4199.000000	65.022754 
4198.000000	65.037798 
4197.000000	65.052533 
4196.000000	65.065598 
4195.000000	65.075850 
4194.000000	65.082192 
4193.000000	65.083646 
4192.000000	65.079808 
4191.000000	65.071129 
4190.000000	65.058898 
4189.000000	65.044975 
4188.000000	65.031552 
4187.000000	65.020418 
4186.000000	65.012812 
4185.000000	65.009188 
4184.000000	65.009355 
4183.000000	65.012860 
4182.000000	65.019154 
4181.000000	65.028071 
4180.000000	65.039682 
4179.000000	65.054106 
4178.000000	65.071368 
4177.000000	65.090990 
4176.000000	65.111923 
4175.000000	65.132570 
4174.000000	65.151381 
4173.000000	65.167140 
4172.000000	65.179634 
4171.000000	65.189528 
4170.000000	65.198230 
4169.000000	65.207099 
4168.000000	65.217018 
4167.000000	65.227723 
4166.000000	65.237760 
4165.000000	65.244793 
4164.000000	65.246248 
4163.000000	65.239620 
4162.000000	65.223574 
4161.000000	65.198063 
4160.000000	65.164518 
4159.000000	65.125560 
