PE IR       SPECTRUM    SPECTRUM    ASCII       PEDS        1.60        
  -1
BZ6D23~1.ASC
17/04/07
15:19:05.00
17/04/07
15:19:05.00
tln
$BZ1503107-1_t0025$<tbV0>[7.8,-7.8,8.0,0.0,27,1,0]
370.000000
64









2002,4.07    
MIRTGS : RIGHTBACK : INTERNAL 2
MIR : ON : INTERNAL 2
OPTKBR

0.200000
8
8.000000
FILLER
RATIO
SPECTRUM
UNLOCKED 256

DOUBLE
64
COMBINED
1
0
0


1.000000
RATIO


1
0
TRUE
51149
0
LEFT NOT FITTED RIGHT NOT FITTED 0
NONE
NONE
15600
12.000000
4.427000
51148
TRUE
1 0 8 72 0 0 0 0 

15798.010000






#HDR
-1
-1
#GR
CM-1
%T
0.00002384185791015625
0.0
5000.000000
-1.000000
4631
8
81.629562
40.182733
#DATA
5000.000000	65.736865 
4999.000000	65.609645 
4998.000000	65.455651 
4997.000000	65.285634 
4996.000000	65.110874 
4995.000000	64.942598 
4994.000000	64.790582 
4993.000000	64.662814 
4992.000000	64.564418 
4991.000000	64.497709 
4990.000000	64.461660 
4989.000000	64.452004 
4988.000000	64.462280 
4987.000000	64.484524 
4986.000000	64.510536 
4985.000000	64.532542 
4984.000000	64.545130 
4983.000000	64.545655 
4982.000000	64.533686 
4981.000000	64.510369 
4980.000000	64.478278 
4979.000000	64.440560 
4978.000000	64.400005 
4977.000000	64.358901 
4976.000000	64.318776 
4975.000000	64.280748 
4974.000000	64.246273 
4973.000000	64.216899 
4972.000000	64.193558 
4971.000000	64.177250 
4970.000000	64.168310 
4969.000000	64.167380 
4968.000000	64.174365 
4967.000000	64.189457 
4966.000000	64.212799 
4965.000000	64.243960 
4964.000000	64.281630 
4963.000000	64.323139 
4962.000000	64.364743 
4961.000000	64.401316 
4960.000000	64.426946 
4959.000000	64.436578 
4958.000000	64.427351 
4957.000000	64.399385 
4956.000000	64.356350 
4955.000000	64.305257 
4954.000000	64.255428 
4953.000000	64.216446 
4952.000000	64.196801 
4951.000000	64.201998 
4950.000000	64.234399 
4949.000000	64.293551 
4948.000000	64.376854 
4947.000000	64.480137 
4946.000000	64.598131 
4945.000000	64.725112 
4944.000000	64.853811 
4943.000000	64.976382 
4942.000000	65.082812 
4941.000000	65.162277 
4940.000000	65.204286 
4939.000000	65.201473 
4938.000000	65.151119 
4937.000000	65.056967 
4936.000000	64.929294 
4935.000000	64.784264 
4934.000000	64.641022 
4933.000000	64.518809 
4932.000000	64.433169 
4931.000000	64.393186 
4930.000000	64.401173 
4929.000000	64.452743 
4928.000000	64.538192 
4927.000000	64.644265 
4926.000000	64.756464 
4925.000000	64.861011 
4924.000000	64.945173 
4923.000000	64.999008 
4922.000000	65.015077 
4921.000000	64.990401 
4920.000000	64.926075 
4919.000000	64.829206 
4918.000000	64.712142 
4917.000000	64.591670 
4916.000000	64.487266 
4915.000000	64.416575 
4914.000000	64.393353 
4913.000000	64.422607 
4912.000000	64.500141 
4911.000000	64.611625 
4910.000000	64.736104 
4909.000000	64.849638 
4908.000000	64.930605 
4907.000000	64.963746 
4906.000000	64.942598 
4905.000000	64.870643 
4904.000000	64.759826 
4903.000000	64.626789 
4902.000000	64.488697 
4901.000000	64.360332 
4900.000000	64.251422 
4899.000000	64.166331 
4898.000000	64.104557 
4897.000000	64.062952 
4896.000000	64.037632 
4895.000000	64.025211 
4894.000000	64.024424 
4893.000000	64.034128 
4892.000000	64.055228 
4891.000000	64.087748 
4890.000000	64.132165 
4889.000000	64.187288 
4888.000000	64.251375 
4887.000000	64.321231 
4886.000000	64.393973 
4885.000000	64.467024 
4884.000000	64.539313 
4883.000000	64.611101 
4882.000000	64.683628 
4881.000000	64.758491 
4880.000000	64.836072 
4879.000000	64.915037 
4878.000000	64.990758 
4877.000000	65.056109 
4876.000000	65.102314 
4875.000000	65.121269 
4874.000000	65.107727 
4873.000000	65.061616 
4872.000000	64.988803 
4871.000000	64.900827 
4870.000000	64.813733 
4869.000000	64.744734 
4868.000000	64.707708 
4867.000000	64.710640 
4866.000000	64.753723 
4865.000000	64.829897 
4864.000000	64.927101 
4863.000000	65.031194 
4862.000000	65.129208 
4861.000000	65.211415 
4860.000000	65.272951 
4859.000000	65.312886 
4858.000000	65.332531 
4857.000000	65.333962 
4856.000000	65.318632 
4855.000000	65.286612 
4854.000000	65.237021 
4853.000000	65.169692 
4852.000000	65.087080 
4851.000000	64.994812 
4850.000000	64.901947 
4849.000000	64.819550 
4848.000000	64.758825 
4847.000000	64.728331 
4846.000000	64.732098 
4845.000000	64.769053 
4844.000000	64.832830 
4843.000000	64.913415 
4842.000000	64.998674 
4841.000000	65.076065 
4840.000000	65.135169 
4839.000000	65.168190 
4838.000000	65.172028 
4837.000000	65.147852 
4836.000000	65.101027 
4835.000000	65.040254 
4834.000000	64.975309 
4833.000000	64.915800 
4832.000000	64.868450 
4831.000000	64.836907 
4830.000000	64.820480 
4829.000000	64.815783 
4828.000000	64.817214 
4827.000000	64.818859 
4826.000000	64.816451 
4825.000000	64.808320 
4824.000000	64.796113 
4823.000000	64.784026 
4822.000000	64.777493 
4821.000000	64.781403 
4820.000000	64.798879 
4819.000000	64.830207 
4818.000000	64.872598 
4817.000000	64.920568 
4816.000000	64.967870 
4815.000000	65.008425 
4814.000000	65.037417 
4813.000000	65.051984 
4812.000000	65.051245 
4811.000000	65.036821 
4810.000000	65.012288 
4809.000000	64.982533 
4808.000000	64.952850 
4807.000000	64.927983 
4806.000000	64.911794 
4805.000000	64.906311 
4804.000000	64.911961 
4803.000000	64.927244 
4802.000000	64.949035 
4801.000000	64.973521 
4800.000000	64.996957 
4799.000000	65.016412 
4798.000000	65.030145 
4797.000000	65.038371 
4796.000000	65.042901 
4795.000000	65.047264 
4794.000000	65.055513 
4793.000000	65.071678 
4792.000000	65.098571 
4791.000000	65.136981 
4790.000000	65.184974 
4789.000000	65.238308 
4788.000000	65.290760 
4787.000000	65.335297 
4786.000000	65.365314 
4785.000000	65.376210 
4784.000000	65.366458 
4783.000000	65.337872 
4782.000000	65.295457 
4781.000000	65.246725 
4780.000000	65.200066 
4779.000000	65.163254 
4778.000000	65.141701 
4777.000000	65.137839 
4776.000000	65.150475 
4775.000000	65.175700 
4774.000000	65.207624 
4773.000000	65.240001 
4772.000000	65.267705 
4771.000000	65.287709 
4770.000000	65.299582 
4769.000000	65.304803 
4768.000000	65.306425 
4767.000000	65.307903 
4766.000000	65.311837 
4765.000000	65.319347 
4764.000000	65.329861 
4763.000000	65.341830 
4762.000000	65.353226 
4761.000000	65.363097 
4760.000000	65.372610 
4759.000000	65.384984 
4758.000000	65.404629 
4757.000000	65.435576 
4756.000000	65.480542 
4755.000000	65.538740 
4754.000000	65.605425 
4753.000000	65.672254 
4752.000000	65.729165 
4751.000000	65.766263 
4750.000000	65.776872 
4749.000000	65.758538 
4748.000000	65.714073 
4747.000000	65.650653 
4746.000000	65.578651 
4745.000000	65.508675 
4744.000000	65.449094 
4743.000000	65.404796 
4742.000000	65.376734 
4741.000000	65.362691 
4740.000000	65.358805 
4739.000000	65.361166 
4738.000000	65.366983 
4737.000000	65.374898 
4736.000000	65.384578 
4735.000000	65.395116 
4734.000000	65.404677 
4733.000000	65.409636 
4732.000000	65.405368 
4731.000000	65.386629 
4730.000000	65.349578 
4729.000000	65.293908 
4728.000000	65.223431 
4727.000000	65.145635 
4726.000000	65.070867 
4725.000000	65.009856 
4724.000000	64.972138 
4723.000000	64.963293 
4722.000000	64.984989 
4721.000000	65.034294 
4720.000000	65.105438 
4719.000000	65.190792 
4718.000000	65.282869 
4717.000000	65.375018 
4716.000000	65.462446 
4715.000000	65.541887 
4714.000000	65.611338 
4713.000000	65.669441 
4712.000000	65.715146 
4711.000000	65.747094 
4710.000000	65.763902 
4709.000000	65.763616 
4708.000000	65.744805 
4707.000000	65.706157 
4706.000000	65.647125 
4705.000000	65.568161 
4704.000000	65.471220 
4703.000000	65.360498 
4702.000000	65.242314 
4701.000000	65.125465 
4700.000000	65.019893 
4699.000000	64.936017 
4698.000000	64.882588 
4697.000000	64.865684 
4696.000000	64.886593 
4695.000000	64.942240 
4694.000000	65.025091 
4693.000000	65.124797 
4692.000000	65.229415 
4691.000000	65.327572 
4690.000000	65.409755 
4689.000000	65.469217 
4688.000000	65.502095 
4687.000000	65.507268 
4686.000000	65.485882 
4685.000000	65.440821 
4684.000000	65.376067 
4683.000000	65.297245 
4682.000000	65.211081 
4681.000000	65.125417 
4680.000000	65.048122 
4679.000000	64.986586 
4678.000000	64.945864 
4677.000000	64.928364 
4676.000000	64.932918 
4675.000000	64.954781 
4674.000000	64.986872 
4673.000000	65.021038 
4672.000000	65.050125 
4671.000000	65.068769 
4670.000000	65.074634 
4669.000000	65.068316 
4668.000000	65.052723 
4667.000000	65.031266 
4666.000000	65.007758 
4665.000000	64.984917 
4664.000000	64.965081 
4663.000000	64.950180 
4662.000000	64.941954 
4661.000000	64.941906 
4660.000000	64.951252 
4659.000000	64.970612 
4658.000000	64.998579 
4657.000000	65.031909 
4656.000000	65.065932 
4655.000000	65.095615 
4654.000000	65.116643 
4653.000000	65.126872 
4652.000000	65.126824 
4651.000000	65.119481 
4650.000000	65.110063 
4649.000000	65.103936 
4648.000000	65.104365 
4647.000000	65.111947 
4646.000000	65.124130 
4645.000000	65.136528 
4644.000000	65.144562 
4643.000000	65.145015 
4642.000000	65.137672 
4641.000000	65.124750 
4640.000000	65.110492 
4639.000000	65.099167 
4638.000000	65.093350 
4637.000000	65.092992 
4636.000000	65.095138 
4635.000000	65.095114 
4634.000000	65.087795 
4633.000000	65.069270 
4632.000000	65.038061 
4631.000000	64.995431 
4630.000000	64.945459 
4629.000000	64.893817 
4628.000000	64.846730 
4627.000000	64.809250 
4626.000000	64.784812 
4625.000000	64.774918 
4624.000000	64.778828 
4623.000000	64.794754 
4622.000000	64.819240 
4621.000000	64.847922 
4620.000000	64.875674 
4619.000000	64.896774 
4618.000000	64.906311 
4617.000000	64.900779 
4616.000000	64.879560 
4615.000000	64.844489 
4614.000000	64.800381 
4613.000000	64.754152 
4612.000000	64.713048 
4611.000000	64.683318 
4610.000000	64.668869 
4609.000000	64.670372 
4608.000000	64.685130 
4607.000000	64.708209 
4606.000000	64.733076 
4605.000000	64.753365 
4604.000000	64.764118 
4603.000000	64.763212 
4602.000000	64.751434 
4601.000000	64.732336 
4600.000000	64.711475 
4599.000000	64.694738 
4598.000000	64.687371 
4597.000000	64.692115 
4596.000000	64.709329 
4595.000000	64.735937 
4594.000000	64.766430 
4593.000000	64.793086 
4592.000000	64.807868 
4591.000000	64.803862 
4590.000000	64.776587 
4589.000000	64.725351 
4588.000000	64.653182 
4587.000000	64.567089 
4586.000000	64.476609 
4585.000000	64.392662 
4584.000000	64.325284 
4583.000000	64.282131 
4582.000000	64.266991 
4581.000000	64.279460 
4580.000000	64.314913 
4579.000000	64.365601 
4578.000000	64.422225 
4577.000000	64.475870 
4576.000000	64.519667 
4575.000000	64.549756 
4574.000000	64.565753 
4573.000000	64.570069 
4572.000000	64.566802 
4571.000000	64.560317 
4570.000000	64.553880 
4569.000000	64.548754 
4568.000000	64.543986 
4567.000000	64.537692 
4566.000000	64.527559 
4565.000000	64.511823 
4564.000000	64.490246 
4563.000000	64.464950 
4562.000000	64.439320 
4561.000000	64.417123 
4560.000000	64.401292 
4559.000000	64.392614 
4558.000000	64.389896 
4557.000000	64.389824 
4556.000000	64.388632 
4555.000000	64.382839 
4554.000000	64.371418 
4553.000000	64.356088 
4552.000000	64.341521 
4551.000000	64.334034 
4550.000000	64.340138 
4549.000000	64.364385 
4548.000000	64.408063 
4547.000000	64.467573 
4546.000000	64.535474 
4545.000000	64.600682 
4544.000000	64.651012 
4543.000000	64.674258 
4542.000000	64.661669 
4541.000000	64.608216 
4540.000000	64.513063 
4539.000000	64.380431 
4538.000000	64.218854 
4537.000000	64.040875 
4536.000000	63.861680 
4535.000000	63.697600 
4534.000000	63.564062 
4533.000000	63.473320 
4532.000000	63.432955 
4531.000000	63.443660 
4530.000000	63.498783 
4529.000000	63.586068 
4528.000000	63.689112 
4527.000000	63.791370 
4526.000000	63.878130 
4525.000000	63.940262 
4524.000000	63.974905 
4523.000000	63.985419 
4522.000000	63.979721 
4521.000000	63.967823 
4520.000000	63.959431 
4519.000000	63.961720 
4518.000000	63.978314 
4517.000000	64.009690 
4516.000000	64.053440 
4515.000000	64.106988 
4514.000000	64.167213 
4513.000000	64.231991 
4512.000000	64.298629 
4511.000000	64.364457 
4510.000000	64.424943 
4509.000000	64.473485 
4508.000000	64.502167 
4507.000000	64.503550 
4506.000000	64.472436 
4505.000000	64.408087 
4504.000000	64.315366 
4503.000000	64.205336 
4502.000000	64.092254 
4501.000000	63.990879 
4500.000000	63.913249 
4499.000000	63.866281 
4498.000000	63.851141 
4497.000000	63.863778 
4496.000000	63.895940 
4495.000000	63.937544 
4494.000000	63.979196 
4493.000000	64.014506 
4492.000000	64.039540 
4491.000000	64.054703 
4490.000000	64.063262 
4489.000000	64.071273 
4488.000000	64.085531 
4487.000000	64.111733 
4486.000000	64.153075 
4485.000000	64.208531 
4484.000000	64.273095 
4483.000000	64.338231 
4482.000000	64.394474 
4481.000000	64.432787 
4480.000000	64.446854 
4479.000000	64.434337 
4478.000000	64.397954 
4477.000000	64.344000 
4476.000000	64.281296 
4475.000000	64.218640 
4474.000000	64.163303 
4473.000000	64.118862 
4472.000000	64.085721 
4471.000000	64.059257 
4470.000000	64.031934 
4469.000000	63.997125 
4468.000000	63.951849 
4467.000000	63.897562 
4466.000000	63.840603 
4465.000000	63.790917 
4464.000000	63.759636 
4463.000000	63.755536 
4462.000000	63.782048 
4461.000000	63.837814 
4460.000000	63.914966 
4459.000000	63.995194 
4458.000000	64.058089 
4457.000000	64.090871 
4456.000000	64.087796 
4455.000000	64.046549 
4454.000000	63.972830 
4453.000000	63.885259 
4452.000000	63.800859 
4451.000000	63.727211 
4450.000000	63.664770 
4449.000000	63.602828 
4448.000000	63.536095 
4447.000000	63.470530 
4446.000000	63.424396 
4445.000000	63.425183 
4444.000000	63.502097 
4443.000000	63.677000 
4442.000000	63.947868 
4441.000000	64.286589 
4440.000000	64.646601 
4439.000000	64.975714 
4438.000000	65.225124 
4437.000000	65.370821 
4436.000000	65.414333 
4435.000000	65.401291 
4434.000000	65.394568 
4433.000000	65.490579 
4432.000000	65.794754 
4431.000000	66.413331 
4430.000000	67.428159 
4429.000000	68.873023 
4428.000000	70.728659 
4427.000000	72.896409 
4426.000000	75.219249 
4425.000000	77.478814 
4424.000000	79.441928 
4423.000000	80.881714 
4422.000000	81.629562 
4421.000000	81.592845 
4420.000000	80.779194 
4419.000000	79.293465 
4418.000000	77.325272 
4417.000000	75.112271 
4416.000000	72.901725 
4415.000000	70.911121 
4414.000000	69.295644 
4413.000000	68.128156 
4412.000000	67.398238 
4411.000000	67.026376 
4410.000000	66.894340 
4409.000000	66.875791 
4408.000000	66.870284 
4407.000000	66.805696 
4406.000000	66.658878 
4405.000000	66.433954 
4404.000000	66.164612 
4403.000000	65.875220 
4402.000000	65.590000 
4401.000000	65.320611 
4400.000000	65.070819 
4399.000000	64.839673 
4398.000000	64.625859 
4397.000000	64.436459 
4396.000000	64.280080 
4395.000000	64.161515 
4394.000000	64.086151 
4393.000000	64.057755 
4392.000000	64.073729 
4391.000000	64.122414 
4390.000000	64.190173 
4389.000000	64.263105 
4388.000000	64.330887 
4387.000000	64.388561 
4386.000000	64.430856 
4385.000000	64.453220 
4384.000000	64.458036 
4383.000000	64.452171 
4382.000000	64.438676 
4381.000000	64.419364 
4380.000000	64.400577 
4379.000000	64.388704 
4378.000000	64.388060 
4377.000000	64.399886 
4376.000000	64.422059 
4375.000000	64.449405 
4374.000000	64.474749 
4373.000000	64.490938 
4372.000000	64.494395 
4371.000000	64.483594 
4370.000000	64.458417 
4369.000000	64.420652 
4368.000000	64.373731 
4367.000000	64.321303 
4366.000000	64.266490 
4365.000000	64.212322 
4364.000000	64.161896 
4363.000000	64.117336 
4362.000000	64.079594 
4361.000000	64.048624 
4360.000000	64.023327 
4359.000000	64.002299 
4358.000000	63.984012 
4357.000000	63.966989 
4356.000000	63.950085 
4355.000000	63.932085 
4354.000000	63.912439 
4353.000000	63.890385 
4352.000000	63.866543 
4351.000000	63.842511 
4350.000000	63.821768 
4349.000000	63.808631 
4348.000000	63.808035 
4347.000000	63.824009 
4346.000000	63.858890 
4345.000000	63.911962 
4344.000000	63.979625 
4343.000000	64.055776 
4342.000000	64.132642 
4341.000000	64.202380 
4340.000000	64.257836 
4339.000000	64.293789 
4338.000000	64.307570 
4337.000000	64.299297 
4336.000000	64.271402 
4335.000000	64.227986 
4334.000000	64.174818 
4333.000000	64.118385 
4332.000000	64.065361 
4331.000000	64.021539 
4330.000000	63.992047 
4329.000000	63.980245 
4328.000000	63.987231 
4327.000000	64.011192 
4326.000000	64.048051 
4325.000000	64.091587 
4324.000000	64.134383 
4323.000000	64.169144 
4322.000000	64.190125 
4321.000000	64.194226 
4320.000000	64.180970 
4319.000000	64.153194 
4318.000000	64.115834 
4317.000000	64.075255 
4316.000000	64.037895 
4315.000000	64.009165 
4314.000000	63.992619 
4313.000000	63.989830 
4312.000000	64.000391 
4311.000000	64.022374 
4310.000000	64.052724 
4309.000000	64.088463 
4308.000000	64.127063 
4307.000000	64.166450 
4306.000000	64.205050 
4305.000000	64.241409 
4304.000000	64.274311 
4303.000000	64.302659 
4302.000000	64.325761 
4301.000000	64.343738 
4300.000000	64.357495 
4299.000000	64.369273 
4298.000000	64.381527 
4297.000000	64.396595 
4296.000000	64.415693 
4295.000000	64.438724 
4294.000000	64.464020 
4293.000000	64.489221 
4292.000000	64.511561 
4291.000000	64.528894 
4290.000000	64.540052 
4289.000000	64.545392 
4288.000000	64.546132 
4287.000000	64.544415 
4286.000000	64.542126 
4285.000000	64.540362 
4284.000000	64.539599 
4283.000000	64.539885 
4282.000000	64.541125 
4281.000000	64.543437 
4280.000000	64.547300 
4279.000000	64.553546 
4278.000000	64.562869 
4277.000000	64.575624 
4276.000000	64.590978 
4275.000000	64.607095 
4274.000000	64.621996 
4273.000000	64.634013 
4272.000000	64.642548 
4271.000000	64.648079 
4270.000000	64.652490 
4269.000000	64.657783 
4268.000000	64.665508 
4267.000000	64.675927 
4266.000000	64.687705 
4265.000000	64.698576 
4264.000000	64.705443 
4263.000000	64.706492 
4262.000000	64.701795 
4261.000000	64.694261 
4260.000000	64.689135 
4259.000000	64.692831 
4258.000000	64.711213 
4257.000000	64.747428 
4256.000000	64.800763 
4255.000000	64.865684 
4254.000000	64.932870 
4253.000000	64.991140 
4252.000000	65.030026 
4251.000000	65.042424 
4250.000000	65.026450 
4249.000000	64.985942 
4248.000000	64.929652 
4247.000000	64.869260 
4246.000000	64.816427 
4245.000000	64.780163 
4244.000000	64.764642 
4243.000000	64.768910 
4242.000000	64.786982 
4241.000000	64.810466 
4240.000000	64.830493 
4239.000000	64.840412 
4238.000000	64.837503 
4237.000000	64.822888 
4236.000000	64.801621 
4235.000000	64.780521 
4234.000000	64.766716 
4233.000000	64.765214 
4232.000000	64.778351 
4231.000000	64.805293 
4230.000000	64.842748 
4229.000000	64.886069 
4228.000000	64.930295 
4227.000000	64.971399 
4226.000000	65.006518 
4225.000000	65.034055 
4224.000000	65.053391 
4223.000000	65.064287 
4222.000000	65.066576 
4221.000000	65.060067 
4220.000000	65.044927 
4219.000000	65.021872 
4218.000000	64.992737 
4217.000000	64.960455 
4216.000000	64.928817 
4215.000000	64.901614 
4214.000000	64.882397 
4213.000000	64.873099 
4212.000000	64.873743 
4211.000000	64.882445 
4210.000000	64.895844 
4209.000000	64.910316 
4208.000000	64.923119 
4207.000000	64.932918 
4206.000000	64.940047 
4205.000000	64.946198 
4204.000000	64.953494 
4203.000000	64.963698 
4202.000000	64.977192 
4201.000000	64.993071 
4200.000000	65.009212 
4199.000000	65.023064 
4198.000000	65.032553 
4197.000000	65.036964 
4196.000000	65.037345 
4195.000000	65.036153 
4194.000000	65.036487 
4193.000000	65.041184 
4192.000000	65.051984 
4191.000000	65.069079 
4190.000000	65.090727 
4189.000000	65.113997 
4188.000000	65.135049 
4187.000000	65.150642 
4186.000000	65.158438 
4185.000000	65.157246 
4184.000000	65.147233 
4183.000000	65.129637 
4182.000000	65.106701 
4181.000000	65.081000 
4180.000000	65.055394 
4179.000000	65.032744 
4178.000000	65.015435 
4177.000000	65.005350 
4176.000000	65.003275 
4175.000000	65.008974 
4174.000000	65.020966 
4173.000000	65.037012 
4172.000000	65.054273 
4171.000000	65.070009 
4170.000000	65.082454 
4169.000000	65.091490 
4168.000000	65.098547 
4167.000000	65.106439 
4166.000000	65.118789 
4165.000000	65.138912 
4164.000000	65.168786 
4163.000000	65.208148 
4162.000000	65.254688 
4161.000000	65.303707 
4160.000000	65.349674 
4159.000000	65.386652 
