PE IR       SPECTRUM    SPECTRUM    ASCII       PEDS        1.60        
  -1
BZ6CA5~1.ASC
17/04/07
20:59:51.00
17/04/07
20:59:51.00
tln
$BZ1503107-1_t0094$<tbV0>[0.0,7.8,8.0,0.0,27,1,0]
370.000000
64









2002,4.07    
MIRTGS : RIGHTBACK : INTERNAL 2
MIR : ON : INTERNAL 2
OPTKBR

0.200000
8
8.000000
FILLER
RATIO
SPECTRUM
UNLOCKED 256

DOUBLE
64
COMBINED
1
0
0


1.000000
RATIO


1
0
TRUE
51149
0
LEFT NOT FITTED RIGHT NOT FITTED 0
NONE
NONE
15600
12.000000
4.427000
51148
TRUE
1 0 8 72 0 0 0 0 

15798.010000






#HDR
-1
-1
#GR
CM-1
%T
0.00002384185791015625
0.0
5000.000000
-1.000000
4631
8
88.244414
53.584551
#DATA
5000.000000	63.815474 
4999.000000	63.853621 
4998.000000	63.911747 
4997.000000	63.975071 
4996.000000	64.029645 
4995.000000	64.063811 
4994.000000	64.071369 
4993.000000	64.051127 
4992.000000	64.007973 
4991.000000	63.951039 
4990.000000	63.890981 
4989.000000	63.837623 
4988.000000	63.797092 
4987.000000	63.770985 
4986.000000	63.756227 
4985.000000	63.747072 
4984.000000	63.735675 
4983.000000	63.715028 
4982.000000	63.681268 
4981.000000	63.635945 
4980.000000	63.585734 
4979.000000	63.542795 
4978.000000	63.521552 
4977.000000	63.536739 
4976.000000	63.600993 
4975.000000	63.720560 
4974.000000	63.893938 
4973.000000	64.108991 
4972.000000	64.343929 
4971.000000	64.570164 
4970.000000	64.757657 
4969.000000	64.881277 
4968.000000	64.925146 
4967.000000	64.887523 
4966.000000	64.780950 
4965.000000	64.630270 
4964.000000	64.466929 
4963.000000	64.323329 
4962.000000	64.225912 
4961.000000	64.191794 
4960.000000	64.226746 
4959.000000	64.327120 
4958.000000	64.482474 
4957.000000	64.678287 
4956.000000	64.898276 
4955.000000	65.125131 
4954.000000	65.340423 
4953.000000	65.522313 
4952.000000	65.647578 
4951.000000	65.692138 
4950.000000	65.637969 
4949.000000	65.479516 
4948.000000	65.228056 
4947.000000	64.914226 
4946.000000	64.582204 
4945.000000	64.283490 
4944.000000	64.063763 
4943.000000	63.953709 
4942.000000	63.961219 
4941.000000	64.070296 
4940.000000	64.246153 
4939.000000	64.443683 
4938.000000	64.620208 
4937.000000	64.744353 
4936.000000	64.804005 
4935.000000	64.804768 
4934.000000	64.768719 
4933.000000	64.724826 
4932.000000	64.700627 
4931.000000	64.713144 
4930.000000	64.765334 
4929.000000	64.845442 
4928.000000	64.932584 
4927.000000	65.002679 
4926.000000	65.035676 
4925.000000	65.020275 
4924.000000	64.954876 
4923.000000	64.847326 
4922.000000	64.710211 
4921.000000	64.559340 
4920.000000	64.407110 
4919.000000	64.265036 
4918.000000	64.142704 
4917.000000	64.050674 
4916.000000	64.001369 
4915.000000	64.007306 
4914.000000	64.079236 
4913.000000	64.220976 
4912.000000	64.427375 
4911.000000	64.680218 
4910.000000	64.948487 
4909.000000	65.193843 
4908.000000	65.376925 
4907.000000	65.467381 
4906.000000	65.450811 
4905.000000	65.332841 
4904.000000	65.138244 
4903.000000	64.905166 
4902.000000	64.676213 
4901.000000	64.489126 
4900.000000	64.368557 
4899.000000	64.322543 
4898.000000	64.342260 
4897.000000	64.407348 
4896.000000	64.491605 
4895.000000	64.570021 
4894.000000	64.624929 
4893.000000	64.646697 
4892.000000	64.636707 
4891.000000	64.602375 
4890.000000	64.556789 
4889.000000	64.512467 
4888.000000	64.480185 
4887.000000	64.466094 
4886.000000	64.471960 
4885.000000	64.496541 
4884.000000	64.536380 
4883.000000	64.588046 
4882.000000	64.648437 
4881.000000	64.714956 
4880.000000	64.786076 
4879.000000	64.860916 
4878.000000	64.937686 
4877.000000	65.012764 
4876.000000	65.081000 
4875.000000	65.136098 
4874.000000	65.171217 
4873.000000	65.180611 
4872.000000	65.160512 
4871.000000	65.110373 
4870.000000	65.034937 
4869.000000	64.943122 
4868.000000	64.846181 
4867.000000	64.755487 
4866.000000	64.681482 
4865.000000	64.630699 
4864.000000	64.605331 
4863.000000	64.602518 
4862.000000	64.615297 
4861.000000	64.634513 
4860.000000	64.651489 
4859.000000	64.659428 
4858.000000	64.654588 
4857.000000	64.636063 
4856.000000	64.604735 
4855.000000	64.562702 
4854.000000	64.511728 
4853.000000	64.453744 
4852.000000	64.390468 
4851.000000	64.324808 
4850.000000	64.261102 
4849.000000	64.205312 
4848.000000	64.164686 
4847.000000	64.146447 
4846.000000	64.156389 
4845.000000	64.197134 
4844.000000	64.267110 
4843.000000	64.360356 
4842.000000	64.467167 
4841.000000	64.575767 
4840.000000	64.674139 
4839.000000	64.752268 
4838.000000	64.803385 
4837.000000	64.824414 
4836.000000	64.816379 
4835.000000	64.783716 
4834.000000	64.733219 
4833.000000	64.672708 
4832.000000	64.609980 
4831.000000	64.552545 
4830.000000	64.506244 
4829.000000	64.475154 
4828.000000	64.461588 
4827.000000	64.465856 
4826.000000	64.487767 
4825.000000	64.526629 
4824.000000	64.582204 
4823.000000	64.654016 
4822.000000	64.741683 
4821.000000	64.844036 
4820.000000	64.958572 
4819.000000	65.080881 
4818.000000	65.204906 
4817.000000	65.322756 
4816.000000	65.426158 
4815.000000	65.507149 
4814.000000	65.559768 
4813.000000	65.580368 
4812.000000	65.569233 
4811.000000	65.529751 
4810.000000	65.468811 
4809.000000	65.394806 
4808.000000	65.317106 
4807.000000	65.243911 
4806.000000	65.182590 
4805.000000	65.137314 
4804.000000	65.109896 
4803.000000	65.098619 
4802.000000	65.099453 
4801.000000	65.106844 
4800.000000	65.114545 
4799.000000	65.117740 
4798.000000	65.113520 
4797.000000	65.101647 
4796.000000	65.083980 
4795.000000	65.063548 
4794.000000	65.043425 
4793.000000	65.025353 
4792.000000	65.009045 
4791.000000	64.992928 
4790.000000	64.974880 
4789.000000	64.953041 
4788.000000	64.926934 
4787.000000	64.898610 
4786.000000	64.871859 
4785.000000	64.850997 
4784.000000	64.839625 
4783.000000	64.839553 
4782.000000	64.849662 
4781.000000	64.865899 
4780.000000	64.882016 
4779.000000	64.891362 
4778.000000	64.888358 
4777.000000	64.870381 
4776.000000	64.838123 
4775.000000	64.794826 
4774.000000	64.745879 
4773.000000	64.697170 
4772.000000	64.653944 
4771.000000	64.619612 
4770.000000	64.595508 
4769.000000	64.581203 
4768.000000	64.575242 
4767.000000	64.575791 
4766.000000	64.581274 
4765.000000	64.590549 
4764.000000	64.602804 
4763.000000	64.617323 
4762.000000	64.632964 
4761.000000	64.647936 
4760.000000	64.659667 
4759.000000	64.665484 
4758.000000	64.663147 
4757.000000	64.651894 
4756.000000	64.632678 
4755.000000	64.608359 
4754.000000	64.583492 
4753.000000	64.563274 
4752.000000	64.552450 
4751.000000	64.554238 
4750.000000	64.569520 
4749.000000	64.596652 
4748.000000	64.631915 
4747.000000	64.669919 
4746.000000	64.705014 
4745.000000	64.732050 
4744.000000	64.747095 
4743.000000	64.748144 
4742.000000	64.735174 
4741.000000	64.709854 
4740.000000	64.675045 
4739.000000	64.634466 
4738.000000	64.591979 
4737.000000	64.551138 
4736.000000	64.514875 
4735.000000	64.485430 
4734.000000	64.464497 
4733.000000	64.453172 
4732.000000	64.452147 
4731.000000	64.461421 
4730.000000	64.480209 
4729.000000	64.506721 
4728.000000	64.538097 
4727.000000	64.570331 
4726.000000	64.598917 
4725.000000	64.619421 
4724.000000	64.628529 
4723.000000	64.624547 
4722.000000	64.608168 
4721.000000	64.582586 
4720.000000	64.552855 
4719.000000	64.524984 
4718.000000	64.504218 
4717.000000	64.493799 
4716.000000	64.494323 
4715.000000	64.503931 
4714.000000	64.519047 
4713.000000	64.535474 
4712.000000	64.549970 
4711.000000	64.561033 
4710.000000	64.568734 
4709.000000	64.574670 
4708.000000	64.580798 
4707.000000	64.588785 
4706.000000	64.599204 
4705.000000	64.611172 
4704.000000	64.623332 
4703.000000	64.633679 
4702.000000	64.640402 
4701.000000	64.642310 
4700.000000	64.639067 
4699.000000	64.631271 
4698.000000	64.620184 
4697.000000	64.607501 
4696.000000	64.594626 
4695.000000	64.583086 
4694.000000	64.574360 
4693.000000	64.570379 
4692.000000	64.572882 
4691.000000	64.583706 
4690.000000	64.604425 
4689.000000	64.635610 
4688.000000	64.676570 
4687.000000	64.724993 
4686.000000	64.777088 
4685.000000	64.828085 
4684.000000	64.873337 
4683.000000	64.908909 
4682.000000	64.932584 
4681.000000	64.944434 
4680.000000	64.946866 
4679.000000	64.944410 
4678.000000	64.942455 
4677.000000	64.946269 
4676.000000	64.958858 
4675.000000	64.980697 
4674.000000	65.008640 
4673.000000	65.037131 
4672.000000	65.059351 
4671.000000	65.069103 
4670.000000	65.062260 
4669.000000	65.037965 
4668.000000	64.998888 
4667.000000	64.950704 
4666.000000	64.900541 
4665.000000	64.855146 
4664.000000	64.820027 
4663.000000	64.798140 
4662.000000	64.790248 
4661.000000	64.795088 
4660.000000	64.810228 
4659.000000	64.833045 
4658.000000	64.861083 
4657.000000	64.892458 
4656.000000	64.925384 
4655.000000	64.958333 
4654.000000	64.988970 
4653.000000	65.014910 
4652.000000	65.034103 
4651.000000	65.045404 
4650.000000	65.049409 
4649.000000	65.047597 
4648.000000	65.043234 
4647.000000	65.039014 
4646.000000	65.037298 
4645.000000	65.038108 
4644.000000	65.039801 
4643.000000	65.038609 
4642.000000	65.029740 
4641.000000	65.008997 
4640.000000	64.974069 
4639.000000	64.925789 
4638.000000	64.868378 
4637.000000	64.809203 
4636.000000	64.757299 
4635.000000	64.721393 
4634.000000	64.707803 
4633.000000	64.718937 
4632.000000	64.752459 
4631.000000	64.801549 
4630.000000	64.856600 
4629.000000	64.907336 
4628.000000	64.945316 
4627.000000	64.965629 
4626.000000	64.967846 
4625.000000	64.955687 
4624.000000	64.935398 
4623.000000	64.913988 
4622.000000	64.896678 
4621.000000	64.885830 
4620.000000	64.879894 
4619.000000	64.874505 
4618.000000	64.863848 
4617.000000	64.842987 
4616.000000	64.809465 
4615.000000	64.764857 
4614.000000	64.714503 
4613.000000	64.666342 
4612.000000	64.628720 
4611.000000	64.608120 
4610.000000	64.607143 
4609.000000	64.623260 
4608.000000	64.649343 
4607.000000	64.675378 
4606.000000	64.691448 
4605.000000	64.690208 
4604.000000	64.669036 
4603.000000	64.630937 
4602.000000	64.583635 
4601.000000	64.537763 
4600.000000	64.503788 
4599.000000	64.489364 
4598.000000	64.497637 
4597.000000	64.526176 
4596.000000	64.568066 
4595.000000	64.613461 
4594.000000	64.652276 
4593.000000	64.676928 
4592.000000	64.683294 
4591.000000	64.672112 
4590.000000	64.647936 
4589.000000	64.618206 
4588.000000	64.590835 
4587.000000	64.572501 
4586.000000	64.567470 
4585.000000	64.576196 
4584.000000	64.596343 
4583.000000	64.622259 
4582.000000	64.646744 
4581.000000	64.662218 
4580.000000	64.662909 
4579.000000	64.645385 
4578.000000	64.609622 
4577.000000	64.558959 
4576.000000	64.499378 
4575.000000	64.438605 
4574.000000	64.384579 
4573.000000	64.343857 
4572.000000	64.320206 
4571.000000	64.314436 
4570.000000	64.323997 
4569.000000	64.344072 
4568.000000	64.368200 
4567.000000	64.389514 
4566.000000	64.401888 
4565.000000	64.400815 
4564.000000	64.384222 
4563.000000	64.351797 
4562.000000	64.306020 
4561.000000	64.250969 
4560.000000	64.192795 
4559.000000	64.138221 
4558.000000	64.094448 
4557.000000	64.068126 
4556.000000	64.063858 
4555.000000	64.083456 
4554.000000	64.124894 
4553.000000	64.182567 
4552.000000	64.247870 
4551.000000	64.310812 
4550.000000	64.361405 
4549.000000	64.391660 
4548.000000	64.397573 
4547.000000	64.379525 
4546.000000	64.342093 
4545.000000	64.292716 
4544.000000	64.239573 
4543.000000	64.190125 
4542.000000	64.149689 
4541.000000	64.121460 
4540.000000	64.106941 
4539.000000	64.106869 
4538.000000	64.122200 
4537.000000	64.154314 
4536.000000	64.204835 
4535.000000	64.274859 
4534.000000	64.363598 
4533.000000	64.467406 
4532.000000	64.579367 
4531.000000	64.689826 
4530.000000	64.788436 
4529.000000	64.864945 
4528.000000	64.911317 
4527.000000	64.923071 
4526.000000	64.900612 
4525.000000	64.847636 
4524.000000	64.770650 
4523.000000	64.677453 
4522.000000	64.575862 
4521.000000	64.473843 
4520.000000	64.378213 
4519.000000	64.294481 
4518.000000	64.225959 
4517.000000	64.173960 
4516.000000	64.137601 
4515.000000	64.112997 
4514.000000	64.095425 
4513.000000	64.079809 
4512.000000	64.063453 
4511.000000	64.045429 
4510.000000	64.028620 
4509.000000	64.017438 
4508.000000	64.018249 
4507.000000	64.035749 
4506.000000	64.073634 
4505.000000	64.132714 
4504.000000	64.211034 
4503.000000	64.303684 
4502.000000	64.403963 
4501.000000	64.504718 
4500.000000	64.598584 
4499.000000	64.679265 
4498.000000	64.740872 
4497.000000	64.778447 
4496.000000	64.787721 
4495.000000	64.765524 
4494.000000	64.710187 
4493.000000	64.622092 
4492.000000	64.505577 
4491.000000	64.368486 
4490.000000	64.220476 
4489.000000	64.072418 
4488.000000	63.935923 
4487.000000	63.821363 
4486.000000	63.736414 
4485.000000	63.685035 
4484.000000	63.668775 
4483.000000	63.684153 
4482.000000	63.722014 
4481.000000	63.769674 
4480.000000	63.811230 
4479.000000	63.833832 
4478.000000	63.828206 
4477.000000	63.794755 
4476.000000	63.747215 
4475.000000	63.699865 
4474.000000	63.657093 
4473.000000	63.626456 
4472.000000	63.619494 
4471.000000	63.640189 
4470.000000	63.685131 
4469.000000	63.746023 
4468.000000	63.812065 
4467.000000	63.879156 
4466.000000	63.949751 
4465.000000	64.027047 
4464.000000	64.114451 
4463.000000	64.210057 
4462.000000	64.311861 
4461.000000	64.409494 
4460.000000	64.496850 
4459.000000	64.593410 
4458.000000	64.721012 
4457.000000	64.906692 
4456.000000	65.155577 
4455.000000	65.424251 
4454.000000	65.658807 
4453.000000	65.765285 
4452.000000	65.722155 
4451.000000	65.585279 
4450.000000	65.532016 
4449.000000	65.827083 
4448.000000	66.757273 
4447.000000	68.548941 
4446.000000	71.266508 
4445.000000	74.765181 
4444.000000	78.682041 
4443.000000	82.499504 
4442.000000	85.654211 
4441.000000	87.663197 
4440.000000	88.244414 
4439.000000	87.370395 
4438.000000	85.281062 
4437.000000	82.399320 
4436.000000	79.214787 
4435.000000	76.162791 
4434.000000	73.536634 
4433.000000	71.447968 
4432.000000	69.881319 
4431.000000	68.713998 
4430.000000	67.839837 
4429.000000	67.164540 
4428.000000	66.638731 
4427.000000	66.252160 
4426.000000	65.966987 
4425.000000	65.765404 
4424.000000	65.605735 
4423.000000	65.462756 
4422.000000	65.318655 
4421.000000	65.174150 
4420.000000	65.044045 
4419.000000	64.942908 
4418.000000	64.871931 
4417.000000	64.826869 
4416.000000	64.796423 
4415.000000	64.765930 
4414.000000	64.721035 
4413.000000	64.655160 
4412.000000	64.571356 
4411.000000	64.471602 
4410.000000	64.359998 
4409.000000	64.249920 
4408.000000	64.157199 
4407.000000	64.095640 
4406.000000	64.073085 
4405.000000	64.080810 
4404.000000	64.102506 
4403.000000	64.129114 
4402.000000	64.153146 
4401.000000	64.163136 
4400.000000	64.153361 
4399.000000	64.128232 
4398.000000	64.095735 
4397.000000	64.061808 
4396.000000	64.032125 
4395.000000	64.010381 
4394.000000	63.997125 
4393.000000	63.989806 
4392.000000	63.985538 
4391.000000	63.983082 
4390.000000	63.981890 
4389.000000	63.982319 
4388.000000	63.984751 
4387.000000	63.989138 
4386.000000	63.993883 
4385.000000	63.996434 
4384.000000	63.993883 
4383.000000	63.984537 
4382.000000	63.968396 
4381.000000	63.948321 
4380.000000	63.929319 
4379.000000	63.918852 
4378.000000	63.924217 
4377.000000	63.952064 
4376.000000	64.006280 
4375.000000	64.087247 
4374.000000	64.191246 
4373.000000	64.311075 
4372.000000	64.437127 
4371.000000	64.558911 
4370.000000	64.666962 
4369.000000	64.753985 
4368.000000	64.816021 
4367.000000	64.852452 
4366.000000	64.865612 
4365.000000	64.860200 
4364.000000	64.842319 
4363.000000	64.817714 
4362.000000	64.790987 
4361.000000	64.764952 
4360.000000	64.740824 
4359.000000	64.718127 
4358.000000	64.695572 
4357.000000	64.671969 
4356.000000	64.646816 
4355.000000	64.620947 
4354.000000	64.596343 
4353.000000	64.575648 
4352.000000	64.561057 
4351.000000	64.553308 
4350.000000	64.551496 
4349.000000	64.552259 
4348.000000	64.551401 
4347.000000	64.545130 
4346.000000	64.531445 
4345.000000	64.510631 
4344.000000	64.485788 
4343.000000	64.462351 
4342.000000	64.446473 
4341.000000	64.442849 
4340.000000	64.454603 
4339.000000	64.482235 
4338.000000	64.523363 
4337.000000	64.573001 
4336.000000	64.625072 
4335.000000	64.673709 
4334.000000	64.714121 
4333.000000	64.743518 
4332.000000	64.761281 
4331.000000	64.768958 
4330.000000	64.769816 
4329.000000	64.767622 
4328.000000	64.765977 
4327.000000	64.766979 
4326.000000	64.771533 
4325.000000	64.778494 
4324.000000	64.785599 
4323.000000	64.789628 
4322.000000	64.787721 
4321.000000	64.777851 
4320.000000	64.759540 
4319.000000	64.734053 
4318.000000	64.704346 
4317.000000	64.674305 
4316.000000	64.647507 
4315.000000	64.626479 
4314.000000	64.612054 
4313.000000	64.603137 
4312.000000	64.597129 
4311.000000	64.590716 
4310.000000	64.580941 
4309.000000	64.566087 
4308.000000	64.546489 
4307.000000	64.524483 
4306.000000	64.503765 
4305.000000	64.488911 
4304.000000	64.484071 
4303.000000	64.491581 
4302.000000	64.511060 
4301.000000	64.539527 
4300.000000	64.571738 
4299.000000	64.601206 
4298.000000	64.621901 
4297.000000	64.629435 
4296.000000	64.622759 
4295.000000	64.604115 
4294.000000	64.578890 
4293.000000	64.554095 
4292.000000	64.536833 
4291.000000	64.532637 
4290.000000	64.544105 
4289.000000	64.570140 
4288.000000	64.606189 
4287.000000	64.645886 
4286.000000	64.681911 
4285.000000	64.707827 
4284.000000	64.719605 
4283.000000	64.716482 
4282.000000	64.700436 
4281.000000	64.675235 
4280.000000	64.645600 
4279.000000	64.615631 
4278.000000	64.588189 
4277.000000	64.564085 
4276.000000	64.542651 
4275.000000	64.522337 
4274.000000	64.501380 
4273.000000	64.479041 
4272.000000	64.455699 
4271.000000	64.433360 
4270.000000	64.415192 
4269.000000	64.404892 
4268.000000	64.405155 
4267.000000	64.417362 
4266.000000	64.440917 
4265.000000	64.473485 
4264.000000	64.511275 
4263.000000	64.550518 
4262.000000	64.588379 
4261.000000	64.624023 
4260.000000	64.658427 
4259.000000	64.694118 
4258.000000	64.733767 
4257.000000	64.779233 
4256.000000	64.830064 
4255.000000	64.883613 
4254.000000	64.935183 
4253.000000	64.978981 
4252.000000	65.009689 
4251.000000	65.023779 
4250.000000	65.020608 
4249.000000	65.002560 
4248.000000	64.974141 
4247.000000	64.940834 
4246.000000	64.907312 
4245.000000	64.876747 
4244.000000	64.850211 
4243.000000	64.827060 
4242.000000	64.805459 
4241.000000	64.784193 
4240.000000	64.762759 
4239.000000	64.741897 
4238.000000	64.723324 
4237.000000	64.709067 
4236.000000	64.700865 
4235.000000	64.699101 
4234.000000	64.702773 
4233.000000	64.709424 
4232.000000	64.715790 
4231.000000	64.718484 
4230.000000	64.714694 
4229.000000	64.702725 
4228.000000	64.682292 
4227.000000	64.654493 
4226.000000	64.621496 
4225.000000	64.585924 
4224.000000	64.550590 
4223.000000	64.518165 
4222.000000	64.490938 
4221.000000	64.470720 
4220.000000	64.458847 
4219.000000	64.456200 
4218.000000	64.462947 
4217.000000	64.478945 
4216.000000	64.503359 
4215.000000	64.535093 
4214.000000	64.572715 
4213.000000	64.614605 
4212.000000	64.658379 
4211.000000	64.701771 
4210.000000	64.742398 
4209.000000	64.778327 
4208.000000	64.808201 
4207.000000	64.831519 
4206.000000	64.848947 
4205.000000	64.861702 
4204.000000	64.871025 
4203.000000	64.878273 
4202.000000	64.884591 
4201.000000	64.891028 
4200.000000	64.898324 
4199.000000	64.907002 
4198.000000	64.917421 
4197.000000	64.929795 
4196.000000	64.944124 
4195.000000	64.959907 
4194.000000	64.976167 
4193.000000	64.991569 
4192.000000	65.004777 
4191.000000	65.014743 
4190.000000	65.021228 
4189.000000	65.025091 
4188.000000	65.028142 
4187.000000	65.032625 
4186.000000	65.040659 
4185.000000	65.053224 
4184.000000	65.070366 
4183.000000	65.090608 
4182.000000	65.112495 
4181.000000	65.135121 
4180.000000	65.158724 
4179.000000	65.184903 
4178.000000	65.215563 
4177.000000	65.252351 
4176.000000	65.294408 
4175.000000	65.338253 
4174.000000	65.377569 
4173.000000	65.404391 
4172.000000	65.410876 
4171.000000	65.391349 
4170.000000	65.344047 
4169.000000	65.272188 
4168.000000	65.183424 
4167.000000	65.088462 
4166.000000	64.998793 
4165.000000	64.924240 
4164.000000	64.871120 
4163.000000	64.841413 
4162.000000	64.833140 
4161.000000	64.841437 
4160.000000	64.860105 
4159.000000	64.883494 
