PE IR       SPECTRUM    SPECTRUM    ASCII       PEDS        1.60        
  -1
BZ6BA0~1.ASC
17/04/07
15:56:02.00
17/04/07
15:56:02.00
tln
$BZ1503107-1_t0033$<tbV0>[-13.0,-7.8,8.0,0.0,27,1,0]
370.000000
64









2002,4.07    
MIRTGS : RIGHTBACK : INTERNAL 2
MIR : ON : INTERNAL 2
OPTKBR

0.200000
8
8.000000
FILLER
RATIO
SPECTRUM
UNLOCKED 256

DOUBLE
64
COMBINED
1
0
0


1.000000
RATIO


1
0
TRUE
51149
0
LEFT NOT FITTED RIGHT NOT FITTED 0
NONE
NONE
15600
12.000000
4.427000
51148
TRUE
1 0 8 72 0 0 0 0 

15798.010000






#HDR
-1
-1
#GR
CM-1
%T
0.00002384185791015625
0.0
5000.000000
-1.000000
4631
8
76.684165
48.534417
#DATA
5000.000000	65.372848 
4999.000000	65.309762 
4998.000000	65.241932 
4997.000000	65.170359 
4996.000000	65.093207 
4995.000000	65.008497 
4994.000000	64.915060 
4993.000000	64.814972 
4992.000000	64.713478 
4991.000000	64.618539 
4990.000000	64.538955 
4989.000000	64.482307 
4988.000000	64.452457 
4987.000000	64.448189 
4986.000000	64.463567 
4985.000000	64.489006 
4984.000000	64.514040 
4983.000000	64.529466 
4982.000000	64.529490 
4981.000000	64.512825 
4980.000000	64.482736 
4979.000000	64.445686 
4978.000000	64.408969 
4977.000000	64.378738 
4976.000000	64.358210 
4975.000000	64.347124 
4974.000000	64.342260 
4973.000000	64.338445 
4972.000000	64.330720 
4971.000000	64.315915 
4970.000000	64.293789 
4969.000000	64.267349 
4968.000000	64.241886 
4967.000000	64.223599 
4966.000000	64.217543 
4965.000000	64.225864 
4964.000000	64.246463 
4963.000000	64.273858 
4962.000000	64.300489 
4961.000000	64.318919 
4960.000000	64.323782 
4959.000000	64.314079 
4958.000000	64.293646 
4957.000000	64.269661 
4956.000000	64.250421 
4955.000000	64.243412 
4954.000000	64.252877 
4953.000000	64.278531 
4952.000000	64.315986 
4951.000000	64.358091 
4950.000000	64.397192 
4949.000000	64.427876 
4948.000000	64.447927 
4947.000000	64.459395 
4946.000000	64.466595 
4945.000000	64.473843 
4944.000000	64.483451 
4943.000000	64.494657 
4942.000000	64.503121 
4941.000000	64.502191 
4940.000000	64.485192 
4939.000000	64.448261 
4938.000000	64.392113 
4937.000000	64.322423 
4936.000000	64.249467 
4935.000000	64.185309 
4934.000000	64.142179 
4933.000000	64.129042 
4932.000000	64.150142 
4931.000000	64.203810 
4930.000000	64.283084 
4929.000000	64.377546 
4928.000000	64.474868 
4927.000000	64.563298 
4926.000000	64.633274 
4925.000000	64.678955 
4924.000000	64.698052 
4923.000000	64.692211 
4922.000000	64.666199 
4921.000000	64.627122 
4920.000000	64.583539 
4919.000000	64.544129 
4918.000000	64.517283 
4917.000000	64.508938 
4916.000000	64.523029 
4915.000000	64.559483 
4914.000000	64.614796 
4913.000000	64.681839 
4912.000000	64.751577 
4911.000000	64.814209 
4910.000000	64.860987 
4909.000000	64.885878 
4908.000000	64.886450 
4907.000000	64.864349 
4906.000000	64.824557 
4905.000000	64.774250 
4904.000000	64.721202 
4903.000000	64.672040 
4902.000000	64.631152 
4901.000000	64.600157 
4900.000000	64.578366 
4899.000000	64.563703 
4898.000000	64.553952 
4897.000000	64.546966 
4896.000000	64.541625 
4895.000000	64.537739 
4894.000000	64.536643 
4893.000000	64.539337 
4892.000000	64.547777 
4891.000000	64.563846 
4890.000000	64.589548 
4889.000000	64.626884 
4888.000000	64.676427 
4887.000000	64.736938 
4886.000000	64.804768 
4885.000000	64.874100 
4884.000000	64.937949 
4883.000000	64.989352 
4882.000000	65.022826 
4881.000000	65.035772 
4880.000000	65.028738 
4879.000000	65.005660 
4878.000000	64.971971 
4877.000000	64.933633 
4876.000000	64.894628 
4875.000000	64.856553 
4874.000000	64.818572 
4873.000000	64.778470 
4872.000000	64.734029 
4871.000000	64.684772 
4870.000000	64.633274 
4869.000000	64.585256 
4868.000000	64.548063 
4867.000000	64.529371 
4866.000000	64.534330 
4865.000000	64.564776 
4864.000000	64.618062 
4863.000000	64.687919 
4862.000000	64.765930 
4861.000000	64.842939 
4860.000000	64.911293 
4859.000000	64.965510 
4858.000000	65.002989 
4857.000000	65.023684 
4856.000000	65.029454 
4855.000000	65.023183 
4854.000000	65.007853 
4853.000000	64.986634 
4852.000000	64.962816 
4851.000000	64.939975 
4850.000000	64.921903 
4849.000000	64.912152 
4848.000000	64.913630 
4847.000000	64.927577 
4846.000000	64.953422 
4845.000000	64.988064 
4844.000000	65.026760 
4843.000000	65.064120 
4842.000000	65.095520 
4841.000000	65.118122 
4840.000000	65.131735 
4839.000000	65.138745 
4838.000000	65.143036 
4837.000000	65.149068 
4836.000000	65.160179 
4835.000000	65.177488 
4834.000000	65.199422 
4833.000000	65.222311 
4832.000000	65.241122 
4831.000000	65.251302 
4830.000000	65.249800 
4829.000000	65.236639 
4828.000000	65.214276 
4827.000000	65.186977 
4826.000000	65.159821 
4825.000000	65.137243 
4824.000000	65.122151 
4823.000000	65.115094 
4822.000000	65.114951 
4821.000000	65.119504 
4820.000000	65.126538 
4819.000000	65.134525 
4818.000000	65.142750 
4817.000000	65.151166 
4816.000000	65.159726 
4815.000000	65.167951 
4814.000000	65.174460 
4813.000000	65.177154 
4812.000000	65.173578 
4811.000000	65.161657 
4810.000000	65.140867 
4809.000000	65.112304 
4808.000000	65.078926 
4807.000000	65.044736 
4806.000000	65.014290 
4805.000000	64.991235 
4804.000000	64.977574 
4803.000000	64.973163 
4802.000000	64.975762 
4801.000000	64.981603 
4800.000000	64.986348 
4799.000000	64.986133 
4798.000000	64.978408 
4797.000000	64.962530 
4796.000000	64.939498 
4795.000000	64.911913 
4794.000000	64.883065 
4793.000000	64.856505 
4792.000000	64.835405 
4791.000000	64.821934 
4790.000000	64.817047 
4789.000000	64.820623 
4788.000000	64.831781 
4787.000000	64.848828 
4786.000000	64.869809 
4785.000000	64.892673 
4784.000000	64.915609 
4783.000000	64.936828 
4782.000000	64.955043 
4781.000000	64.969587 
4780.000000	64.980292 
4779.000000	64.987516 
4778.000000	64.991784 
4777.000000	64.993929 
4776.000000	64.994454 
4775.000000	64.993429 
4774.000000	64.990329 
4773.000000	64.984440 
4772.000000	64.975309 
4771.000000	64.963150 
4770.000000	64.949131 
4769.000000	64.935326 
4768.000000	64.924740 
4767.000000	64.920568 
4766.000000	64.925384 
4765.000000	64.940285 
4764.000000	64.964628 
4763.000000	64.996051 
4762.000000	65.031051 
4761.000000	65.066194 
4760.000000	65.098810 
4759.000000	65.128040 
4758.000000	65.154838 
4757.000000	65.181708 
4756.000000	65.212059 
4755.000000	65.248632 
4754.000000	65.292501 
4753.000000	65.342140 
4752.000000	65.393853 
4751.000000	65.442085 
4750.000000	65.481209 
4749.000000	65.506076 
4748.000000	65.513658 
4747.000000	65.503287 
4746.000000	65.477061 
4745.000000	65.438747 
4744.000000	65.392684 
4743.000000	65.343141 
4742.000000	65.293669 
4741.000000	65.246701 
4740.000000	65.203881 
4739.000000	65.166616 
4738.000000	65.136647 
4737.000000	65.116190 
4736.000000	65.107321 
4735.000000	65.111327 
4734.000000	65.127730 
4733.000000	65.153431 
4732.000000	65.183138 
4731.000000	65.209221 
4730.000000	65.224146 
4729.000000	65.222287 
4728.000000	65.201950 
4727.000000	65.165567 
4726.000000	65.120077 
4725.000000	65.075278 
4724.000000	65.041851 
4723.000000	65.028047 
4722.000000	65.038657 
4721.000000	65.073990 
4720.000000	65.129947 
4719.000000	65.199089 
4718.000000	65.273070 
4717.000000	65.344548 
4716.000000	65.408587 
4715.000000	65.463161 
4714.000000	65.508747 
4713.000000	65.547204 
4712.000000	65.580487 
4711.000000	65.609312 
4710.000000	65.632700 
4709.000000	65.647935 
4708.000000	65.652132 
4707.000000	65.642666 
4706.000000	65.618753 
4705.000000	65.581631 
4704.000000	65.535068 
4703.000000	65.484285 
4702.000000	65.435338 
4701.000000	65.393090 
4700.000000	65.360689 
4699.000000	65.338110 
4698.000000	65.322947 
4697.000000	65.310597 
4696.000000	65.295529 
4695.000000	65.273094 
4694.000000	65.240859 
4693.000000	65.199542 
4692.000000	65.152907 
4691.000000	65.106940 
4690.000000	65.068078 
4689.000000	65.041780 
4688.000000	65.030956 
4687.000000	65.035080 
4686.000000	65.050482 
4685.000000	65.070843 
4684.000000	65.088701 
4683.000000	65.097737 
4682.000000	65.094089 
4681.000000	65.077137 
4680.000000	65.049362 
4679.000000	65.015578 
4678.000000	64.981722 
4677.000000	64.953136 
4676.000000	64.933037 
4675.000000	64.922261 
4674.000000	64.918470 
4673.000000	64.917707 
4672.000000	64.915037 
4671.000000	64.905953 
4670.000000	64.887857 
4669.000000	64.860391 
4668.000000	64.826583 
4667.000000	64.791584 
4666.000000	64.762639 
4665.000000	64.746761 
4664.000000	64.749717 
4663.000000	64.774370 
4662.000000	64.819788 
4661.000000	64.881181 
4660.000000	64.950346 
4659.000000	65.017175 
4658.000000	65.071463 
4657.000000	65.105128 
4656.000000	65.113687 
4655.000000	65.097045 
4654.000000	65.060019 
4653.000000	65.010833 
4652.000000	64.959645 
4651.000000	64.915680 
4650.000000	64.886212 
4649.000000	64.873576 
4648.000000	64.875912 
4647.000000	64.886546 
4646.000000	64.896678 
4645.000000	64.897036 
4644.000000	64.880299 
4643.000000	64.843177 
4642.000000	64.786767 
4641.000000	64.717054 
4640.000000	64.642834 
4639.000000	64.574193 
4638.000000	64.519786 
4637.000000	64.485263 
4636.000000	64.472270 
4635.000000	64.478349 
4634.000000	64.497971 
4633.000000	64.524555 
4632.000000	64.552402 
4631.000000	64.577722 
4630.000000	64.599466 
4629.000000	64.619135 
4628.000000	64.639902 
4627.000000	64.664769 
4626.000000	64.695310 
4625.000000	64.730954 
4624.000000	64.768385 
4623.000000	64.802932 
4622.000000	64.828848 
4621.000000	64.841079 
4620.000000	64.836192 
4619.000000	64.814066 
4618.000000	64.777517 
4617.000000	64.732003 
4616.000000	64.684247 
4615.000000	64.641761 
4614.000000	64.610195 
4613.000000	64.592814 
4612.000000	64.588999 
4611.000000	64.595389 
4610.000000	64.605355 
4609.000000	64.610910 
4608.000000	64.604234 
4607.000000	64.579725 
4606.000000	64.535236 
4605.000000	64.472770 
4604.000000	64.398312 
4603.000000	64.320707 
4602.000000	64.250159 
4601.000000	64.196276 
4600.000000	64.165878 
4599.000000	64.161753 
4598.000000	64.182639 
4597.000000	64.223647 
4596.000000	64.277291 
4595.000000	64.335656 
4594.000000	64.391160 
4593.000000	64.438796 
4592.000000	64.475655 
4591.000000	64.502286 
4590.000000	64.521026 
4589.000000	64.535808 
4588.000000	64.550471 
4587.000000	64.568114 
4586.000000	64.590525 
4585.000000	64.617466 
4584.000000	64.647603 
4583.000000	64.677858 
4582.000000	64.704632 
4581.000000	64.723992 
4580.000000	64.732623 
4579.000000	64.727735 
4578.000000	64.707636 
4577.000000	64.671993 
4576.000000	64.622139 
4575.000000	64.560985 
4574.000000	64.493274 
4573.000000	64.425396 
4572.000000	64.364719 
4571.000000	64.318847 
4570.000000	64.294219 
4569.000000	64.295196 
4568.000000	64.322805 
4567.000000	64.374446 
4566.000000	64.443659 
4565.000000	64.520668 
4564.000000	64.594221 
4563.000000	64.653420 
4562.000000	64.689803 
4561.000000	64.697957 
4560.000000	64.677286 
4559.000000	64.631938 
4558.000000	64.569735 
4557.000000	64.500260 
4556.000000	64.433073 
4555.000000	64.376091 
4554.000000	64.334130 
4553.000000	64.308619 
4552.000000	64.298343 
4551.000000	64.300560 
4550.000000	64.312052 
4549.000000	64.329981 
4548.000000	64.352297 
4547.000000	64.377641 
4546.000000	64.404797 
4545.000000	64.432096 
4544.000000	64.456653 
4543.000000	64.474487 
4542.000000	64.481639 
4541.000000	64.474582 
4540.000000	64.450931 
4539.000000	64.410066 
4538.000000	64.354372 
4537.000000	64.288043 
4536.000000	64.216899 
4535.000000	64.146876 
4534.000000	64.083147 
4533.000000	64.028954 
4532.000000	63.985896 
4531.000000	63.953018 
4530.000000	63.927674 
4529.000000	63.906121 
4528.000000	63.884639 
4527.000000	63.860177 
4526.000000	63.831043 
4525.000000	63.797307 
4524.000000	63.760757 
4523.000000	63.724875 
4522.000000	63.693952 
4521.000000	63.672590 
4520.000000	63.664865 
4519.000000	63.673591 
4518.000000	63.700127 
4517.000000	63.744020 
4516.000000	63.803076 
4515.000000	63.873791 
4514.000000	63.951516 
4513.000000	64.030933 
4512.000000	64.106249 
4511.000000	64.172244 
4510.000000	64.223933 
4509.000000	64.257383 
4508.000000	64.269757 
4507.000000	64.260244 
4506.000000	64.229726 
4505.000000	64.181399 
4504.000000	64.120292 
4503.000000	64.053606 
4502.000000	63.988304 
4501.000000	63.930511 
4500.000000	63.884449 
4499.000000	63.852214 
4498.000000	63.833570 
4497.000000	63.826465 
4496.000000	63.827681 
4495.000000	63.834118 
4494.000000	63.842821 
4493.000000	63.852381 
4492.000000	63.862442 
4491.000000	63.874411 
4490.000000	63.890528 
4489.000000	63.913583 
4488.000000	63.946485 
4487.000000	63.990473 
4486.000000	64.044451 
4485.000000	64.103770 
4484.000000	64.160990 
4483.000000	64.207267 
4482.000000	64.234352 
4481.000000	64.236974 
4480.000000	64.214158 
4479.000000	64.170289 
4478.000000	64.114308 
4477.000000	64.058136 
4476.000000	64.013743 
4475.000000	63.990974 
4474.000000	63.995480 
4473.000000	64.027190 
4472.000000	64.081120 
4471.000000	64.146065 
4470.000000	64.207458 
4469.000000	64.252543 
4468.000000	64.273977 
4467.000000	64.271306 
4466.000000	64.251542 
4465.000000	64.229154 
4464.000000	64.221668 
4463.000000	64.243435 
4462.000000	64.301276 
4461.000000	64.396524 
4460.000000	64.521145 
4459.000000	64.654445 
4458.000000	64.771962 
4457.000000	64.855957 
4456.000000	64.896774 
4455.000000	64.896106 
4454.000000	64.864230 
4453.000000	64.817190 
4452.000000	64.769434 
4451.000000	64.729261 
4450.000000	64.696693 
4449.000000	64.660716 
4448.000000	64.613485 
4447.000000	64.555048 
4446.000000	64.501428 
4445.000000	64.483952 
4444.000000	64.539933 
4443.000000	64.701890 
4442.000000	64.983582 
4441.000000	65.374898 
4440.000000	65.837001 
4439.000000	66.318297 
4438.000000	66.763281 
4437.000000	67.140865 
4436.000000	67.459249 
4435.000000	67.772316 
4434.000000	68.164873 
4433.000000	68.728852 
4432.000000	69.543671 
4431.000000	70.632672 
4430.000000	71.954464 
4429.000000	73.387455 
4428.000000	74.760222 
4427.000000	75.873970 
4426.000000	76.553034 
4425.000000	76.684165 
4424.000000	76.251769 
4423.000000	75.340461 
4422.000000	74.121379 
4421.000000	72.811031 
4420.000000	71.624732 
4419.000000	70.734620 
4418.000000	70.238399 
4417.000000	70.159745 
4416.000000	70.455813 
4415.000000	71.039462 
4414.000000	71.801161 
4413.000000	72.619700 
4412.000000	73.379087 
4411.000000	73.965740 
4410.000000	74.285459 
4409.000000	74.273753 
4408.000000	73.904013 
4407.000000	73.196053 
4406.000000	72.206306 
4405.000000	71.024584 
4404.000000	69.751596 
4403.000000	68.485426 
4402.000000	67.307114 
4401.000000	66.281723 
4400.000000	65.447878 
4399.000000	64.823627 
4398.000000	64.405131 
4397.000000	64.173626 
4396.000000	64.097237 
4395.000000	64.128255 
4394.000000	64.220786 
4393.000000	64.331197 
4392.000000	64.427328 
4391.000000	64.486384 
4390.000000	64.498424 
4389.000000	64.461541 
4388.000000	64.384961 
4387.000000	64.284062 
4386.000000	64.173936 
4385.000000	64.066338 
4384.000000	63.969588 
4383.000000	63.887476 
4382.000000	63.822078 
4381.000000	63.773655 
4380.000000	63.742089 
4379.000000	63.726973 
4378.000000	63.727307 
4377.000000	63.741159 
4376.000000	63.765096 
4375.000000	63.794732 
4374.000000	63.821101 
4373.000000	63.837337 
4372.000000	63.842415 
4371.000000	63.838982 
4370.000000	63.829016 
4369.000000	63.818144 
4368.000000	63.814949 
4367.000000	63.826560 
4366.000000	63.856077 
4365.000000	63.903141 
4364.000000	63.964200 
4363.000000	64.032244 
4362.000000	64.098381 
4361.000000	64.153456 
4360.000000	64.190077 
4359.000000	64.204907 
4358.000000	64.199233 
4357.000000	64.178323 
4356.000000	64.150238 
4355.000000	64.123487 
4354.000000	64.105248 
4353.000000	64.100313 
4352.000000	64.110159 
4351.000000	64.133167 
4350.000000	64.165711 
4349.000000	64.204311 
4348.000000	64.245891 
4347.000000	64.288830 
4346.000000	64.332342 
4345.000000	64.376091 
4344.000000	64.419198 
4343.000000	64.459371 
4342.000000	64.492821 
4341.000000	64.515066 
4340.000000	64.521861 
4339.000000	64.510750 
4338.000000	64.481902 
4337.000000	64.438724 
4336.000000	64.386224 
4335.000000	64.330124 
4334.000000	64.275002 
4333.000000	64.223480 
4332.000000	64.175581 
4331.000000	64.129590 
4330.000000	64.082980 
4329.000000	64.034271 
4328.000000	63.984346 
4327.000000	63.937044 
4326.000000	63.897895 
4325.000000	63.873386 
4324.000000	63.868665 
4323.000000	63.886260 
4322.000000	63.924264 
4321.000000	63.977122 
4320.000000	64.036417 
4319.000000	64.093136 
4318.000000	64.139318 
4317.000000	64.170336 
4316.000000	64.185357 
4315.000000	64.187526 
4314.000000	64.182519 
4313.000000	64.177298 
4312.000000	64.178133 
4311.000000	64.189386 
4310.000000	64.212584 
4309.000000	64.246320 
4308.000000	64.287257 
4307.000000	64.330983 
4306.000000	64.373207 
4305.000000	64.410305 
4304.000000	64.439916 
4303.000000	64.461350 
4302.000000	64.474964 
4301.000000	64.481186 
4300.000000	64.480113 
4299.000000	64.471912 
4298.000000	64.456486 
4297.000000	64.433836 
4296.000000	64.404797 
4295.000000	64.371275 
4294.000000	64.336657 
4293.000000	64.305567 
4292.000000	64.283275 
4291.000000	64.274644 
4290.000000	64.283180 
4289.000000	64.310073 
4288.000000	64.353394 
4287.000000	64.408016 
4286.000000	64.466595 
4285.000000	64.521288 
4284.000000	64.564800 
4283.000000	64.591789 
4282.000000	64.600276 
4281.000000	64.592099 
4280.000000	64.572644 
4279.000000	64.549684 
4278.000000	64.532446 
4277.000000	64.529204 
4276.000000	64.546132 
4275.000000	64.585137 
4274.000000	64.643931 
4273.000000	64.715766 
4272.000000	64.790987 
4271.000000	64.858818 
4270.000000	64.909601 
4269.000000	64.937019 
4268.000000	64.939260 
4267.000000	64.918994 
4266.000000	64.882588 
4265.000000	64.837884 
4264.000000	64.793014 
4263.000000	64.753270 
4262.000000	64.720654 
4261.000000	64.693355 
4260.000000	64.667630 
4259.000000	64.638757 
4258.000000	64.603590 
4257.000000	64.561796 
4256.000000	64.516258 
4255.000000	64.472532 
4254.000000	64.437174 
4253.000000	64.415550 
4252.000000	64.410424 
4251.000000	64.421200 
4250.000000	64.444065 
4249.000000	64.473032 
4248.000000	64.501714 
4247.000000	64.524865 
4246.000000	64.539766 
4245.000000	64.546442 
4244.000000	64.547586 
4243.000000	64.547586 
4242.000000	64.551353 
4241.000000	64.562559 
4240.000000	64.582920 
4239.000000	64.612054 
4238.000000	64.647459 
4237.000000	64.685750 
4236.000000	64.723086 
4235.000000	64.756298 
4234.000000	64.783740 
4233.000000	64.805555 
4232.000000	64.823365 
4231.000000	64.839434 
4230.000000	64.856505 
4229.000000	64.876818 
4228.000000	64.901709 
4227.000000	64.931106 
4226.000000	64.963817 
4225.000000	64.997720 
4224.000000	65.030217 
4223.000000	65.058541 
4222.000000	65.080308 
4221.000000	65.093612 
4220.000000	65.097236 
4219.000000	65.090751 
4218.000000	65.074157 
4217.000000	65.048694 
4216.000000	65.016722 
4215.000000	64.982104 
4214.000000	64.949679 
4213.000000	64.924955 
4212.000000	64.913392 
4211.000000	64.919471 
4210.000000	64.945530 
4209.000000	64.991211 
4208.000000	65.053319 
4207.000000	65.125989 
4206.000000	65.201473 
4205.000000	65.271592 
4204.000000	65.329432 
4203.000000	65.370321 
4202.000000	65.392446 
4201.000000	65.397191 
4200.000000	65.388393 
4199.000000	65.371298 
4198.000000	65.350723 
4197.000000	65.330028 
4196.000000	65.309977 
4195.000000	65.288996 
4194.000000	65.263795 
4193.000000	65.230727 
4192.000000	65.187478 
4191.000000	65.134143 
4190.000000	65.074086 
4189.000000	65.013289 
4188.000000	64.959406 
4187.000000	64.919757 
4186.000000	64.899754 
4185.000000	64.901494 
4184.000000	64.922857 
4183.000000	64.958024 
4182.000000	64.998722 
4181.000000	65.035891 
4180.000000	65.062069 
4179.000000	65.072441 
4178.000000	65.066289 
4177.000000	65.046358 
4176.000000	65.018200 
4175.000000	64.988088 
4174.000000	64.962196 
4173.000000	64.945197 
4172.000000	64.939141 
4171.000000	64.943671 
4170.000000	64.956784 
4169.000000	64.975857 
4168.000000	64.998555 
4167.000000	65.023612 
4166.000000	65.050768 
4165.000000	65.080332 
4164.000000	65.112853 
4163.000000	65.147733 
4162.000000	65.182781 
4161.000000	65.214323 
4160.000000	65.237760 
4159.000000	65.248823 
