PE IR       SPECTRUM    SPECTRUM    ASCII       PEDS        1.60        
  -1
BZ6F22~1.ASC
17/04/07
13:48:11.00
17/04/07
13:48:11.00
tln
$BZ1503107-1_t0007$<tbV0>[-2.6,-13.0,8.0,0.0,27,1,0]
370.000000
64









2002,4.07    
MIRTGS : RIGHTBACK : INTERNAL 2
MIR : ON : INTERNAL 2
OPTKBR

0.200000
8
8.000000
FILLER
RATIO
SPECTRUM
UNLOCKED 256

DOUBLE
64
COMBINED
1
0
0


1.000000
RATIO


1
0
TRUE
51149
0
LEFT NOT FITTED RIGHT NOT FITTED 0
NONE
NONE
15600
12.000000
4.427000
51148
TRUE
1 0 8 72 0 0 0 0 

15798.010000






#HDR
-1
-1
#GR
CM-1
%T
0.00002384185791015625
0.0
5000.000000
-1.000000
4631
8
80.383372
47.948122
#DATA
5000.000000	64.493727 
4999.000000	64.468431 
4998.000000	64.468359 
4997.000000	64.496946 
4996.000000	64.552760 
4995.000000	64.629578 
4994.000000	64.717435 
4993.000000	64.804863 
4992.000000	64.880752 
4991.000000	64.937043 
4990.000000	64.968967 
4989.000000	64.975953 
4988.000000	64.959692 
4987.000000	64.923334 
4986.000000	64.869236 
4985.000000	64.798641 
4984.000000	64.711380 
4983.000000	64.607191 
4982.000000	64.488148 
4981.000000	64.359879 
4980.000000	64.231061 
4979.000000	64.113092 
4978.000000	64.018702 
4977.000000	63.959360 
4976.000000	63.941335 
4975.000000	63.964867 
4974.000000	64.022612 
4973.000000	64.102673 
4972.000000	64.190888 
4971.000000	64.274668 
4970.000000	64.344668 
4969.000000	64.396834 
4968.000000	64.432406 
4967.000000	64.455509 
4966.000000	64.470338 
4965.000000	64.479017 
4964.000000	64.481186 
4963.000000	64.472436 
4962.000000	64.445972 
4961.000000	64.395499 
4960.000000	64.318108 
4959.000000	64.217329 
4958.000000	64.104175 
4957.000000	63.997817 
4956.000000	63.922357 
4955.000000	63.904309 
4954.000000	63.966274 
4953.000000	64.120984 
4952.000000	64.366483 
4951.000000	64.685916 
4950.000000	65.047669 
4949.000000	65.410733 
4948.000000	65.730595 
4947.000000	65.967488 
4946.000000	66.092872 
4945.000000	66.096043 
4944.000000	65.982985 
4943.000000	65.776586 
4942.000000	65.507435 
4941.000000	65.209436 
4940.000000	64.910602 
4939.000000	64.631628 
4938.000000	64.381670 
4937.000000	64.162158 
4936.000000	63.969635 
4935.000000	63.801264 
4934.000000	63.658332 
4933.000000	63.546919 
4932.000000	63.478946 
4931.000000	63.467860 
4930.000000	63.526773 
4929.000000	63.662743 
4928.000000	63.874959 
4927.000000	64.151334 
4926.000000	64.469194 
4925.000000	64.795970 
4924.000000	65.093874 
4923.000000	65.324378 
4922.000000	65.454387 
4921.000000	65.462160 
4920.000000	65.340089 
4919.000000	65.098977 
4918.000000	64.768123 
4917.000000	64.391160 
4916.000000	64.019703 
4915.000000	63.703823 
4914.000000	63.484621 
4913.000000	63.386249 
4912.000000	63.412857 
4911.000000	63.549709 
4910.000000	63.767123 
4909.000000	64.029431 
4908.000000	64.301776 
4907.000000	64.557814 
4906.000000	64.781188 
4905.000000	64.968109 
4904.000000	65.122604 
4903.000000	65.254759 
4902.000000	65.374088 
4901.000000	65.486526 
4900.000000	65.590739 
4899.000000	65.679192 
4898.000000	65.738773 
4897.000000	65.755939 
4896.000000	65.719723 
4895.000000	65.625524 
4894.000000	65.477752 
4893.000000	65.289521 
4892.000000	65.082287 
4891.000000	64.883089 
4890.000000	64.719033 
4889.000000	64.613008 
4888.000000	64.577507 
4887.000000	64.612388 
4886.000000	64.704370 
4885.000000	64.830279 
4884.000000	64.962029 
4883.000000	65.072512 
4882.000000	65.141487 
4881.000000	65.159869 
4880.000000	65.127968 
4879.000000	65.053319 
4878.000000	64.946007 
4877.000000	64.814925 
4876.000000	64.666771 
4875.000000	64.506340 
4874.000000	64.337539 
4873.000000	64.165878 
4872.000000	64.002084 
4871.000000	63.861846 
4870.000000	63.763475 
4869.000000	63.723993 
4868.000000	63.753795 
4867.000000	63.853192 
4866.000000	64.009261 
4865.000000	64.198756 
4864.000000	64.392089 
4863.000000	64.560079 
4862.000000	64.679718 
4861.000000	64.738917 
4860.000000	64.736390 
4859.000000	64.682888 
4858.000000	64.596486 
4857.000000	64.499568 
4856.000000	64.412975 
4855.000000	64.352989 
4854.000000	64.330029 
4853.000000	64.345884 
4852.000000	64.395976 
4851.000000	64.468669 
4850.000000	64.549183 
4849.000000	64.621496 
4848.000000	64.672183 
4847.000000	64.692735 
4846.000000	64.681601 
4845.000000	64.644169 
4844.000000	64.591073 
4843.000000	64.537119 
4842.000000	64.496278 
4841.000000	64.478254 
4840.000000	64.485239 
4839.000000	64.511632 
4838.000000	64.545679 
4837.000000	64.572644 
4836.000000	64.580750 
4835.000000	64.564490 
4834.000000	64.527535 
4833.000000	64.481377 
4832.000000	64.442515 
4831.000000	64.427375 
4830.000000	64.446830 
4829.000000	64.502644 
4828.000000	64.585781 
4827.000000	64.678192 
4826.000000	64.757704 
4825.000000	64.804053 
4824.000000	64.805269 
4823.000000	64.761185 
4822.000000	64.684391 
4821.000000	64.596748 
4820.000000	64.523553 
4819.000000	64.486289 
4818.000000	64.496588 
4817.000000	64.552831 
4816.000000	64.639902 
4815.000000	64.733839 
4814.000000	64.808559 
4813.000000	64.844083 
4812.000000	64.831042 
4811.000000	64.775371 
4810.000000	64.696216 
4809.000000	64.622402 
4808.000000	64.583516 
4807.000000	64.602828 
4806.000000	64.691162 
4805.000000	64.843058 
4804.000000	65.039205 
4803.000000	65.249395 
4802.000000	65.441346 
4801.000000	65.586543 
4800.000000	65.666890 
4799.000000	65.677475 
4798.000000	65.626382 
4797.000000	65.531396 
4796.000000	65.414404 
4795.000000	65.296626 
4794.000000	65.193629 
4793.000000	65.114164 
4792.000000	65.059185 
4791.000000	65.023660 
4790.000000	64.998316 
4789.000000	64.973664 
4788.000000	64.941740 
4787.000000	64.896559 
4786.000000	64.836025 
4785.000000	64.759635 
4784.000000	64.670991 
4783.000000	64.576506 
4782.000000	64.485716 
4781.000000	64.409089 
4780.000000	64.356374 
4779.000000	64.335250 
4778.000000	64.347696 
4777.000000	64.389562 
4776.000000	64.449357 
4775.000000	64.510250 
4774.000000	64.553475 
4773.000000	64.562010 
4772.000000	64.526343 
4771.000000	64.446783 
4770.000000	64.335083 
4769.000000	64.211654 
4768.000000	64.103770 
4767.000000	64.039063 
4766.000000	64.039683 
4765.000000	64.116454 
4764.000000	64.265489 
4763.000000	64.468097 
4762.000000	64.695096 
4761.000000	64.912104 
4760.000000	65.086388 
4759.000000	65.193557 
4758.000000	65.221643 
4757.000000	65.173053 
4756.000000	65.062165 
4755.000000	64.911890 
4754.000000	64.747905 
4753.000000	64.593982 
4752.000000	64.468812 
4751.000000	64.383149 
4750.000000	64.341306 
4749.000000	64.340233 
4748.000000	64.373230 
4747.000000	64.430212 
4746.000000	64.500641 
4745.000000	64.573740 
4744.000000	64.638996 
4743.000000	64.687585 
4742.000000	64.712476 
4741.000000	64.710760 
4740.000000	64.683771 
4739.000000	64.637684 
4738.000000	64.582228 
4737.000000	64.528918 
4736.000000	64.488172 
4735.000000	64.467477 
4734.000000	64.469003 
4733.000000	64.489674 
4732.000000	64.521002 
4731.000000	64.551877 
4730.000000	64.570140 
4729.000000	64.565706 
4728.000000	64.532017 
4727.000000	64.466667 
4726.000000	64.372730 
4725.000000	64.257025 
4724.000000	64.130973 
4723.000000	64.007520 
4722.000000	63.900971 
4721.000000	63.824105 
4720.000000	63.787364 
4719.000000	63.797378 
4718.000000	63.854956 
4717.000000	63.954925 
4716.000000	64.085650 
4715.000000	64.230775 
4714.000000	64.371943 
4713.000000	64.491963 
4712.000000	64.577746 
4711.000000	64.622592 
4710.000000	64.627075 
4709.000000	64.598655 
4708.000000	64.550137 
4707.000000	64.496660 
4706.000000	64.453125 
4705.000000	64.430952 
4704.000000	64.437413 
4703.000000	64.473628 
4702.000000	64.535880 
4701.000000	64.615893 
4700.000000	64.703464 
4699.000000	64.787864 
4698.000000	64.860081 
4697.000000	64.913940 
4696.000000	64.946460 
4695.000000	64.958047 
4694.000000	64.951419 
4693.000000	64.930820 
4692.000000	64.901471 
4691.000000	64.867639 
4690.000000	64.832472 
4689.000000	64.797878 
4688.000000	64.765214 
4687.000000	64.735770 
4686.000000	64.711618 
4685.000000	64.695382 
4684.000000	64.689803 
4683.000000	64.698076 
4682.000000	64.722323 
4681.000000	64.762020 
4680.000000	64.813709 
4679.000000	64.871168 
4678.000000	64.926242 
4677.000000	64.970326 
4676.000000	64.995980 
4675.000000	64.998364 
4674.000000	64.976358 
4673.000000	64.933252 
4672.000000	64.875459 
4671.000000	64.811396 
4670.000000	64.749574 
4669.000000	64.697146 
4668.000000	64.658737 
4667.000000	64.637064 
4666.000000	64.631867 
4665.000000	64.640998 
4664.000000	64.660644 
4663.000000	64.686703 
4662.000000	64.714360 
4661.000000	64.738607 
4660.000000	64.754414 
4659.000000	64.757061 
4658.000000	64.743089 
4657.000000	64.711022 
4656.000000	64.662051 
4655.000000	64.600658 
4654.000000	64.534211 
4653.000000	64.471983 
4652.000000	64.423751 
4651.000000	64.397668 
4650.000000	64.398860 
4649.000000	64.428138 
4648.000000	64.482259 
4647.000000	64.553976 
4646.000000	64.633560 
4645.000000	64.710402 
4644.000000	64.774942 
4643.000000	64.819598 
4642.000000	64.839720 
4641.000000	64.833879 
4640.000000	64.803433 
4639.000000	64.752745 
4638.000000	64.688062 
4637.000000	64.617133 
4636.000000	64.547967 
4635.000000	64.488148 
4634.000000	64.444208 
4633.000000	64.419913 
4632.000000	64.415907 
4631.000000	64.429569 
4630.000000	64.455652 
4629.000000	64.487791 
4628.000000	64.519858 
4627.000000	64.547324 
4626.000000	64.568090 
4625.000000	64.582228 
4624.000000	64.591646 
4623.000000	64.598894 
4622.000000	64.605951 
4621.000000	64.612841 
4620.000000	64.617562 
4619.000000	64.617419 
4618.000000	64.609193 
4617.000000	64.590811 
4616.000000	64.562010 
4615.000000	64.524888 
4614.000000	64.483261 
4613.000000	64.441967 
4612.000000	64.405727 
4611.000000	64.377331 
4610.000000	64.358806 
4609.000000	64.351010 
4608.000000	64.354085 
4607.000000	64.367794 
4606.000000	64.391016 
4605.000000	64.421749 
4604.000000	64.456725 
4603.000000	64.491796 
4602.000000	64.522290 
4601.000000	64.544343 
4600.000000	64.555597 
4599.000000	64.556264 
4598.000000	64.549136 
4597.000000	64.539456 
4596.000000	64.533662 
4595.000000	64.538168 
4594.000000	64.558005 
4593.000000	64.595007 
4592.000000	64.648294 
4591.000000	64.712953 
4590.000000	64.781498 
4589.000000	64.844322 
4588.000000	64.892268 
4587.000000	64.917135 
4586.000000	64.913415 
4585.000000	64.878916 
4584.000000	64.815330 
4583.000000	64.728307 
4582.000000	64.626908 
4581.000000	64.522099 
4580.000000	64.425063 
4579.000000	64.344811 
4578.000000	64.286780 
4577.000000	64.251756 
4576.000000	64.236640 
4575.000000	64.235877 
4574.000000	64.243626 
4573.000000	64.255094 
4572.000000	64.268398 
4571.000000	64.283895 
4570.000000	64.304685 
4569.000000	64.333581 
4568.000000	64.373373 
4567.000000	64.424896 
4566.000000	64.487123 
4565.000000	64.557123 
4564.000000	64.630031 
4563.000000	64.700460 
4562.000000	64.762210 
4561.000000	64.810061 
4560.000000	64.839458 
4559.000000	64.847421 
4558.000000	64.832568 
4557.000000	64.795637 
4556.000000	64.739394 
4555.000000	64.668774 
4554.000000	64.590382 
4553.000000	64.512109 
4552.000000	64.441418 
4551.000000	64.384412 
4550.000000	64.345049 
4549.000000	64.324736 
4548.000000	64.321303 
4547.000000	64.329862 
4546.000000	64.344239 
4545.000000	64.358663 
4544.000000	64.368963 
4543.000000	64.373588 
4542.000000	64.373636 
4541.000000	64.372181 
4540.000000	64.372444 
4539.000000	64.376974 
4538.000000	64.386081 
4537.000000	64.398479 
4536.000000	64.411807 
4535.000000	64.423394 
4534.000000	64.431643 
4533.000000	64.435768 
4532.000000	64.435887 
4531.000000	64.432716 
4530.000000	64.427113 
4529.000000	64.420485 
4528.000000	64.414072 
4527.000000	64.410257 
4526.000000	64.412450 
4525.000000	64.423656 
4524.000000	64.445543 
4523.000000	64.479851 
4522.000000	64.527487 
4521.000000	64.586186 
4520.000000	64.651203 
4519.000000	64.716434 
4518.000000	64.775919 
4517.000000	64.825797 
4516.000000	64.864754 
4515.000000	64.895725 
4514.000000	64.922785 
4513.000000	64.947414 
4512.000000	64.969468 
4511.000000	64.985752 
4510.000000	64.993762 
4509.000000	64.995098 
4508.000000	64.994335 
4507.000000	64.999175 
4506.000000	65.017390 
4505.000000	65.054702 
4504.000000	65.112566 
4503.000000	65.183758 
4502.000000	65.262436 
4501.000000	65.345907 
4500.000000	65.440082 
4499.000000	65.557909 
4498.000000	65.719461 
4497.000000	65.945124 
4496.000000	66.244435 
4495.000000	66.609692 
4494.000000	67.011785 
4493.000000	67.406463 
4492.000000	67.740702 
4491.000000	67.970442 
4490.000000	68.078517 
4489.000000	68.078541 
4488.000000	68.018865 
4487.000000	67.960238 
4486.000000	67.964196 
4485.000000	68.063235 
4484.000000	68.245840 
4483.000000	68.458294 
4482.000000	68.631219 
4481.000000	68.686079 
4480.000000	68.562531 
4479.000000	68.231582 
4478.000000	67.707419 
4477.000000	67.042660 
4476.000000	66.321349 
4475.000000	65.627598 
4474.000000	65.020942 
4473.000000	64.535403 
4472.000000	64.177584 
4471.000000	63.924860 
4470.000000	63.737082 
4469.000000	63.569808 
4468.000000	63.388872 
4467.000000	63.173413 
4466.000000	62.923121 
4465.000000	62.653660 
4464.000000	62.390565 
4463.000000	62.173366 
4462.000000	62.023925 
4461.000000	61.956095 
4460.000000	61.930847 
4459.000000	61.864686 
4458.000000	61.623716 
4457.000000	61.042523 
4456.000000	59.985637 
4455.000000	58.366513 
4454.000000	56.236577 
4453.000000	53.764414 
4452.000000	51.279473 
4451.000000	49.198865 
4450.000000	47.967505 
4449.000000	47.948122 
4448.000000	49.331140 
4447.000000	52.071595 
4446.000000	55.876827 
4445.000000	60.253596 
4444.000000	64.610004 
4443.000000	68.376183 
4442.000000	71.123290 
4441.000000	72.641396 
4440.000000	72.953891 
4439.000000	72.285485 
4438.000000	70.987582 
4437.000000	69.439721 
4436.000000	67.974448 
4435.000000	66.799950 
4434.000000	66.018939 
4433.000000	65.601015 
4432.000000	65.456819 
4431.000000	65.451979 
4430.000000	65.480279 
4429.000000	65.471601 
4428.000000	65.396571 
4427.000000	65.271139 
4426.000000	65.115880 
4425.000000	64.965820 
4424.000000	64.838385 
4423.000000	64.744877 
4422.000000	64.687919 
4421.000000	64.660739 
4420.000000	64.652347 
4419.000000	64.649248 
4418.000000	64.640331 
4417.000000	64.618277 
4416.000000	64.581990 
4415.000000	64.534211 
4414.000000	64.479875 
4413.000000	64.434671 
4412.000000	64.419031 
4411.000000	64.439463 
4410.000000	64.490389 
4409.000000	64.564466 
4408.000000	64.650607 
4407.000000	64.735317 
4406.000000	64.806556 
4405.000000	64.852380 
4404.000000	64.866948 
4403.000000	64.856219 
4402.000000	64.831805 
4401.000000	64.804887 
4400.000000	64.784955 
4399.000000	64.777326 
4398.000000	64.782142 
4397.000000	64.795708 
4396.000000	64.811515 
4395.000000	64.824438 
4394.000000	64.829564 
4393.000000	64.823675 
4392.000000	64.805698 
4391.000000	64.776492 
4390.000000	64.739489 
4389.000000	64.699578 
4388.000000	64.663505 
4387.000000	64.637994 
4386.000000	64.627814 
4385.000000	64.634370 
4384.000000	64.654350 
4383.000000	64.680576 
4382.000000	64.703178 
4381.000000	64.712786 
4380.000000	64.702701 
4379.000000	64.671444 
4378.000000	64.622592 
4377.000000	64.565277 
4376.000000	64.510798 
4375.000000	64.471364 
4374.000000	64.456939 
4373.000000	64.473128 
4372.000000	64.520025 
4371.000000	64.592218 
4370.000000	64.680266 
4369.000000	64.772462 
4368.000000	64.857554 
4367.000000	64.926385 
4366.000000	64.973402 
4365.000000	64.996838 
4364.000000	64.998435 
4363.000000	64.982008 
4362.000000	64.952325 
4361.000000	64.914083 
4360.000000	64.871144 
4359.000000	64.826464 
4358.000000	64.782094 
4357.000000	64.739894 
4356.000000	64.701652 
4355.000000	64.669013 
4354.000000	64.643812 
4353.000000	64.627194 
4352.000000	64.620351 
4351.000000	64.624452 
4350.000000	64.640331 
4349.000000	64.668107 
4348.000000	64.706540 
4347.000000	64.752817 
4346.000000	64.802503 
4345.000000	64.849662 
4344.000000	64.888358 
4343.000000	64.913439 
4342.000000	64.922356 
4341.000000	64.915776 
4340.000000	64.897608 
4339.000000	64.874291 
4338.000000	64.853048 
4337.000000	64.840245 
4336.000000	64.839601 
4335.000000	64.851641 
4334.000000	64.873361 
4333.000000	64.899063 
4332.000000	64.922070 
4331.000000	64.935898 
4330.000000	64.936351 
4329.000000	64.921712 
4328.000000	64.892411 
4327.000000	64.850783 
4326.000000	64.800024 
4325.000000	64.743995 
4324.000000	64.686393 
4323.000000	64.630937 
4322.000000	64.581656 
4321.000000	64.542198 
4320.000000	64.515924 
4319.000000	64.505171 
4318.000000	64.510440 
4317.000000	64.530587 
4316.000000	64.562511 
4315.000000	64.602088 
4314.000000	64.644098 
4313.000000	64.684247 
4312.000000	64.719533 
4311.000000	64.748859 
4310.000000	64.772725 
4309.000000	64.792847 
4308.000000	64.811086 
4307.000000	64.828896 
4306.000000	64.846801 
4305.000000	64.864110 
4304.000000	64.879226 
4303.000000	64.890885 
4302.000000	64.898133 
4301.000000	64.901018 
4300.000000	64.900445 
4299.000000	64.897894 
4298.000000	64.895033 
4297.000000	64.893174 
4296.000000	64.892840 
4295.000000	64.893889 
4294.000000	64.895057 
4293.000000	64.894843 
4292.000000	64.891409 
4291.000000	64.883494 
4290.000000	64.870333 
4289.000000	64.851903 
4288.000000	64.829230 
4287.000000	64.803743 
4286.000000	64.778065 
4285.000000	64.755511 
4284.000000	64.739847 
4283.000000	64.734411 
4282.000000	64.741730 
4281.000000	64.762973 
4280.000000	64.797306 
4279.000000	64.841842 
4278.000000	64.892196 
4277.000000	64.943337 
4276.000000	64.990305 
4275.000000	65.029001 
4274.000000	65.056562 
4273.000000	65.071463 
4272.000000	65.073680 
4271.000000	65.064144 
4270.000000	65.044736 
4269.000000	65.017437 
4268.000000	64.984846 
4267.000000	64.948868 
4266.000000	64.911365 
4265.000000	64.872980 
4264.000000	64.834547 
4263.000000	64.795851 
4262.000000	64.756345 
4261.000000	64.715242 
4260.000000	64.671993 
4259.000000	64.626812 
4258.000000	64.581131 
4257.000000	64.537501 
4256.000000	64.499044 
4255.000000	64.469218 
4254.000000	64.450812 
4253.000000	64.445519 
4252.000000	64.453387 
4251.000000	64.472818 
4250.000000	64.500904 
4249.000000	64.533901 
4248.000000	64.568066 
4247.000000	64.599823 
4246.000000	64.626479 
4245.000000	64.645862 
4244.000000	64.657068 
4243.000000	64.660215 
4242.000000	64.656901 
4241.000000	64.649963 
4240.000000	64.643049 
4239.000000	64.640164 
4238.000000	64.644479 
4237.000000	64.658594 
4236.000000	64.682340 
4235.000000	64.713120 
4234.000000	64.745521 
4233.000000	64.772701 
4232.000000	64.787578 
4231.000000	64.784336 
4230.000000	64.760494 
4229.000000	64.717793 
4228.000000	64.662694 
4227.000000	64.605212 
4226.000000	64.557147 
4225.000000	64.529132 
4224.000000	64.528131 
4223.000000	64.555621 
4222.000000	64.607048 
4221.000000	64.672970 
4220.000000	64.741206 
4219.000000	64.800000 
4218.000000	64.840412 
4217.000000	64.858746 
4216.000000	64.856958 
4215.000000	64.841985 
4214.000000	64.823222 
4213.000000	64.810276 
4212.000000	64.810538 
4211.000000	64.827346 
4210.000000	64.859843 
4209.000000	64.903068 
4208.000000	64.950203 
4207.000000	64.993453 
4206.000000	65.026688 
4205.000000	65.045499 
4204.000000	65.047931 
4203.000000	65.034151 
4202.000000	65.005803 
4201.000000	64.965939 
4200.000000	64.918589 
4199.000000	64.868545 
4198.000000	64.820885 
4197.000000	64.780497 
4196.000000	64.751338 
4195.000000	64.736175 
4194.000000	64.736008 
4193.000000	64.749622 
4192.000000	64.774155 
4191.000000	64.805436 
4190.000000	64.838671 
4189.000000	64.869356 
4188.000000	64.893865 
4187.000000	64.909553 
4186.000000	64.915275 
4185.000000	64.911437 
4184.000000	64.899468 
4183.000000	64.881491 
4182.000000	64.859676 
4181.000000	64.836359 
4180.000000	64.813423 
4179.000000	64.792442 
4178.000000	64.774298 
4177.000000	64.759469 
4176.000000	64.747738 
4175.000000	64.738416 
4174.000000	64.730739 
4173.000000	64.723873 
4172.000000	64.717483 
4171.000000	64.711713 
4170.000000	64.707279 
4169.000000	64.705276 
4168.000000	64.707088 
4167.000000	64.714050 
4166.000000	64.726948 
4165.000000	64.745783 
4164.000000	64.769792 
4163.000000	64.796900 
4162.000000	64.824318 
4161.000000	64.848518 
4160.000000	64.866018 
4159.000000	64.873528 
