PE IR       SPECTRUM    SPECTRUM    ASCII       PEDS        1.60        
  -1
BZ69A5~1.ASC
17/04/07
20:46:00.00
17/04/07
20:46:00.00
tln
$BZ1503107-1_t0091$<tbV0>[7.8,7.8,8.0,0.0,27,1,0]
370.000000
64









2002,4.07    
MIRTGS : RIGHTBACK : INTERNAL 2
MIR : ON : INTERNAL 2
OPTKBR

0.200000
8
8.000000
FILLER
RATIO
SPECTRUM
UNLOCKED 256

DOUBLE
64
COMBINED
1
0
0


1.000000
RATIO


1
0
TRUE
51149
0
LEFT NOT FITTED RIGHT NOT FITTED 0
NONE
NONE
15600
12.000000
4.427000
51148
TRUE
1 0 8 72 0 0 0 0 

15798.010000






#HDR
-1
-1
#GR
CM-1
%T
0.00002384185791015625
0.0
5000.000000
-1.000000
4631
8
80.719494
51.493906
#DATA
5000.000000	64.249992 
4999.000000	64.248299 
4998.000000	64.237761 
4997.000000	64.222741 
4996.000000	64.210414 
4995.000000	64.206480 
4994.000000	64.214587 
4993.000000	64.233374 
4992.000000	64.258980 
4991.000000	64.285540 
4990.000000	64.309144 
4989.000000	64.329409 
4988.000000	64.350271 
4987.000000	64.378333 
4986.000000	64.422392 
4985.000000	64.490509 
4984.000000	64.584779 
4983.000000	64.698529 
4982.000000	64.819264 
4981.000000	64.929509 
4980.000000	65.007877 
4979.000000	65.033245 
4978.000000	64.989113 
4977.000000	64.868116 
4976.000000	64.674878 
4975.000000	64.426970 
4974.000000	64.149999 
4973.000000	63.875937 
4972.000000	63.639569 
4971.000000	63.470983 
4970.000000	63.390493 
4969.000000	63.403868 
4968.000000	63.502311 
4967.000000	63.663172 
4966.000000	63.852310 
4965.000000	64.035177 
4964.000000	64.180421 
4963.000000	64.273548 
4962.000000	64.314937 
4961.000000	64.327907 
4960.000000	64.349174 
4959.000000	64.426469 
4958.000000	64.604091 
4957.000000	64.915227 
4956.000000	65.369749 
4955.000000	65.950107 
4954.000000	66.608428 
4953.000000	67.270565 
4952.000000	67.846059 
4951.000000	68.244099 
4950.000000	68.390154 
4949.000000	68.242883 
4948.000000	67.802143 
4947.000000	67.113780 
4946.000000	66.258263 
4945.000000	65.336871 
4944.000000	64.451026 
4943.000000	63.687467 
4942.000000	63.103413 
4941.000000	62.723159 
4940.000000	62.539434 
4939.000000	62.523746 
4938.000000	62.636351 
4937.000000	62.834763 
4936.000000	63.085103 
4935.000000	63.358926 
4934.000000	63.642191 
4933.000000	63.926887 
4932.000000	64.209270 
4931.000000	64.481139 
4930.000000	64.730286 
4929.000000	64.938831 
4928.000000	65.087151 
4927.000000	65.157818 
4926.000000	65.142464 
4925.000000	65.044307 
4924.000000	64.880228 
4923.000000	64.676952 
4922.000000	64.466834 
4921.000000	64.280414 
4920.000000	64.139413 
4919.000000	64.054679 
4918.000000	64.026832 
4917.000000	64.048433 
4916.000000	64.109539 
4915.000000	64.199852 
4914.000000	64.309620 
4913.000000	64.432072 
4912.000000	64.563798 
4911.000000	64.700937 
4910.000000	64.834570 
4909.000000	64.953517 
4908.000000	65.044617 
4907.000000	65.096139 
4906.000000	65.100789 
4905.000000	65.059161 
4904.000000	64.980435 
4903.000000	64.882779 
4902.000000	64.789700 
4901.000000	64.724063 
4900.000000	64.702367 
4899.000000	64.731121 
4898.000000	64.804720 
4897.000000	64.906525 
4896.000000	65.013194 
4895.000000	65.100955 
4894.000000	65.151453 
4893.000000	65.155768 
4892.000000	65.116763 
4891.000000	65.046477 
4890.000000	64.963531 
4889.000000	64.887714 
4888.000000	64.834713 
4887.000000	64.812231 
4886.000000	64.818596 
4885.000000	64.845180 
4884.000000	64.878582 
4883.000000	64.906048 
4882.000000	64.918017 
4881.000000	64.910578 
4880.000000	64.886140 
4879.000000	64.851784 
4878.000000	64.817190 
4877.000000	64.790630 
4876.000000	64.779114 
4875.000000	64.786267 
4874.000000	64.812612 
4873.000000	64.855408 
4872.000000	64.909410 
4871.000000	64.967799 
4870.000000	65.022873 
4869.000000	65.067768 
4868.000000	65.097188 
4867.000000	65.108919 
4866.000000	65.103864 
4865.000000	65.086197 
4864.000000	65.062832 
4863.000000	65.041327 
4862.000000	65.028667 
4861.000000	65.029048 
4860.000000	65.043163 
4859.000000	65.067934 
4858.000000	65.098094 
4857.000000	65.127038 
4856.000000	65.148925 
4855.000000	65.159845 
4854.000000	65.159249 
4853.000000	65.148639 
4852.000000	65.130853 
4851.000000	65.108609 
4850.000000	65.083575 
4849.000000	65.056610 
4848.000000	65.027832 
4847.000000	64.997625 
4846.000000	64.966845 
4845.000000	64.936661 
4844.000000	64.907860 
4843.000000	64.880561 
4842.000000	64.853668 
4841.000000	64.824748 
4840.000000	64.791369 
4839.000000	64.751243 
4838.000000	64.704680 
4837.000000	64.654707 
4836.000000	64.607834 
4835.000000	64.572381 
4834.000000	64.556956 
4833.000000	64.567923 
4832.000000	64.607810 
4831.000000	64.673519 
4830.000000	64.757442 
4829.000000	64.848446 
4828.000000	64.934778 
4827.000000	65.006375 
4826.000000	65.057301 
4825.000000	65.086627 
4824.000000	65.097665 
4823.000000	65.096449 
4822.000000	65.090012 
4821.000000	65.084123 
4820.000000	65.082287 
4819.000000	65.085363 
4818.000000	65.092134 
4817.000000	65.100336 
4816.000000	65.108251 
4815.000000	65.115427 
4814.000000	65.122628 
4813.000000	65.131545 
4812.000000	65.144157 
4811.000000	65.161657 
4810.000000	65.183758 
4809.000000	65.208792 
4808.000000	65.234279 
4807.000000	65.257358 
4806.000000	65.275597 
4805.000000	65.287065 
4804.000000	65.291070 
4803.000000	65.287137 
4802.000000	65.275144 
4801.000000	65.254855 
4800.000000	65.225911 
4799.000000	65.188336 
4798.000000	65.143179 
4797.000000	65.092492 
4796.000000	65.039706 
4795.000000	64.988803 
4794.000000	64.943766 
4793.000000	64.907550 
4792.000000	64.881443 
4791.000000	64.864683 
4790.000000	64.855098 
4789.000000	64.849853 
4788.000000	64.846801 
4787.000000	64.845442 
4786.000000	64.847230 
4785.000000	64.854669 
4784.000000	64.870786 
4783.000000	64.897394 
4782.000000	64.934325 
4781.000000	64.978456 
4780.000000	65.024113 
4779.000000	65.064191 
4778.000000	65.091466 
4777.000000	65.100741 
4776.000000	65.089845 
4775.000000	65.060043 
4774.000000	65.016078 
4773.000000	64.964699 
4772.000000	64.914131 
4771.000000	64.872241 
4770.000000	64.846158 
4769.000000	64.841103 
4768.000000	64.860248 
4767.000000	64.904069 
4766.000000	64.970898 
4765.000000	65.056443 
4764.000000	65.153479 
4763.000000	65.252232 
4762.000000	65.341114 
4761.000000	65.408658 
4760.000000	65.445089 
4759.000000	65.444707 
4758.000000	65.407180 
4757.000000	65.338182 
4756.000000	65.249347 
4755.000000	65.155529 
4754.000000	65.072703 
4753.000000	65.013432 
4752.000000	64.985704 
4751.000000	64.990282 
4750.000000	65.021228 
4749.000000	65.067577 
4748.000000	65.116286 
4747.000000	65.155768 
4746.000000	65.177869 
4745.000000	65.180611 
4744.000000	65.167546 
4743.000000	65.147018 
4742.000000	65.129184 
4741.000000	65.123820 
4740.000000	65.137171 
4739.000000	65.171408 
4738.000000	65.223526 
4737.000000	65.286374 
4736.000000	65.349674 
4735.000000	65.402626 
4734.000000	65.435695 
4733.000000	65.442276 
4732.000000	65.420031 
4731.000000	65.370225 
4730.000000	65.297794 
4729.000000	65.210533 
4728.000000	65.117383 
4727.000000	65.027308 
4726.000000	64.947605 
4725.000000	64.883518 
4724.000000	64.837455 
4723.000000	64.809393 
4722.000000	64.797234 
4721.000000	64.797210 
4720.000000	64.805650 
4719.000000	64.819288 
4718.000000	64.836621 
4717.000000	64.857268 
4716.000000	64.882421 
4715.000000	64.913392 
4714.000000	64.951705 
4713.000000	64.997863 
4712.000000	65.050935 
4711.000000	65.108346 
4710.000000	65.165734 
4709.000000	65.217518 
4708.000000	65.258359 
4707.000000	65.283775 
4706.000000	65.291380 
4705.000000	65.280795 
4704.000000	65.254163 
4703.000000	65.215110 
4702.000000	65.167856 
4701.000000	65.116620 
4700.000000	65.064930 
4699.000000	65.015721 
4698.000000	64.971470 
4697.000000	64.934659 
4696.000000	64.908528 
4695.000000	64.896202 
4694.000000	64.900207 
4693.000000	64.921712 
4692.000000	64.959740 
4691.000000	65.011358 
4690.000000	65.071344 
4689.000000	65.133571 
4688.000000	65.191507 
4687.000000	65.240716 
4686.000000	65.279531 
4685.000000	65.309119 
4684.000000	65.332698 
4683.000000	65.354442 
4682.000000	65.377950 
4681.000000	65.404796 
4680.000000	65.433883 
4679.000000	65.462636 
4678.000000	65.487074 
4677.000000	65.503764 
4676.000000	65.510082 
4675.000000	65.505313 
4674.000000	65.490508 
4673.000000	65.467977 
4672.000000	65.441203 
4671.000000	65.413928 
4670.000000	65.389871 
4669.000000	65.372872 
4668.000000	65.365314 
4667.000000	65.367817 
4666.000000	65.378546 
4665.000000	65.394139 
4664.000000	65.408873 
4663.000000	65.415835 
4662.000000	65.408086 
4661.000000	65.380144 
4660.000000	65.329551 
4659.000000	65.258073 
4658.000000	65.171194 
4657.000000	65.077304 
4656.000000	64.986515 
4655.000000	64.908409 
4654.000000	64.849567 
4653.000000	64.812803 
4652.000000	64.796900 
4651.000000	64.797568 
4650.000000	64.808464 
4649.000000	64.823579 
4648.000000	64.837956 
4647.000000	64.849948 
4646.000000	64.859628 
4645.000000	64.870452 
4644.000000	64.886856 
4643.000000	64.914155 
4642.000000	64.956116 
4641.000000	65.014433 
4640.000000	65.088009 
4639.000000	65.172529 
4638.000000	65.261912 
4637.000000	65.348005 
4636.000000	65.422463 
4635.000000	65.477466 
4634.000000	65.507245 
4633.000000	65.508341 
4632.000000	65.480399 
4631.000000	65.425896 
4630.000000	65.350246 
4629.000000	65.260767 
4628.000000	65.165901 
4627.000000	65.074706 
4626.000000	64.995574 
4625.000000	64.934992 
4624.000000	64.896845 
4623.000000	64.882612 
4622.000000	64.890503 
4621.000000	64.915728 
4620.000000	64.951419 
4619.000000	64.989376 
4618.000000	65.022134 
4617.000000	65.043520 
4616.000000	65.050816 
4615.000000	65.043878 
4614.000000	65.026116 
4613.000000	65.003275 
4612.000000	64.982199 
4611.000000	64.968967 
4610.000000	64.967584 
4609.000000	64.979052 
4608.000000	65.000844 
4607.000000	65.027880 
4606.000000	65.053772 
4605.000000	65.072679 
4604.000000	65.080356 
4603.000000	65.075421 
4602.000000	65.059542 
4601.000000	65.036988 
4600.000000	65.013480 
4599.000000	64.994692 
4598.000000	64.984965 
4597.000000	64.986181 
4596.000000	64.998054 
4595.000000	65.017771 
4594.000000	65.040898 
4593.000000	65.062379 
4592.000000	65.077686 
4591.000000	65.083670 
4590.000000	65.079164 
4589.000000	65.065193 
4588.000000	65.044260 
4587.000000	65.020108 
4586.000000	64.997005 
4585.000000	64.978885 
4584.000000	64.968562 
4583.000000	64.967179 
4582.000000	64.974355 
4581.000000	64.988231 
4580.000000	65.005970 
4579.000000	65.024375 
4578.000000	65.040588 
4577.000000	65.052509 
4576.000000	65.059041 
4575.000000	65.060257 
4574.000000	65.056967 
4573.000000	65.050506 
4572.000000	65.041947 
4571.000000	65.031981 
4570.000000	65.020394 
4569.000000	65.006875 
4568.000000	64.990615 
4567.000000	64.970993 
4566.000000	64.947581 
4565.000000	64.920544 
4564.000000	64.890432 
4563.000000	64.858198 
4562.000000	64.824986 
4561.000000	64.791846 
4560.000000	64.759874 
4559.000000	64.730024 
4558.000000	64.703249 
4557.000000	64.680576 
4556.000000	64.662671 
4555.000000	64.649844 
4554.000000	64.641523 
4553.000000	64.636182 
4552.000000	64.631319 
4551.000000	64.624023 
4550.000000	64.611363 
4549.000000	64.591360 
4548.000000	64.564132 
4547.000000	64.532113 
4546.000000	64.499878 
4545.000000	64.472913 
4544.000000	64.455890 
4543.000000	64.451265 
4542.000000	64.458179 
4541.000000	64.472866 
4540.000000	64.489531 
4539.000000	64.502406 
4538.000000	64.506912 
4537.000000	64.501523 
4536.000000	64.487981 
4535.000000	64.471173 
4534.000000	64.457225 
4533.000000	64.452195 
4532.000000	64.460349 
4531.000000	64.482760 
4530.000000	64.517116 
4529.000000	64.557361 
4528.000000	64.595270 
4527.000000	64.621853 
4526.000000	64.629817 
4525.000000	64.615035 
4524.000000	64.577627 
4523.000000	64.522314 
4522.000000	64.457654 
4521.000000	64.394903 
4520.000000	64.345598 
4519.000000	64.319205 
4518.000000	64.320683 
4517.000000	64.349555 
4516.000000	64.399147 
4515.000000	64.458370 
4514.000000	64.513611 
4513.000000	64.551806 
4512.000000	64.563250 
4511.000000	64.543390 
4510.000000	64.493680 
4509.000000	64.420461 
4508.000000	64.333820 
4507.000000	64.244484 
4506.000000	64.162564 
4505.000000	64.095473 
4504.000000	64.047479 
4503.000000	64.020037 
4502.000000	64.011812 
4501.000000	64.019966 
4500.000000	64.040327 
4499.000000	64.068341 
4498.000000	64.098453 
4497.000000	64.124608 
4496.000000	64.140605 
4495.000000	64.141082 
4494.000000	64.121675 
4493.000000	64.080357 
4492.000000	64.019227 
4491.000000	63.944149 
4490.000000	63.862848 
4489.000000	63.783764 
4488.000000	63.716030 
4487.000000	63.666415 
4486.000000	63.637638 
4485.000000	63.628530 
4484.000000	63.631939 
4483.000000	63.640069 
4482.000000	63.648700 
4481.000000	63.656568 
4480.000000	63.664388 
4479.000000	63.675022 
4478.000000	63.689732 
4477.000000	63.710260 
4476.000000	63.740015 
4475.000000	63.778495 
4474.000000	63.817548 
4473.000000	63.854265 
4472.000000	63.894677 
4471.000000	63.942933 
4470.000000	64.000463 
4469.000000	64.067244 
4468.000000	64.143109 
4467.000000	64.233088 
4466.000000	64.347529 
4465.000000	64.501285 
4464.000000	64.707136 
4463.000000	64.976620 
4462.000000	65.306162 
4461.000000	65.674471 
4460.000000	66.035771 
4459.000000	66.336655 
4458.000000	66.512346 
4457.000000	66.502952 
4456.000000	66.264820 
4455.000000	65.770339 
4454.000000	65.043044 
4453.000000	64.135217 
4452.000000	63.174462 
4451.000000	62.335848 
4450.000000	61.838650 
4449.000000	61.896491 
4448.000000	62.677097 
4447.000000	64.255404 
4446.000000	66.577100 
4445.000000	69.453167 
4444.000000	72.581100 
4443.000000	75.595808 
4442.000000	78.133869 
4441.000000	79.899978 
4440.000000	80.719494 
4439.000000	80.560445 
4438.000000	79.534292 
4437.000000	77.854490 
4436.000000	75.786805 
4435.000000	73.589444 
4434.000000	71.482706 
4433.000000	69.612193 
4432.000000	68.073749 
4431.000000	66.895055 
4430.000000	66.085910 
4429.000000	65.617847 
4428.000000	65.439057 
4427.000000	65.479516 
4426.000000	65.631461 
4425.000000	65.800213 
4424.000000	65.900325 
4423.000000	65.890741 
4422.000000	65.770268 
4421.000000	65.574669 
4420.000000	65.354752 
4419.000000	65.158486 
4418.000000	65.009260 
4417.000000	64.912557 
4416.000000	64.855933 
4415.000000	64.822149 
4414.000000	64.796495 
4413.000000	64.774489 
4412.000000	64.762544 
4411.000000	64.761018 
4410.000000	64.766788 
4409.000000	64.777636 
4408.000000	64.790320 
4407.000000	64.801383 
4406.000000	64.807009 
4405.000000	64.800214 
4404.000000	64.774870 
4403.000000	64.733600 
4402.000000	64.681077 
4401.000000	64.618110 
4400.000000	64.545869 
4399.000000	64.469742 
4398.000000	64.393663 
4397.000000	64.317774 
4396.000000	64.242601 
4395.000000	64.169478 
4394.000000	64.102363 
4393.000000	64.047718 
4392.000000	64.013910 
4391.000000	64.008831 
4390.000000	64.038562 
4389.000000	64.104771 
4388.000000	64.204001 
4387.000000	64.327025 
4386.000000	64.458823 
4385.000000	64.581131 
4384.000000	64.676237 
4383.000000	64.730691 
4382.000000	64.737606 
4381.000000	64.698576 
4380.000000	64.623570 
4379.000000	64.528250 
4378.000000	64.430570 
4377.000000	64.346361 
4376.000000	64.287209 
4375.000000	64.257621 
4374.000000	64.255905 
4373.000000	64.274883 
4372.000000	64.305520 
4371.000000	64.338612 
4370.000000	64.367341 
4369.000000	64.388203 
4368.000000	64.401030 
4367.000000	64.407825 
4366.000000	64.410805 
4365.000000	64.411902 
4364.000000	64.411377 
4363.000000	64.408612 
4362.000000	64.402389 
4361.000000	64.392328 
4360.000000	64.379954 
4359.000000	64.368677 
4358.000000	64.363598 
4357.000000	64.370155 
4356.000000	64.392924 
4355.000000	64.434170 
4354.000000	64.493060 
4353.000000	64.565205 
4352.000000	64.643383 
4351.000000	64.719295 
4350.000000	64.784622 
4349.000000	64.832878 
4348.000000	64.860391 
4347.000000	64.866924 
4346.000000	64.855337 
4345.000000	64.831256 
4344.000000	64.801144 
4343.000000	64.770960 
4342.000000	64.744973 
4341.000000	64.725828 
4340.000000	64.713597 
4339.000000	64.706826 
4338.000000	64.703035 
4337.000000	64.699816 
4336.000000	64.695620 
4335.000000	64.690303 
4334.000000	64.685153 
4333.000000	64.682626 
4332.000000	64.685821 
4331.000000	64.697766 
4330.000000	64.720582 
4329.000000	64.754629 
4328.000000	64.798927 
4327.000000	64.850187 
4326.000000	64.903759 
4325.000000	64.953589 
4324.000000	64.993762 
4323.000000	65.018963 
4322.000000	65.025377 
4321.000000	65.011739 
4320.000000	64.979648 
4319.000000	64.933776 
4318.000000	64.880704 
4317.000000	64.828562 
4316.000000	64.785671 
4315.000000	64.758825 
4314.000000	64.752554 
4313.000000	64.768004 
4312.000000	64.803075 
4311.000000	64.852857 
4310.000000	64.910674 
4309.000000	64.969420 
4308.000000	65.022850 
4307.000000	65.066337 
4306.000000	65.097284 
4305.000000	65.114927 
4304.000000	65.119743 
4303.000000	65.112757 
4302.000000	65.095043 
4301.000000	65.067601 
4300.000000	65.031313 
4299.000000	64.987611 
4298.000000	64.938473 
4297.000000	64.887094 
4296.000000	64.837288 
4295.000000	64.793324 
4294.000000	64.759039 
4293.000000	64.736962 
4292.000000	64.727807 
4291.000000	64.730048 
4290.000000	64.740276 
4289.000000	64.753842 
4288.000000	64.765930 
4287.000000	64.772605 
4286.000000	64.771413 
4285.000000	64.761543 
4284.000000	64.744138 
4283.000000	64.721751 
4282.000000	64.697837 
4281.000000	64.675831 
4280.000000	64.658665 
4279.000000	64.647912 
4278.000000	64.643621 
4277.000000	64.644384 
4276.000000	64.647436 
4275.000000	64.649796 
4274.000000	64.649105 
4273.000000	64.644670 
4272.000000	64.637160 
4271.000000	64.629149 
4270.000000	64.623832 
4269.000000	64.624667 
4268.000000	64.633893 
4267.000000	64.652371 
4266.000000	64.679098 
4265.000000	64.711785 
4264.000000	64.747476 
4263.000000	64.783430 
4262.000000	64.817738 
4261.000000	64.849734 
4260.000000	64.879965 
4259.000000	64.909124 
4258.000000	64.937663 
4257.000000	64.965081 
4256.000000	64.989781 
4255.000000	65.009617 
4254.000000	65.022635 
4253.000000	65.027856 
4252.000000	65.025925 
4251.000000	65.018630 
4250.000000	65.008544 
4249.000000	64.998435 
4248.000000	64.990282 
4247.000000	64.984774 
4246.000000	64.981198 
4245.000000	64.977836 
4244.000000	64.972305 
4243.000000	64.962530 
4242.000000	64.947342 
4241.000000	64.926958 
4240.000000	64.903044 
4239.000000	64.878296 
4238.000000	64.856028 
4237.000000	64.839482 
4236.000000	64.831018 
4235.000000	64.831757 
4234.000000	64.841079 
4233.000000	64.856719 
4232.000000	64.875221 
4231.000000	64.892697 
4230.000000	64.905500 
4229.000000	64.910936 
4228.000000	64.908123 
4227.000000	64.898395 
4226.000000	64.884805 
4225.000000	64.871549 
4224.000000	64.862775 
4223.000000	64.861416 
4222.000000	64.868402 
4221.000000	64.882445 
4220.000000	64.900088 
4219.000000	64.917135 
4218.000000	64.929723 
4217.000000	64.936041 
4216.000000	64.936566 
4215.000000	64.934349 
4214.000000	64.934468 
4213.000000	64.941954 
4212.000000	64.960741 
4211.000000	64.991474 
4210.000000	65.031576 
4209.000000	65.074872 
4208.000000	65.113377 
4207.000000	65.138673 
4206.000000	65.144515 
4205.000000	65.128064 
4204.000000	65.090656 
4203.000000	65.037465 
4202.000000	64.976453 
4201.000000	64.916396 
4200.000000	64.864993 
4199.000000	64.827513 
4198.000000	64.805960 
4197.000000	64.799594 
4196.000000	64.805936 
4195.000000	64.821505 
4194.000000	64.843201 
4193.000000	64.869070 
4192.000000	64.898753 
4191.000000	64.932203 
4190.000000	64.969754 
4189.000000	65.011167 
4188.000000	65.055251 
4187.000000	65.099644 
4186.000000	65.141081 
4185.000000	65.176200 
4184.000000	65.202212 
4183.000000	65.217614 
4182.000000	65.222620 
4181.000000	65.219140 
4180.000000	65.210366 
4179.000000	65.200185 
4178.000000	65.192413 
4177.000000	65.190196 
4176.000000	65.195012 
4175.000000	65.206623 
4174.000000	65.223145 
4173.000000	65.241312 
4172.000000	65.257215 
4171.000000	65.266990 
4170.000000	65.267395 
4169.000000	65.256404 
4168.000000	65.233469 
4167.000000	65.199851 
4166.000000	65.157818 
4165.000000	65.110611 
4164.000000	65.061688 
4163.000000	65.014553 
4162.000000	64.972138 
4161.000000	64.936828 
4160.000000	64.910387 
4159.000000	64.893913 
