PE IR       SPECTRUM    SPECTRUM    ASCII       PEDS        1.60        
  -1
BZ69A1~1.ASC
17/04/07
14:06:39.00
17/04/07
14:06:39.00
tln
$BZ1503107-1_t0011$<tbV0>[-13.0,-13.0,8.0,0.0,27,1,0]
370.000000
64









2002,4.07    
MIRTGS : RIGHTBACK : INTERNAL 2
MIR : ON : INTERNAL 2
OPTKBR

0.200000
8
8.000000
FILLER
RATIO
SPECTRUM
UNLOCKED 256

DOUBLE
64
COMBINED
1
0
0


1.000000
RATIO


1
0
TRUE
51149
0
LEFT NOT FITTED RIGHT NOT FITTED 0
NONE
NONE
15600
12.000000
4.427000
51148
TRUE
1 0 8 72 0 0 0 0 

15798.010000






#HDR
-1
-1
#GR
CM-1
%T
0.00002384185791015625
0.0
5000.000000
-1.000000
4631
8
92.815923
61.612534
#DATA
5000.000000	65.127253 
4999.000000	64.932727 
4998.000000	64.742875 
4997.000000	64.586305 
4996.000000	64.484882 
4995.000000	64.452624 
4994.000000	64.488267 
4993.000000	64.578437 
4992.000000	64.695429 
4991.000000	64.804458 
4990.000000	64.869165 
4989.000000	64.858603 
4988.000000	64.756822 
4987.000000	64.566230 
4986.000000	64.308881 
4985.000000	64.021015 
4984.000000	63.748335 
4983.000000	63.536071 
4982.000000	63.418436 
4981.000000	63.411998 
4980.000000	63.514018 
4979.000000	63.704538 
4978.000000	63.951158 
4977.000000	64.218425 
4976.000000	64.474749 
4975.000000	64.699959 
4974.000000	64.886808 
4973.000000	65.040040 
4972.000000	65.169906 
4971.000000	65.286636 
4970.000000	65.396857 
4969.000000	65.497446 
4968.000000	65.577626 
4967.000000	65.619468 
4966.000000	65.608358 
4965.000000	65.532708 
4964.000000	65.391635 
4963.000000	65.193271 
4962.000000	64.956402 
4961.000000	64.703178 
4960.000000	64.455652 
4959.000000	64.228749 
4958.000000	64.028358 
4957.000000	63.851451 
4956.000000	63.689804 
4955.000000	63.533043 
4954.000000	63.375139 
4953.000000	63.217353 
4952.000000	63.072204 
4951.000000	62.959694 
4950.000000	62.906241 
4949.000000	62.936496 
4948.000000	63.069295 
4947.000000	63.310050 
4946.000000	63.649034 
4945.000000	64.061093 
4944.000000	64.508700 
4943.000000	64.947104 
4942.000000	65.332865 
4941.000000	65.631270 
4940.000000	65.822005 
4939.000000	65.902161 
4938.000000	65.883731 
4937.000000	65.790748 
4936.000000	65.650486 
4935.000000	65.490436 
4934.000000	65.328097 
4933.000000	65.171337 
4932.000000	65.016198 
4931.000000	64.853572 
4930.000000	64.671421 
4929.000000	64.462280 
4928.000000	64.227581 
4927.000000	63.980722 
4926.000000	63.743495 
4925.000000	63.543581 
4924.000000	63.407874 
4923.000000	63.357424 
4922.000000	63.401603 
4921.000000	63.536667 
4920.000000	63.745164 
4919.000000	64.000082 
4918.000000	64.268660 
4917.000000	64.520025 
4916.000000	64.728021 
4915.000000	64.877891 
4914.000000	64.966702 
4913.000000	65.002775 
4912.000000	65.001058 
4911.000000	64.979004 
4910.000000	64.953327 
4909.000000	64.933490 
4908.000000	64.921617 
4907.000000	64.911389 
4906.000000	64.892745 
4905.000000	64.855003 
4904.000000	64.792346 
4903.000000	64.706659 
4902.000000	64.608693 
4901.000000	64.516735 
4900.000000	64.452362 
4899.000000	64.434003 
4898.000000	64.471983 
4897.000000	64.565777 
4896.000000	64.703750 
4895.000000	64.865636 
4894.000000	65.027832 
4893.000000	65.169644 
4892.000000	65.277504 
4891.000000	65.346598 
4890.000000	65.381193 
4889.000000	65.391039 
4888.000000	65.388679 
4887.000000	65.385723 
4886.000000	65.389204 
4885.000000	65.400743 
4884.000000	65.416145 
4883.000000	65.430092 
4882.000000	65.435266 
4881.000000	65.426826 
4880.000000	65.401077 
4879.000000	65.356802 
4878.000000	65.294814 
4877.000000	65.217781 
4876.000000	65.130281 
4875.000000	65.038204 
4874.000000	64.949464 
4873.000000	64.873051 
4872.000000	64.817428 
4871.000000	64.789223 
4870.000000	64.791369 
4869.000000	64.822888 
4868.000000	64.879107 
4867.000000	64.952540 
4866.000000	65.034198 
4865.000000	65.115237 
4864.000000	65.188813 
4863.000000	65.249776 
4862.000000	65.294122 
4861.000000	65.319013 
4860.000000	65.323042 
4859.000000	65.305900 
4858.000000	65.267825 
4857.000000	65.211486 
4856.000000	65.142273 
4855.000000	65.068984 
4854.000000	65.002942 
4853.000000	64.956521 
4852.000000	64.940714 
4851.000000	64.962553 
4850.000000	65.023183 
4849.000000	65.117478 
4848.000000	65.234780 
4847.000000	65.361499 
4846.000000	65.483474 
4845.000000	65.587854 
4844.000000	65.664768 
4843.000000	65.709209 
4842.000000	65.720367 
4841.000000	65.700960 
4840.000000	65.655088 
4839.000000	65.588021 
4838.000000	65.503644 
4837.000000	65.404915 
4836.000000	65.293622 
4835.000000	65.172910 
4834.000000	65.047144 
4833.000000	64.922904 
4832.000000	64.808440 
4831.000000	64.713096 
4830.000000	64.644622 
4829.000000	64.607143 
4828.000000	64.599585 
4827.000000	64.614820 
4826.000000	64.642262 
4825.000000	64.669680 
4824.000000	64.688038 
4823.000000	64.693164 
4822.000000	64.689469 
4821.000000	64.688181 
4820.000000	64.704847 
4819.000000	64.753961 
4818.000000	64.843273 
4817.000000	64.970159 
4816.000000	65.119600 
4815.000000	65.268039 
4814.000000	65.389561 
4813.000000	65.464067 
4812.000000	65.482163 
4811.000000	65.450024 
4810.000000	65.388584 
4809.000000	65.328502 
4808.000000	65.302538 
4807.000000	65.335988 
4806.000000	65.440487 
4805.000000	65.609288 
4804.000000	65.820789 
4803.000000	66.041207 
4802.000000	66.234517 
4801.000000	66.369295 
4800.000000	66.427278 
4799.000000	66.405701 
4798.000000	66.317033 
4797.000000	66.185045 
4796.000000	66.037893 
4795.000000	65.902447 
4794.000000	65.797996 
4793.000000	65.734505 
4792.000000	65.711498 
4791.000000	65.719342 
4790.000000	65.742206 
4789.000000	65.762543 
4788.000000	65.765070 
4787.000000	65.738654 
4786.000000	65.679550 
4785.000000	65.589046 
4784.000000	65.475535 
4783.000000	65.351724 
4782.000000	65.233397 
4781.000000	65.135431 
4780.000000	65.069055 
4779.000000	65.041136 
4778.000000	65.050458 
4777.000000	65.089225 
4776.000000	65.142560 
4775.000000	65.191936 
4774.000000	65.218567 
4773.000000	65.206670 
4772.000000	65.148711 
4771.000000	65.046668 
4770.000000	64.913296 
4769.000000	64.768862 
4768.000000	64.640116 
4767.000000	64.554142 
4766.000000	64.533829 
4765.000000	64.591979 
4764.000000	64.728069 
4763.000000	64.926981 
4762.000000	65.162086 
4761.000000	65.399765 
4760.000000	65.605306 
4759.000000	65.749716 
4758.000000	65.814518 
4757.000000	65.795564 
4756.000000	65.702342 
4755.000000	65.555524 
4754.000000	65.381789 
4753.000000	65.208077 
4752.000000	65.056943 
4751.000000	64.942193 
4750.000000	64.869832 
4749.000000	64.836573 
4748.000000	64.833831 
4747.000000	64.850068 
4746.000000	64.874911 
4745.000000	64.900326 
4744.000000	64.921283 
4743.000000	64.936113 
4742.000000	64.944863 
4741.000000	64.949512 
4740.000000	64.952373 
4739.000000	64.956116 
4738.000000	64.962649 
4737.000000	64.973235 
4736.000000	64.987564 
4735.000000	65.004348 
4734.000000	65.020728 
4733.000000	65.032577 
4732.000000	65.034770 
4731.000000	65.022230 
4730.000000	64.990854 
4729.000000	64.939332 
4728.000000	64.869332 
4727.000000	64.784979 
4726.000000	64.693164 
4725.000000	64.601802 
4724.000000	64.519548 
4723.000000	64.454078 
4722.000000	64.411830 
4721.000000	64.396619 
4720.000000	64.410138 
4719.000000	64.452457 
4718.000000	64.520668 
4717.000000	64.609050 
4716.000000	64.708900 
4715.000000	64.809584 
4714.000000	64.899611 
4713.000000	64.968395 
4712.000000	65.008091 
4711.000000	65.015029 
4710.000000	64.991211 
4709.000000	64.943718 
4708.000000	64.883708 
4707.000000	64.823818 
4706.000000	64.775800 
4705.000000	64.747738 
4704.000000	64.742827 
4703.000000	64.758825 
4702.000000	64.789628 
4701.000000	64.827036 
4700.000000	64.863204 
4699.000000	64.892601 
4698.000000	64.912724 
4697.000000	64.924836 
4696.000000	64.932203 
4695.000000	64.939904 
4694.000000	64.952421 
4693.000000	64.972901 
4692.000000	65.002369 
4691.000000	65.039181 
4690.000000	65.079927 
4689.000000	65.119600 
4688.000000	65.153241 
4687.000000	65.176296 
4686.000000	65.185809 
4685.000000	65.180373 
4684.000000	65.160202 
4683.000000	65.127372 
4682.000000	65.085315 
4681.000000	65.038084 
4680.000000	64.989852 
4679.000000	64.944291 
4678.000000	64.904236 
4677.000000	64.871740 
4676.000000	64.848041 
4675.000000	64.833712 
4674.000000	64.828920 
4673.000000	64.833474 
4672.000000	64.846515 
4671.000000	64.866447 
4670.000000	64.890456 
4669.000000	64.914274 
4668.000000	64.933133 
4667.000000	64.942765 
4666.000000	64.939975 
4665.000000	64.923191 
4664.000000	64.893293 
4663.000000	64.853525 
4662.000000	64.808440 
4661.000000	64.763116 
4660.000000	64.721679 
4659.000000	64.686822 
4658.000000	64.659428 
4657.000000	64.638924 
4656.000000	64.624428 
4655.000000	64.615678 
4654.000000	64.613509 
4653.000000	64.620018 
4652.000000	64.637708 
4651.000000	64.668369 
4650.000000	64.711856 
4649.000000	64.765024 
4648.000000	64.821791 
4647.000000	64.873933 
4646.000000	64.913058 
4645.000000	64.931845 
4644.000000	64.926123 
4643.000000	64.895367 
4642.000000	64.843463 
4641.000000	64.777064 
4640.000000	64.704203 
4639.000000	64.632439 
4638.000000	64.567422 
4637.000000	64.512467 
4636.000000	64.468979 
4635.000000	64.436650 
4634.000000	64.414525 
4633.000000	64.401626 
4632.000000	64.397215 
4631.000000	64.400625 
4630.000000	64.411091 
4629.000000	64.427065 
4628.000000	64.446163 
4627.000000	64.464998 
4626.000000	64.480090 
4625.000000	64.487862 
4624.000000	64.486074 
4623.000000	64.474129 
4622.000000	64.453721 
4621.000000	64.428591 
4620.000000	64.404392 
4619.000000	64.387106 
4618.000000	64.382076 
4617.000000	64.393210 
4616.000000	64.421010 
4615.000000	64.462852 
4614.000000	64.512300 
4613.000000	64.560508 
4612.000000	64.597582 
4611.000000	64.614391 
4610.000000	64.605355 
4609.000000	64.569473 
4608.000000	64.511561 
4607.000000	64.441370 
4606.000000	64.371061 
4605.000000	64.312458 
4604.000000	64.274668 
4603.000000	64.262056 
4602.000000	64.274024 
4601.000000	64.305400 
4600.000000	64.348101 
4599.000000	64.393329 
4598.000000	64.433288 
4597.000000	64.462924 
4596.000000	64.479732 
4595.000000	64.484190 
4594.000000	64.478850 
4593.000000	64.466929 
4592.000000	64.451384 
4591.000000	64.433503 
4590.000000	64.413785 
4589.000000	64.390921 
4588.000000	64.363336 
4587.000000	64.329361 
4586.000000	64.288401 
4585.000000	64.241504 
4584.000000	64.191150 
4583.000000	64.141774 
4582.000000	64.098882 
4581.000000	64.067864 
4580.000000	64.052820 
4579.000000	64.054846 
4578.000000	64.071822 
4577.000000	64.098358 
4576.000000	64.127111 
4575.000000	64.150595 
4574.000000	64.162755 
4573.000000	64.161181 
4572.000000	64.146852 
4571.000000	64.123630 
4570.000000	64.096379 
4569.000000	64.069676 
4568.000000	64.045810 
4567.000000	64.024233 
4566.000000	64.001417 
4565.000000	63.972902 
4564.000000	63.934206 
4563.000000	63.882899 
4562.000000	63.819384 
4561.000000	63.747119 
4560.000000	63.671851 
4559.000000	63.599872 
4558.000000	63.537383 
4557.000000	63.488197 
4556.000000	63.454866 
4555.000000	63.438272 
4554.000000	63.438344 
4553.000000	63.454413 
4552.000000	63.485145 
4551.000000	63.528490 
4550.000000	63.580989 
4549.000000	63.637828 
4548.000000	63.692808 
4547.000000	63.739895 
4546.000000	63.774061 
4545.000000	63.793373 
4544.000000	63.800024 
4543.000000	63.799953 
4542.000000	63.802289 
4541.000000	63.816022 
4540.000000	63.847851 
4539.000000	63.899159 
4538.000000	63.966083 
4537.000000	64.039158 
4536.000000	64.106297 
4535.000000	64.154791 
4534.000000	64.176201 
4533.000000	64.166116 
4532.000000	64.125370 
4531.000000	64.058923 
4530.000000	63.974881 
4529.000000	63.882136 
4528.000000	63.788056 
4527.000000	63.698935 
4526.000000	63.620233 
4525.000000	63.554906 
4524.000000	63.503789 
4523.000000	63.468170 
4522.000000	63.449883 
4521.000000	63.449120 
4520.000000	63.464641 
4519.000000	63.493418 
4518.000000	63.531374 
4517.000000	63.573074 
4516.000000	63.613176 
4515.000000	63.647747 
4514.000000	63.674569 
4513.000000	63.691234 
4512.000000	63.697385 
4511.000000	63.693785 
4510.000000	63.683915 
4509.000000	63.674187 
4508.000000	63.671875 
4507.000000	63.682603 
4506.000000	63.710331 
4505.000000	63.756656 
4504.000000	63.820743 
4503.000000	63.896131 
4502.000000	63.980913 
4501.000000	64.078164 
4500.000000	64.198851 
4499.000000	64.358329 
4498.000000	64.576172 
4497.000000	64.869260 
4496.000000	65.243172 
4495.000000	65.687322 
4494.000000	66.171813 
4493.000000	66.653442 
4492.000000	67.082619 
4491.000000	67.418074 
4490.000000	67.640233 
4489.000000	67.755532 
4488.000000	67.801713 
4487.000000	67.828702 
4486.000000	67.888593 
4485.000000	68.009686 
4484.000000	68.192267 
4483.000000	68.397569 
4482.000000	68.563318 
4481.000000	68.612742 
4480.000000	68.488049 
4479.000000	68.154525 
4478.000000	67.612838 
4477.000000	66.901493 
4476.000000	66.095161 
4475.000000	65.277957 
4474.000000	64.522910 
4473.000000	63.882970 
4472.000000	63.384389 
4471.000000	63.021135 
4470.000000	62.763094 
4469.000000	62.572407 
4468.000000	62.418007 
4467.000000	62.281727 
4466.000000	62.165737 
4465.000000	62.081456 
4464.000000	62.047934 
4463.000000	62.089037 
4462.000000	62.221169 
4461.000000	62.436246 
4460.000000	62.706089 
4459.000000	62.983703 
4458.000000	63.223862 
4457.000000	63.374733 
4456.000000	63.424944 
4455.000000	63.401532 
4454.000000	63.388943 
4453.000000	63.498902 
4452.000000	63.863658 
4451.000000	64.593768 
4450.000000	65.756583 
4449.000000	67.344808 
4448.000000	69.285631 
4447.000000	71.448516 
4446.000000	73.676323 
4445.000000	75.814127 
4444.000000	77.735710 
4443.000000	79.356408 
4442.000000	80.637383 
4441.000000	81.569862 
4440.000000	82.150268 
4439.000000	82.359457 
4438.000000	82.169127 
4437.000000	81.538963 
4436.000000	80.450487 
4435.000000	78.912019 
4434.000000	77.001976 
4433.000000	74.845242 
4432.000000	72.613763 
4431.000000	70.485281 
4430.000000	68.614530 
4429.000000	67.106533 
4428.000000	66.002535 
4427.000000	65.282988 
4426.000000	64.875364 
4425.000000	64.686250 
4424.000000	64.621853 
4423.000000	64.610695 
4422.000000	64.600396 
4421.000000	64.572596 
4420.000000	64.525103 
4419.000000	64.467310 
4418.000000	64.398717 
4417.000000	64.322257 
4416.000000	64.239192 
4415.000000	64.151501 
4414.000000	64.061546 
4413.000000	63.981056 
4412.000000	63.926863 
4411.000000	63.908457 
4410.000000	63.926434 
4409.000000	63.972854 
4408.000000	64.032077 
4407.000000	64.085865 
4406.000000	64.117145 
4405.000000	64.110970 
4404.000000	64.061141 
4403.000000	63.974356 
4402.000000	63.866806 
4401.000000	63.753247 
4400.000000	63.651561 
4399.000000	63.583254 
4398.000000	63.563346 
4397.000000	63.593316 
4396.000000	63.666796 
4395.000000	63.774275 
4394.000000	63.899993 
4393.000000	64.025402 
4392.000000	64.132499 
4391.000000	64.206981 
4390.000000	64.240002 
4389.000000	64.229106 
4388.000000	64.179158 
4387.000000	64.100217 
4386.000000	64.004468 
4385.000000	63.902950 
4384.000000	63.804292 
4383.000000	63.712763 
4382.000000	63.628339 
4381.000000	63.548064 
4380.000000	63.468480 
4379.000000	63.388347 
4378.000000	63.309311 
4377.000000	63.237714 
4376.000000	63.181757 
4375.000000	63.151359 
4374.000000	63.154268 
4373.000000	63.194894 
4372.000000	63.271164 
4371.000000	63.375735 
4370.000000	63.496327 
4369.000000	63.619112 
4368.000000	63.730883 
4367.000000	63.822436 
4366.000000	63.889288 
4365.000000	63.933300 
4364.000000	63.960814 
4363.000000	63.981604 
4362.000000	64.005756 
4361.000000	64.041614 
4360.000000	64.093494 
4359.000000	64.161467 
4358.000000	64.240789 
4357.000000	64.324021 
4356.000000	64.401745 
4355.000000	64.464521 
4354.000000	64.504218 
4353.000000	64.516210 
4352.000000	64.499735 
4351.000000	64.458179 
4350.000000	64.397978 
4349.000000	64.328455 
4348.000000	64.258813 
4347.000000	64.196610 
4346.000000	64.146375 
4345.000000	64.109539 
4344.000000	64.084696 
4343.000000	64.068818 
4342.000000	64.058732 
4341.000000	64.052677 
4340.000000	64.050531 
4339.000000	64.053726 
4338.000000	64.064335 
4337.000000	64.083552 
4336.000000	64.111709 
4335.000000	64.147591 
4334.000000	64.188551 
4333.000000	64.230799 
4332.000000	64.270949 
4331.000000	64.306354 
4330.000000	64.335465 
4329.000000	64.357542 
4328.000000	64.372730 
4327.000000	64.381456 
4326.000000	64.383482 
4325.000000	64.378786 
4324.000000	64.367961 
4323.000000	64.352726 
4322.000000	64.336133 
4321.000000	64.322805 
4320.000000	64.318084 
4319.000000	64.327216 
4318.000000	64.353966 
4317.000000	64.399766 
4316.000000	64.462518 
4315.000000	64.537644 
4314.000000	64.618849 
4313.000000	64.699602 
4312.000000	64.774250 
4311.000000	64.839196 
4310.000000	64.892983 
4309.000000	64.935636 
4308.000000	64.967560 
4307.000000	64.988660 
4306.000000	64.997768 
4305.000000	64.992547 
4304.000000	64.970183 
4303.000000	64.928960 
4302.000000	64.869022 
4301.000000	64.793133 
4300.000000	64.706730 
4299.000000	64.617013 
4298.000000	64.531898 
4297.000000	64.458394 
4296.000000	64.401841 
4295.000000	64.364838 
4294.000000	64.347720 
4293.000000	64.349174 
4292.000000	64.366793 
4291.000000	64.397430 
4290.000000	64.437890 
4289.000000	64.484524 
4288.000000	64.533710 
4287.000000	64.580726 
4286.000000	64.621353 
4285.000000	64.651870 
4284.000000	64.670205 
4283.000000	64.676284 
4282.000000	64.672350 
4281.000000	64.662456 
4280.000000	64.651536 
4279.000000	64.644145 
4278.000000	64.643454 
4277.000000	64.650583 
4276.000000	64.664483 
4275.000000	64.682435 
4274.000000	64.701199 
4273.000000	64.717912 
4272.000000	64.731311 
4271.000000	64.741301 
4270.000000	64.748978 
4269.000000	64.755392 
4268.000000	64.761304 
4267.000000	64.766216 
4266.000000	64.767909 
4265.000000	64.763522 
4264.000000	64.750528 
4263.000000	64.727878 
4262.000000	64.696264 
4261.000000	64.659023 
4260.000000	64.621543 
4259.000000	64.590501 
4258.000000	64.572334 
4257.000000	64.571690 
4256.000000	64.590287 
4255.000000	64.626240 
4254.000000	64.674520 
4253.000000	64.727592 
4252.000000	64.776921 
4251.000000	64.814853 
4250.000000	64.836072 
4249.000000	64.838290 
4248.000000	64.822649 
4247.000000	64.793229 
4246.000000	64.755940 
4245.000000	64.717054 
4244.000000	64.682388 
4243.000000	64.656090 
4242.000000	64.640522 
4241.000000	64.635944 
4240.000000	64.641523 
4239.000000	64.656019 
4238.000000	64.678454 
4237.000000	64.707875 
4236.000000	64.744210 
4235.000000	64.787197 
4234.000000	64.836573 
4233.000000	64.891290 
4232.000000	64.949059 
4231.000000	65.006327 
4230.000000	65.059018 
4229.000000	65.103125 
4228.000000	65.135264 
4227.000000	65.153264 
4226.000000	65.156579 
4225.000000	65.146327 
4224.000000	65.124869 
4223.000000	65.095233 
4222.000000	65.060782 
4221.000000	65.024471 
4220.000000	64.989280 
4219.000000	64.957308 
4218.000000	64.930391 
4217.000000	64.909315 
4216.000000	64.894056 
4215.000000	64.883327 
4214.000000	64.874911 
4213.000000	64.865970 
4212.000000	64.853191 
4211.000000	64.834594 
4210.000000	64.809226 
4209.000000	64.779329 
4208.000000	64.749407 
4207.000000	64.726281 
4206.000000	64.717030 
4205.000000	64.727520 
4204.000000	64.760470 
4203.000000	64.814162 
4202.000000	64.882349 
4201.000000	64.955306 
4200.000000	65.022158 
4199.000000	65.073060 
4198.000000	65.101385 
4197.000000	65.105104 
4196.000000	65.087103 
4195.000000	65.054082 
4194.000000	65.014886 
4193.000000	64.978075 
4192.000000	64.950323 
4191.000000	64.935612 
4190.000000	64.934587 
4189.000000	64.945578 
4188.000000	64.964914 
4187.000000	64.989161 
4186.000000	65.014934 
4185.000000	65.039515 
4184.000000	65.061020 
4183.000000	65.077590 
4182.000000	65.088224 
4181.000000	65.092301 
4180.000000	65.090131 
4179.000000	65.082883 
4178.000000	65.072417 
4177.000000	65.061092 
4176.000000	65.051341 
4175.000000	65.045237 
4174.000000	65.043830 
4173.000000	65.047168 
4172.000000	65.054368 
4171.000000	65.064239 
4170.000000	65.075612 
4169.000000	65.087819 
4168.000000	65.100908 
4167.000000	65.115332 
4166.000000	65.131783 
4165.000000	65.150403 
4164.000000	65.170741 
4163.000000	65.191221 
4162.000000	65.209627 
4161.000000	65.223145 
4160.000000	65.229487 
4159.000000	65.226745 
