PE IR       SPECTRUM    SPECTRUM    ASCII       PEDS        1.60        
  -1
BZ6D22~1.ASC
17/04/07
13:38:58.00
17/04/07
13:38:58.00
tln
$BZ1503107-1_t0005$<tbV0>[2.6,-13.0,8.0,0.0,27,1,0]
370.000000
64









2002,4.07    
MIRTGS : RIGHTBACK : INTERNAL 2
MIR : ON : INTERNAL 2
OPTKBR

0.200000
8
8.000000
FILLER
RATIO
SPECTRUM
UNLOCKED 256

DOUBLE
64
COMBINED
1
0
0


1.000000
RATIO


1
0
TRUE
51149
0
LEFT NOT FITTED RIGHT NOT FITTED 0
NONE
NONE
15600
12.000000
4.427000
51148
TRUE
1 0 8 72 0 0 0 0 

15798.010000






#HDR
-1
-1
#GR
CM-1
%T
0.00002384185791015625
0.0
5000.000000
-1.000000
4631
8
85.746049
58.959507
#DATA
5000.000000	65.254902 
4999.000000	65.228891 
4998.000000	65.190434 
4997.000000	65.146040 
4996.000000	65.100765 
4995.000000	65.059828 
4994.000000	65.026021 
4993.000000	65.001988 
4992.000000	64.986658 
4991.000000	64.976096 
4990.000000	64.963459 
4989.000000	64.940452 
4988.000000	64.899969 
4987.000000	64.838194 
4986.000000	64.755940 
4985.000000	64.658689 
4984.000000	64.556121 
4983.000000	64.459919 
4982.000000	64.381265 
4981.000000	64.328312 
4980.000000	64.304447 
4979.000000	64.308071 
4978.000000	64.333224 
4977.000000	64.371824 
4976.000000	64.415168 
4975.000000	64.457011 
4974.000000	64.492440 
4973.000000	64.521026 
4972.000000	64.545106 
4971.000000	64.570879 
4970.000000	64.604544 
4969.000000	64.652776 
4968.000000	64.720964 
4967.000000	64.811396 
4966.000000	64.923644 
4965.000000	65.051889 
4964.000000	65.186667 
4963.000000	65.314507 
4962.000000	65.421128 
4961.000000	65.493273 
4960.000000	65.521764 
4959.000000	65.504336 
4958.000000	65.446734 
4957.000000	65.361189 
4956.000000	65.263867 
4955.000000	65.172791 
4954.000000	65.103912 
4953.000000	65.067577 
4952.000000	65.066504 
4951.000000	65.096282 
4950.000000	65.146374 
4949.000000	65.202903 
4948.000000	65.251874 
4947.000000	65.281486 
4946.000000	65.284800 
4945.000000	65.261077 
4944.000000	65.215039 
4943.000000	65.154266 
4942.000000	65.087318 
4941.000000	65.022349 
4940.000000	64.964485 
4939.000000	64.915108 
4938.000000	64.872312 
4937.000000	64.832234 
4936.000000	64.792060 
4935.000000	64.750981 
4934.000000	64.713811 
4933.000000	64.689779 
4932.000000	64.692640 
4931.000000	64.736509 
4930.000000	64.832520 
4929.000000	64.983963 
4928.000000	65.184020 
4927.000000	65.414619 
4926.000000	65.649676 
4925.000000	65.858459 
4924.000000	66.011548 
4923.000000	66.085672 
4922.000000	66.069722 
4921.000000	65.965175 
4920.000000	65.785741 
4919.000000	65.553474 
4918.000000	65.295457 
4917.000000	65.037703 
4916.000000	64.802241 
4915.000000	64.603614 
4914.000000	64.448809 
4913.000000	64.339017 
4912.000000	64.271831 
4911.000000	64.245080 
4910.000000	64.257097 
4909.000000	64.309430 
4908.000000	64.402961 
4907.000000	64.539837 
4906.000000	64.719247 
4905.000000	64.936447 
4904.000000	65.180182 
4903.000000	65.432906 
4902.000000	65.671300 
4901.000000	65.869379 
4900.000000	66.001319 
4899.000000	66.045165 
4898.000000	65.985631 
4897.000000	65.817451 
4896.000000	65.546250 
4895.000000	65.187621 
4894.000000	64.767169 
4893.000000	64.317727 
4892.000000	63.877749 
4891.000000	63.487935 
4890.000000	63.185763 
4889.000000	63.002347 
4888.000000	62.954187 
4887.000000	63.039875 
4886.000000	63.238120 
4885.000000	63.509678 
4884.000000	63.804388 
4883.000000	64.067196 
4882.000000	64.252400 
4881.000000	64.329338 
4880.000000	64.291620 
4879.000000	64.155077 
4878.000000	63.955283 
4877.000000	63.737225 
4876.000000	63.545060 
4875.000000	63.411998 
4874.000000	63.354110 
4873.000000	63.369107 
4872.000000	63.441276 
4871.000000	63.548064 
4870.000000	63.668084 
4869.000000	63.787317 
4868.000000	63.900208 
4867.000000	64.010047 
4866.000000	64.122772 
4865.000000	64.244627 
4864.000000	64.375996 
4863.000000	64.511394 
4862.000000	64.641380 
4861.000000	64.753627 
4860.000000	64.836955 
4859.000000	64.884018 
4858.000000	64.896106 
4857.000000	64.880347 
4856.000000	64.848351 
4855.000000	64.812946 
4854.000000	64.785337 
4853.000000	64.772915 
4852.000000	64.778566 
4851.000000	64.800405 
4850.000000	64.833402 
4849.000000	64.871001 
4848.000000	64.907455 
4847.000000	64.939475 
4846.000000	64.967036 
4845.000000	64.992904 
4844.000000	65.021586 
4843.000000	65.058875 
4842.000000	65.109038 
4841.000000	65.172982 
4840.000000	65.246438 
4839.000000	65.320205 
4838.000000	65.381598 
4837.000000	65.417957 
4836.000000	65.419816 
4835.000000	65.383601 
4834.000000	65.313458 
4833.000000	65.221190 
4832.000000	65.123295 
4831.000000	65.037679 
4830.000000	64.978790 
4829.000000	64.954853 
4828.000000	64.965343 
4827.000000	65.001082 
4826.000000	65.049123 
4825.000000	65.096735 
4824.000000	65.136289 
4823.000000	65.167284 
4822.000000	65.197420 
4821.000000	65.239405 
4820.000000	65.306615 
4819.000000	65.407323 
4818.000000	65.540385 
4817.000000	65.693616 
4816.000000	65.845394 
4815.000000	65.970063 
4814.000000	66.045093 
4813.000000	66.057538 
4812.000000	66.008090 
4811.000000	65.911650 
4810.000000	65.794658 
4809.000000	65.687775 
4808.000000	65.618872 
4807.000000	65.605139 
4806.000000	65.650510 
4805.000000	65.743064 
4804.000000	65.860533 
4803.000000	65.973806 
4802.000000	66.056060 
4801.000000	66.087388 
4800.000000	66.059231 
4799.000000	65.976190 
4798.000000	65.853452 
4797.000000	65.713834 
4796.000000	65.581059 
4795.000000	65.476512 
4794.000000	65.414524 
4793.000000	65.401244 
4792.000000	65.433883 
4791.000000	65.501499 
4790.000000	65.587592 
4789.000000	65.672755 
4788.000000	65.738749 
4787.000000	65.770649 
4786.000000	65.760874 
4785.000000	65.707993 
4784.000000	65.618920 
4783.000000	65.507125 
4782.000000	65.389871 
4781.000000	65.285253 
4780.000000	65.207028 
4779.000000	65.163707 
4778.000000	65.154099 
4777.000000	65.170288 
4776.000000	65.196633 
4775.000000	65.214180 
4774.000000	65.204834 
4773.000000	65.155696 
4772.000000	65.063333 
4771.000000	64.933848 
4770.000000	64.783787 
4769.000000	64.635443 
4768.000000	64.514708 
4767.000000	64.444851 
4766.000000	64.442539 
4765.000000	64.513254 
4764.000000	64.649367 
4763.000000	64.831042 
4762.000000	65.029859 
4761.000000	65.214586 
4760.000000	65.356826 
4759.000000	65.437078 
4758.000000	65.447211 
4757.000000	65.391993 
4756.000000	65.286684 
4755.000000	65.153336 
4754.000000	65.015220 
4753.000000	64.892768 
4752.000000	64.801025 
4751.000000	64.747333 
4750.000000	64.733314 
4749.000000	64.754295 
4748.000000	64.802646 
4747.000000	64.868783 
4746.000000	64.943599 
4745.000000	65.018534 
4744.000000	65.085601 
4743.000000	65.138363 
4742.000000	65.171504 
4741.000000	65.182566 
4740.000000	65.171837 
4739.000000	65.143275 
4738.000000	65.103459 
4737.000000	65.060234 
4736.000000	65.020704 
4735.000000	64.990401 
4734.000000	64.971375 
4733.000000	64.962363 
4732.000000	64.958357 
4731.000000	64.952802 
4730.000000	64.938092 
4729.000000	64.907908 
4728.000000	64.858007 
4727.000000	64.786219 
4726.000000	64.694070 
4725.000000	64.585924 
4724.000000	64.469957 
4723.000000	64.356374 
4722.000000	64.257049 
4721.000000	64.182829 
4720.000000	64.142537 
4719.000000	64.141249 
4718.000000	64.178299 
4717.000000	64.246869 
4716.000000	64.334559 
4715.000000	64.425230 
4714.000000	64.502739 
4713.000000	64.554262 
4712.000000	64.573049 
4711.000000	64.559888 
4710.000000	64.523029 
4709.000000	64.475679 
4708.000000	64.433240 
4707.000000	64.409136 
4706.000000	64.411830 
4705.000000	64.442443 
4704.000000	64.495944 
4703.000000	64.562010 
4702.000000	64.627957 
4701.000000	64.682006 
4700.000000	64.716148 
4699.000000	64.728260 
4698.000000	64.721965 
4697.000000	64.705801 
4696.000000	64.690065 
4695.000000	64.684319 
4694.000000	64.694809 
4693.000000	64.722657 
4692.000000	64.764571 
4691.000000	64.813160 
4690.000000	64.859342 
4689.000000	64.894962 
4688.000000	64.915156 
4687.000000	64.919257 
4686.000000	64.911031 
4685.000000	64.897394 
4684.000000	64.886736 
4683.000000	64.886927 
4682.000000	64.903473 
4681.000000	64.938402 
4680.000000	64.989399 
4679.000000	65.051102 
4678.000000	65.115332 
4677.000000	65.173888 
4676.000000	65.218663 
4675.000000	65.243268 
4674.000000	65.243220 
4673.000000	65.216851 
4672.000000	65.165114 
4671.000000	65.091848 
4670.000000	65.003156 
4669.000000	64.906430 
4668.000000	64.809966 
4667.000000	64.722537 
4666.000000	64.651989 
4665.000000	64.604091 
4664.000000	64.582061 
4663.000000	64.586305 
4662.000000	64.613890 
4661.000000	64.659142 
4660.000000	64.714384 
4659.000000	64.771294 
4658.000000	64.821672 
4657.000000	64.859008 
4656.000000	64.879679 
4655.000000	64.883995 
4654.000000	64.875411 
4653.000000	64.860153 
4652.000000	64.846253 
4651.000000	64.841365 
4650.000000	64.851498 
4649.000000	64.878416 
4648.000000	64.919924 
4647.000000	64.968633 
4646.000000	65.014672 
4645.000000	65.046644 
4644.000000	65.054535 
4643.000000	65.031886 
4642.000000	64.977717 
4641.000000	64.896702 
4640.000000	64.797782 
4639.000000	64.692854 
4638.000000	64.594292 
4637.000000	64.512205 
4636.000000	64.452576 
4635.000000	64.416980 
4634.000000	64.402890 
4633.000000	64.404749 
4632.000000	64.415645 
4631.000000	64.428687 
4630.000000	64.438390 
4629.000000	64.441108 
4628.000000	64.435410 
4627.000000	64.420533 
4626.000000	64.396691 
4625.000000	64.364671 
4624.000000	64.326691 
4623.000000	64.285492 
4622.000000	64.245796 
4621.000000	64.213824 
4620.000000	64.197182 
4619.000000	64.203214 
4618.000000	64.237475 
4617.000000	64.301919 
4616.000000	64.393877 
4615.000000	64.505815 
4614.000000	64.626574 
4613.000000	64.742970 
4612.000000	64.842915 
4611.000000	64.917492 
4610.000000	64.962482 
4609.000000	64.978694 
4608.000000	64.971423 
4607.000000	64.948940 
4606.000000	64.919424 
4605.000000	64.888930 
4604.000000	64.860367 
4603.000000	64.833116 
4602.000000	64.804387 
4601.000000	64.770269 
4600.000000	64.727544 
4599.000000	64.674806 
4598.000000	64.613127 
4597.000000	64.546442 
4596.000000	64.479565 
4595.000000	64.418673 
4594.000000	64.369821 
4593.000000	64.338636 
4592.000000	64.328956 
4591.000000	64.342570 
4590.000000	64.378356 
4589.000000	64.432764 
4588.000000	64.499258 
4587.000000	64.570403 
4586.000000	64.638948 
4585.000000	64.699292 
4584.000000	64.747738 
4583.000000	64.783644 
4582.000000	64.808893 
4581.000000	64.826130 
4580.000000	64.837884 
4579.000000	64.844536 
4578.000000	64.844250 
4577.000000	64.833021 
4576.000000	64.805817 
4575.000000	64.758229 
4574.000000	64.687895 
4573.000000	64.596915 
4572.000000	64.491343 
4571.000000	64.379858 
4570.000000	64.272284 
4569.000000	64.177560 
4568.000000	64.102125 
4567.000000	64.048910 
4566.000000	64.017224 
4565.000000	64.003729 
4564.000000	64.002990 
4563.000000	64.008259 
4562.000000	64.013147 
4561.000000	64.011597 
4560.000000	63.999819 
4559.000000	63.976287 
4558.000000	63.942098 
4557.000000	63.899946 
4556.000000	63.854122 
4555.000000	63.809442 
4554.000000	63.770556 
4553.000000	63.740468 
4552.000000	63.722348 
4551.000000	63.719081 
4550.000000	63.733077 
4549.000000	63.765859 
4548.000000	63.817143 
4547.000000	63.884735 
4546.000000	63.964104 
4545.000000	64.049172 
4544.000000	64.132928 
4543.000000	64.208817 
4542.000000	64.272689 
4541.000000	64.322304 
4540.000000	64.357519 
4539.000000	64.379096 
4538.000000	64.389657 
4537.000000	64.391088 
4536.000000	64.384508 
4535.000000	64.369440 
4534.000000	64.346075 
4533.000000	64.313244 
4532.000000	64.270186 
4531.000000	64.215636 
4530.000000	64.150094 
4529.000000	64.073061 
4528.000000	63.983631 
4527.000000	63.881158 
4526.000000	63.766336 
4525.000000	63.641858 
4524.000000	63.512778 
4523.000000	63.388514 
4522.000000	63.281536 
4521.000000	63.203358 
4520.000000	63.162851 
4519.000000	63.163185 
4518.000000	63.202571 
4517.000000	63.275098 
4516.000000	63.372659 
4515.000000	63.487529 
4514.000000	63.613128 
4513.000000	63.740944 
4512.000000	63.864254 
4511.000000	63.976073 
4510.000000	64.073204 
4509.000000	64.156532 
4508.000000	64.230704 
4507.000000	64.302754 
4506.000000	64.380025 
4505.000000	64.468884 
4504.000000	64.571952 
4503.000000	64.685058 
4502.000000	64.804506 
4501.000000	64.928722 
4500.000000	65.061092 
4499.000000	65.209102 
4498.000000	65.384912 
4497.000000	65.600872 
4496.000000	65.861010 
4495.000000	66.157317 
4494.000000	66.465234 
4493.000000	66.750240 
4492.000000	66.973900 
4491.000000	67.109179 
4490.000000	67.149901 
4489.000000	67.116522 
4488.000000	67.064356 
4487.000000	67.059588 
4486.000000	67.158961 
4485.000000	67.388033 
4484.000000	67.736792 
4483.000000	68.150711 
4482.000000	68.548488 
4481.000000	68.834137 
4480.000000	68.929314 
4479.000000	68.783521 
4478.000000	68.391704 
4477.000000	67.788863 
4476.000000	67.042064 
4475.000000	66.233277 
4474.000000	65.442967 
4473.000000	64.730954 
4472.000000	64.128017 
4471.000000	63.636302 
4470.000000	63.239169 
4469.000000	62.905645 
4468.000000	62.610197 
4467.000000	62.341022 
4466.000000	62.118482 
4465.000000	61.981129 
4464.000000	61.995124 
4463.000000	62.241458 
4462.000000	62.800598 
4461.000000	63.727951 
4460.000000	65.029597 
4459.000000	66.650199 
4458.000000	68.466949 
4457.000000	70.302581 
4456.000000	71.957087 
4455.000000	73.248624 
4454.000000	74.047136 
4453.000000	74.308586 
4452.000000	74.071383 
4451.000000	73.451638 
4450.000000	72.602033 
4449.000000	71.685051 
4448.000000	70.824933 
4447.000000	70.093965 
4446.000000	69.500279 
4445.000000	69.009017 
4444.000000	68.556356 
4443.000000	68.082976 
4442.000000	67.555594 
4441.000000	66.982483 
4440.000000	66.402769 
4439.000000	65.877676 
4438.000000	65.463018 
4437.000000	65.197134 
4436.000000	65.087532 
4435.000000	65.111708 
4434.000000	65.223932 
4433.000000	65.367102 
4432.000000	65.489339 
4431.000000	65.552711 
4430.000000	65.534639 
4429.000000	65.433621 
4428.000000	65.262985 
4427.000000	65.047311 
4426.000000	64.807248 
4425.000000	64.563298 
4424.000000	64.334559 
4423.000000	64.134454 
4422.000000	63.971281 
4421.000000	63.849401 
4420.000000	63.771271 
4419.000000	63.736724 
4418.000000	63.744068 
4417.000000	63.786411 
4416.000000	63.851284 
4415.000000	63.926744 
4414.000000	64.002728 
4413.000000	64.069128 
4412.000000	64.117503 
4411.000000	64.142632 
4410.000000	64.143347 
4409.000000	64.120745 
4408.000000	64.079022 
4407.000000	64.026260 
4406.000000	63.972425 
4405.000000	63.926672 
4404.000000	63.896560 
4403.000000	63.888025 
4402.000000	63.903689 
4401.000000	63.942551 
4400.000000	64.000558 
4399.000000	64.070677 
4398.000000	64.145565 
4397.000000	64.217901 
4396.000000	64.283514 
4395.000000	64.341592 
4394.000000	64.394927 
4393.000000	64.448165 
4392.000000	64.507102 
4391.000000	64.576554 
4390.000000	64.657306 
4389.000000	64.744949 
4388.000000	64.830374 
4387.000000	64.901232 
4386.000000	64.944219 
4385.000000	64.947962 
4384.000000	64.906167 
4383.000000	64.819359 
4382.000000	64.695119 
4381.000000	64.547061 
4380.000000	64.392352 
4379.000000	64.248943 
4378.000000	64.132666 
4377.000000	64.054608 
4376.000000	64.020538 
4375.000000	64.029598 
4374.000000	64.075589 
4373.000000	64.147996 
4372.000000	64.234066 
4371.000000	64.321112 
4370.000000	64.397644 
4369.000000	64.455604 
4368.000000	64.489603 
4367.000000	64.499068 
4366.000000	64.487266 
4365.000000	64.460492 
4364.000000	64.426255 
4363.000000	64.392304 
4362.000000	64.365077 
4361.000000	64.348483 
4360.000000	64.343523 
4359.000000	64.349293 
4358.000000	64.363837 
4357.000000	64.384651 
4356.000000	64.409899 
4355.000000	64.438295 
4354.000000	64.469695 
4353.000000	64.504027 
4352.000000	64.541745 
4351.000000	64.583325 
4350.000000	64.629125 
4349.000000	64.679789 
4348.000000	64.734864 
4347.000000	64.792656 
4346.000000	64.849710 
4345.000000	64.902114 
4344.000000	64.945101 
4343.000000	64.974117 
4342.000000	64.985656 
4341.000000	64.978575 
4340.000000	64.953708 
4339.000000	64.914393 
4338.000000	64.865207 
4337.000000	64.811563 
4336.000000	64.757728 
4335.000000	64.706563 
4334.000000	64.659023 
4333.000000	64.614605 
4332.000000	64.572381 
4331.000000	64.531683 
4330.000000	64.492988 
4329.000000	64.457869 
4328.000000	64.428544 
4327.000000	64.407658 
4326.000000	64.396476 
4325.000000	64.395618 
4324.000000	64.404606 
4323.000000	64.422821 
4322.000000	64.449119 
4321.000000	64.482760 
4320.000000	64.522910 
4319.000000	64.568972 
4318.000000	64.619207 
4317.000000	64.671850 
4316.000000	64.724755 
4315.000000	64.776182 
4314.000000	64.824748 
4313.000000	64.870810 
4312.000000	64.916396 
4311.000000	64.964413 
4310.000000	65.017867 
4309.000000	65.077996 
4308.000000	65.143346 
4307.000000	65.209102 
4306.000000	65.267777 
4305.000000	65.310573 
4304.000000	65.329408 
4303.000000	65.319490 
4302.000000	65.280556 
4301.000000	65.217137 
4300.000000	65.137481 
4299.000000	65.052342 
4298.000000	64.972400 
4297.000000	64.906477 
4296.000000	64.859700 
4295.000000	64.833450 
4294.000000	64.825105 
4293.000000	64.829897 
4292.000000	64.841485 
4291.000000	64.853644 
4290.000000	64.861679 
4289.000000	64.862561 
4288.000000	64.855647 
4287.000000	64.841389 
4286.000000	64.822030 
4285.000000	64.800453 
4284.000000	64.779901 
4283.000000	64.763116 
4282.000000	64.751935 
4281.000000	64.746809 
4280.000000	64.746761 
4279.000000	64.749813 
4278.000000	64.753460 
4277.000000	64.755511 
4276.000000	64.754676 
4275.000000	64.750933 
4274.000000	64.745569 
4273.000000	64.740729 
4272.000000	64.738655 
4271.000000	64.740872 
4270.000000	64.747810 
4269.000000	64.758443 
4268.000000	64.770627 
4267.000000	64.781737 
4266.000000	64.789271 
4265.000000	64.791774 
4264.000000	64.789247 
4263.000000	64.783167 
4262.000000	64.775466 
4261.000000	64.768719 
4260.000000	64.765071 
4259.000000	64.766716 
4258.000000	64.775228 
4257.000000	64.792156 
4256.000000	64.818596 
4255.000000	64.855217 
4254.000000	64.901947 
4253.000000	64.957499 
4252.000000	65.019297 
4251.000000	65.083503 
4250.000000	65.145373 
4249.000000	65.200066 
4248.000000	65.243172 
4247.000000	65.271639 
4246.000000	65.283727 
4245.000000	65.279507 
4244.000000	65.260076 
4243.000000	65.227603 
4242.000000	65.184855 
4241.000000	65.134763 
4240.000000	65.080857 
4239.000000	65.027046 
4238.000000	64.977979 
4237.000000	64.938926 
4236.000000	64.914751 
4235.000000	64.909076 
4234.000000	64.923214 
4233.000000	64.955449 
4232.000000	65.000867 
4231.000000	65.052032 
4230.000000	65.100407 
4229.000000	65.137887 
4228.000000	65.158891 
4227.000000	65.161204 
4226.000000	65.146613 
4225.000000	65.119791 
4224.000000	65.087461 
4223.000000	65.056014 
4222.000000	65.030074 
4221.000000	65.011119 
4220.000000	64.997839 
4219.000000	64.986467 
4218.000000	64.972400 
4217.000000	64.951944 
4216.000000	64.923739 
4215.000000	64.889836 
4214.000000	64.854669 
4213.000000	64.825034 
4212.000000	64.807462 
4211.000000	64.807772 
4210.000000	64.828586 
4209.000000	64.869666 
4208.000000	64.927577 
4207.000000	64.996576 
4206.000000	65.069913 
4205.000000	65.140771 
4204.000000	65.203237 
4203.000000	65.253019 
4202.000000	65.287446 
4201.000000	65.305685 
4200.000000	65.308237 
4199.000000	65.296864 
4198.000000	65.274071 
4197.000000	65.242981 
4196.000000	65.206789 
4195.000000	65.168809 
4194.000000	65.131974 
4193.000000	65.098476 
4192.000000	65.069699 
4191.000000	65.046358 
4190.000000	65.028476 
4189.000000	65.015649 
4188.000000	65.007114 
4187.000000	65.002202 
4186.000000	64.999914 
4185.000000	64.999008 
4184.000000	64.997863 
4183.000000	64.994382 
4182.000000	64.986538 
4181.000000	64.972329 
4180.000000	64.950728 
4179.000000	64.921808 
4178.000000	64.886879 
4177.000000	64.848446 
4176.000000	64.809751 
4175.000000	64.774227 
4174.000000	64.745259 
4173.000000	64.725708 
4172.000000	64.717388 
4171.000000	64.721083 
4170.000000	64.736557 
4169.000000	64.762663 
4168.000000	64.797329 
4167.000000	64.837861 
4166.000000	64.880728 
4165.000000	64.922285 
4164.000000	64.958643 
4163.000000	64.986920 
4162.000000	65.004897 
4161.000000	65.012240 
4160.000000	65.010166 
4159.000000	65.001630 
