PE IR       SPECTRUM    SPECTRUM    ASCII       PEDS        1.60        
  -1
BZ6D26~1.ASC
17/04/07
20:11:48.00
17/04/07
20:11:48.00
tln
$BZ1503107-1_t0085$<tbV0>[-5.2,5.2,8.0,0.0,27,1,0]
370.000000
64









2002,4.07    
MIRTGS : RIGHTBACK : INTERNAL 2
MIR : ON : INTERNAL 2
OPTKBR

0.200000
8
8.000000
FILLER
RATIO
SPECTRUM
UNLOCKED 256

DOUBLE
64
COMBINED
1
0
0


1.000000
RATIO


1
0
TRUE
51149
0
LEFT NOT FITTED RIGHT NOT FITTED 0
NONE
NONE
15600
12.000000
4.427000
51148
TRUE
1 0 8 72 0 0 0 0 

15798.010000






#HDR
-1
-1
#GR
CM-1
%T
0.00002384185791015625
0.0
5000.000000
-1.000000
4631
8
77.360677
59.664058
#DATA
5000.000000	64.681053 
4999.000000	64.751076 
4998.000000	64.813828 
4997.000000	64.857912 
4996.000000	64.878749 
4995.000000	64.881658 
4994.000000	64.876127 
4993.000000	64.873909 
4992.000000	64.880132 
4991.000000	64.891910 
4990.000000	64.894127 
4989.000000	64.862608 
4988.000000	64.772105 
4987.000000	64.604878 
4986.000000	64.359855 
4985.000000	64.056587 
4984.000000	63.734340 
4983.000000	63.444876 
4982.000000	63.241481 
4981.000000	63.167047 
4980.000000	63.245010 
4979.000000	63.473773 
4978.000000	63.828039 
4977.000000	64.263129 
4976.000000	64.726018 
4975.000000	65.162158 
4974.000000	65.527009 
4973.000000	65.786981 
4972.000000	65.921211 
4971.000000	65.919852 
4970.000000	65.782809 
4969.000000	65.517663 
4968.000000	65.140533 
4967.000000	64.674401 
4966.000000	64.153695 
4965.000000	63.617134 
4964.000000	63.107419 
4963.000000	62.663602 
4962.000000	62.317800 
4961.000000	62.089443 
4960.000000	61.982917 
4959.000000	61.988377 
4958.000000	62.083959 
4957.000000	62.241125 
4956.000000	62.429666 
4955.000000	62.622308 
4954.000000	62.798333 
4953.000000	62.943768 
4952.000000	63.052463 
4951.000000	63.124155 
4950.000000	63.163614 
4949.000000	63.178706 
4948.000000	63.178277 
4947.000000	63.172221 
4946.000000	63.168215 
4945.000000	63.172268 
4944.000000	63.186502 
4943.000000	63.209390 
4942.000000	63.238048 
4941.000000	63.270044 
4940.000000	63.305187 
4939.000000	63.346982 
4938.000000	63.400459 
4937.000000	63.469934 
4936.000000	63.557076 
4935.000000	63.659834 
4934.000000	63.770127 
4933.000000	63.874316 
4932.000000	63.958358 
4931.000000	64.011669 
4930.000000	64.030623 
4929.000000	64.019846 
4928.000000	63.992691 
4927.000000	63.967514 
4926.000000	63.961839 
4925.000000	63.987255 
4924.000000	64.044666 
4923.000000	64.124917 
4922.000000	64.212226 
4921.000000	64.289689 
4920.000000	64.344692 
4919.000000	64.373469 
4918.000000	64.382457 
4917.000000	64.386725 
4916.000000	64.404368 
4915.000000	64.451432 
4914.000000	64.536118 
4913.000000	64.655971 
4912.000000	64.798593 
4911.000000	64.943718 
4910.000000	65.069770 
4909.000000	65.157485 
4908.000000	65.195989 
4907.000000	65.182805 
4906.000000	65.124058 
4905.000000	65.031671 
4904.000000	64.919686 
4903.000000	64.802861 
4902.000000	64.693856 
4901.000000	64.602565 
4900.000000	64.535379 
4899.000000	64.495491 
4898.000000	64.483118 
4897.000000	64.494967 
4896.000000	64.525699 
4895.000000	64.568495 
4894.000000	64.617347 
4893.000000	64.666056 
4892.000000	64.710998 
4891.000000	64.750957 
4890.000000	64.787173 
4889.000000	64.821624 
4888.000000	64.856624 
4887.000000	64.893746 
4886.000000	64.933156 
4885.000000	64.973020 
4884.000000	65.010690 
4883.000000	65.044307 
4882.000000	65.072703 
4881.000000	65.096426 
4880.000000	65.116524 
4879.000000	65.134596 
4878.000000	65.150904 
4877.000000	65.163683 
4876.000000	65.170383 
4875.000000	65.168070 
4874.000000	65.155172 
4873.000000	65.131807 
4872.000000	65.099501 
4871.000000	65.060496 
4870.000000	65.017294 
4869.000000	64.971709 
4868.000000	64.923334 
4867.000000	64.870595 
4866.000000	64.811515 
4865.000000	64.745378 
4864.000000	64.673995 
4863.000000	64.601874 
4862.000000	64.536333 
4861.000000	64.484953 
4860.000000	64.454054 
4859.000000	64.445924 
4858.000000	64.457440 
4857.000000	64.480566 
4856.000000	64.503908 
4855.000000	64.515781 
4854.000000	64.507055 
4853.000000	64.473986 
4852.000000	64.418935 
4851.000000	64.349937 
4850.000000	64.278292 
4849.000000	64.216208 
4848.000000	64.173650 
4847.000000	64.156460 
4846.000000	64.165306 
4845.000000	64.196372 
4844.000000	64.243221 
4843.000000	64.298582 
4842.000000	64.356589 
4841.000000	64.413762 
4840.000000	64.469432 
4839.000000	64.524006 
4838.000000	64.578390 
4837.000000	64.632177 
4836.000000	64.683580 
4835.000000	64.729237 
4834.000000	64.765596 
4833.000000	64.790129 
4832.000000	64.802217 
4831.000000	64.804673 
4830.000000	64.801931 
4829.000000	64.799809 
4828.000000	64.803123 
4827.000000	64.814710 
4826.000000	64.834380 
4825.000000	64.858913 
4824.000000	64.883518 
4823.000000	64.903473 
4822.000000	64.915776 
4821.000000	64.919972 
4820.000000	64.918518 
4819.000000	64.915680 
4818.000000	64.915513 
4817.000000	64.919996 
4816.000000	64.928102 
4815.000000	64.935445 
4814.000000	64.935517 
4813.000000	64.921355 
4812.000000	64.888000 
4811.000000	64.833950 
4810.000000	64.762568 
4809.000000	64.681148 
4808.000000	64.599108 
4807.000000	64.526057 
4806.000000	64.469337 
4805.000000	64.432764 
4804.000000	64.415812 
4803.000000	64.414620 
4802.000000	64.423370 
4801.000000	64.436721 
4800.000000	64.450979 
4799.000000	64.465546 
4798.000000	64.482188 
4797.000000	64.504599 
4796.000000	64.536452 
4795.000000	64.580202 
4794.000000	64.635491 
4793.000000	64.699172 
4792.000000	64.765453 
4791.000000	64.827561 
4790.000000	64.878845 
4789.000000	64.914274 
4788.000000	64.930987 
4787.000000	64.929103 
4786.000000	64.911246 
4785.000000	64.881801 
4784.000000	64.846086 
4783.000000	64.809536 
4782.000000	64.777159 
4781.000000	64.753198 
4780.000000	64.740681 
4779.000000	64.741492 
4778.000000	64.756464 
4777.000000	64.785099 
4776.000000	64.826750 
4775.000000	64.879918 
4774.000000	64.943146 
4773.000000	65.014529 
4772.000000	65.091562 
4771.000000	65.170955 
4770.000000	65.248203 
4769.000000	65.317773 
4768.000000	65.373492 
4767.000000	65.409350 
4766.000000	65.420007 
4765.000000	65.402102 
4764.000000	65.354943 
4763.000000	65.281033 
4762.000000	65.186285 
4761.000000	65.079164 
4760.000000	64.969921 
4759.000000	64.868736 
4758.000000	64.784932 
4757.000000	64.724802 
4756.000000	64.691352 
4755.000000	64.683103 
4754.000000	64.695191 
4753.000000	64.719653 
4752.000000	64.746570 
4751.000000	64.766430 
4750.000000	64.771008 
4749.000000	64.756226 
4748.000000	64.722251 
4747.000000	64.673948 
4746.000000	64.619255 
4745.000000	64.567351 
4744.000000	64.526319 
4743.000000	64.500856 
4742.000000	64.491128 
4741.000000	64.493393 
4740.000000	64.501547 
4739.000000	64.508938 
4738.000000	64.510631 
4737.000000	64.505195 
4736.000000	64.495563 
4735.000000	64.487910 
4734.000000	64.490747 
4733.000000	64.511823 
4732.000000	64.556431 
4731.000000	64.625954 
4730.000000	64.716887 
4729.000000	64.821100 
4728.000000	64.927387 
4727.000000	65.024375 
4726.000000	65.101814 
4725.000000	65.152478 
4724.000000	65.173244 
4723.000000	65.165543 
4722.000000	65.134358 
4721.000000	65.087056 
4720.000000	65.031313 
4719.000000	64.974308 
4718.000000	64.920616 
4717.000000	64.872479 
4716.000000	64.829492 
4715.000000	64.789938 
4714.000000	64.751911 
4713.000000	64.714765 
4712.000000	64.679980 
4711.000000	64.651298 
4710.000000	64.634180 
4709.000000	64.634513 
4708.000000	64.656686 
4707.000000	64.701867 
4706.000000	64.767479 
4705.000000	64.847064 
4704.000000	64.930915 
4703.000000	65.008139 
4702.000000	65.069007 
4701.000000	65.107059 
4700.000000	65.120172 
4699.000000	65.110969 
4698.000000	65.086293 
4697.000000	65.054941 
4696.000000	65.025711 
4695.000000	65.004706 
4694.000000	64.994859 
4693.000000	64.994454 
4692.000000	64.998960 
4691.000000	65.001630 
4690.000000	64.996361 
4689.000000	64.979028 
4688.000000	64.949011 
4687.000000	64.908552 
4686.000000	64.862227 
4685.000000	64.815759 
4684.000000	64.774322 
4683.000000	64.741063 
4682.000000	64.716696 
4681.000000	64.699745 
4680.000000	64.687323 
4679.000000	64.675879 
4678.000000	64.662456 
4677.000000	64.645266 
4676.000000	64.624452 
4675.000000	64.601445 
4674.000000	64.579224 
4673.000000	64.560317 
4672.000000	64.547681 
4671.000000	64.543700 
4670.000000	64.550018 
4669.000000	64.566898 
4668.000000	64.593291 
4667.000000	64.626860 
4666.000000	64.664196 
4665.000000	64.701104 
4664.000000	64.733529 
4663.000000	64.757895 
4662.000000	64.772391 
4661.000000	64.777302 
4660.000000	64.774870 
4659.000000	64.768600 
4658.000000	64.763045 
4657.000000	64.762544 
4656.000000	64.770483 
4655.000000	64.788341 
4654.000000	64.815926 
4653.000000	64.851093 
4652.000000	64.890313 
4651.000000	64.928889 
4650.000000	64.962339 
4649.000000	64.986753 
4648.000000	64.999485 
4647.000000	64.999437 
4646.000000	64.986991 
4645.000000	64.964079 
4644.000000	64.933705 
4643.000000	64.899563 
4642.000000	64.865612 
4641.000000	64.835381 
4640.000000	64.811754 
4639.000000	64.796757 
4638.000000	64.791297 
4637.000000	64.796018 
4636.000000	64.811086 
4635.000000	64.836525 
4634.000000	64.871859 
4633.000000	64.915895 
4632.000000	64.966583 
4631.000000	65.020632 
4630.000000	65.073657 
4629.000000	65.120887 
4628.000000	65.157628 
4627.000000	65.180349 
4626.000000	65.187025 
4625.000000	65.177154 
4624.000000	65.151858 
4623.000000	65.113902 
4622.000000	65.066885 
4621.000000	65.015459 
4620.000000	64.964389 
4619.000000	64.918231 
4618.000000	64.880657 
4617.000000	64.855003 
4616.000000	64.843010 
4615.000000	64.844489 
4614.000000	64.857530 
4613.000000	64.878559 
4612.000000	64.903259 
4611.000000	64.926695 
4610.000000	64.944934 
4609.000000	64.955520 
4608.000000	64.958262 
4607.000000	64.954948 
4606.000000	64.948725 
4605.000000	64.942932 
4604.000000	64.940357 
4603.000000	64.942693 
4602.000000	64.950895 
4601.000000	64.965128 
4600.000000	64.985513 
4599.000000	65.011692 
4598.000000	65.043354 
4597.000000	65.079164 
4596.000000	65.116977 
4595.000000	65.152668 
4594.000000	65.181183 
4593.000000	65.196084 
4592.000000	65.191555 
4591.000000	65.162801 
4590.000000	65.107297 
4589.000000	65.025711 
4588.000000	64.922571 
4587.000000	64.805841 
4586.000000	64.685678 
4585.000000	64.573645 
4584.000000	64.480733 
4583.000000	64.416098 
4582.000000	64.385914 
4581.000000	64.392161 
4580.000000	64.432382 
4579.000000	64.499807 
4578.000000	64.584469 
4577.000000	64.674305 
4576.000000	64.757418 
4575.000000	64.824318 
4574.000000	64.869308 
4573.000000	64.891338 
4572.000000	64.893364 
4571.000000	64.880800 
4570.000000	64.859819 
4569.000000	64.835596 
4568.000000	64.811396 
4567.000000	64.788818 
4566.000000	64.768147 
4565.000000	64.749550 
4564.000000	64.733505 
4563.000000	64.721918 
4562.000000	64.717173 
4561.000000	64.721608 
4560.000000	64.736557 
4559.000000	64.761567 
4558.000000	64.794135 
4557.000000	64.829754 
4556.000000	64.863109 
4555.000000	64.888978 
4554.000000	64.903759 
4553.000000	64.906430 
4552.000000	64.897942 
4551.000000	64.880800 
4550.000000	64.858484 
4549.000000	64.834690 
4548.000000	64.812564 
4547.000000	64.794039 
4546.000000	64.780402 
4545.000000	64.772081 
4544.000000	64.768838 
4543.000000	64.769792 
4542.000000	64.773392 
4541.000000	64.777803 
4540.000000	64.781236 
4539.000000	64.781761 
4538.000000	64.777946 
4537.000000	64.768576 
4536.000000	64.753055 
4535.000000	64.730930 
4534.000000	64.702272 
4533.000000	64.667129 
4532.000000	64.625883 
4531.000000	64.579486 
4530.000000	64.529347 
4529.000000	64.477944 
4528.000000	64.428663 
4527.000000	64.385938 
4526.000000	64.354443 
4525.000000	64.339303 
4524.000000	64.345192 
4523.000000	64.375019 
4522.000000	64.429211 
4521.000000	64.505505 
4520.000000	64.599251 
4519.000000	64.703750 
4518.000000	64.811158 
4517.000000	64.913535 
4516.000000	65.003776 
4515.000000	65.076732 
4514.000000	65.128898 
4513.000000	65.158510 
4512.000000	65.164971 
4511.000000	65.149044 
4510.000000	65.112614 
4509.000000	65.059161 
4508.000000	64.993572 
4507.000000	64.922952 
4506.000000	64.854931 
4505.000000	64.797925 
4504.000000	64.758348 
4503.000000	64.740085 
4502.000000	64.742350 
4501.000000	64.760136 
4500.000000	64.784359 
4499.000000	64.804077 
4498.000000	64.808344 
4497.000000	64.789009 
4496.000000	64.742827 
4495.000000	64.672613 
4494.000000	64.587497 
4493.000000	64.500975 
4492.000000	64.427900 
4491.000000	64.380908 
4490.000000	64.367008 
4489.000000	64.386177 
4488.000000	64.431190 
4487.000000	64.489960 
4486.000000	64.549183 
4485.000000	64.596986 
4484.000000	64.626502 
4483.000000	64.635443 
4482.000000	64.626002 
4481.000000	64.602518 
4480.000000	64.567804 
4479.000000	64.524507 
4478.000000	64.474821 
4477.000000	64.420890 
4476.000000	64.365625 
4475.000000	64.313054 
4474.000000	64.267492 
4473.000000	64.235234 
4472.000000	64.224123 
4471.000000	64.236783 
4470.000000	64.269089 
4469.000000	64.312195 
4468.000000	64.354872 
4467.000000	64.385104 
4466.000000	64.393734 
4465.000000	64.381718 
4464.000000	64.359188 
4463.000000	64.335107 
4462.000000	64.319562 
4461.000000	64.324069 
4460.000000	64.357614 
4459.000000	64.429736 
4458.000000	64.540719 
4457.000000	64.683461 
4456.000000	64.835548 
4455.000000	64.967083 
4454.000000	65.039563 
4453.000000	65.006494 
4452.000000	64.838576 
4451.000000	64.529347 
4450.000000	64.113736 
4449.000000	63.661360 
4448.000000	63.273549 
4447.000000	63.060808 
4446.000000	63.115668 
4445.000000	63.489246 
4444.000000	64.167618 
4443.000000	65.074682 
4442.000000	66.088771 
4441.000000	67.078757 
4440.000000	67.953515 
4439.000000	68.686127 
4438.000000	69.328975 
4437.000000	69.982004 
4436.000000	70.760273 
4435.000000	71.729254 
4434.000000	72.874808 
4433.000000	74.074482 
4432.000000	75.129532 
4431.000000	75.797224 
4430.000000	75.871634 
4429.000000	75.229120 
4428.000000	73.880481 
4427.000000	71.971154 
4426.000000	69.759440 
4425.000000	67.559480 
4424.000000	65.670061 
4423.000000	64.318585 
4422.000000	63.614320 
4421.000000	63.550329 
4420.000000	64.024782 
4419.000000	64.874768 
4418.000000	65.924954 
4417.000000	67.008137 
4416.000000	67.992711 
4415.000000	68.778800 
4414.000000	69.302082 
4413.000000	69.537925 
4412.000000	69.493770 
4411.000000	69.209432 
4410.000000	68.739986 
4409.000000	68.151903 
4408.000000	67.504310 
4407.000000	66.842937 
4406.000000	66.196012 
4405.000000	65.588688 
4404.000000	65.038728 
4403.000000	64.569783 
4402.000000	64.202308 
4401.000000	63.950872 
4400.000000	63.820433 
4399.000000	63.794469 
4398.000000	63.847851 
4397.000000	63.945508 
4396.000000	64.056062 
4395.000000	64.157056 
4394.000000	64.234828 
4393.000000	64.279747 
4392.000000	64.292621 
4391.000000	64.280843 
4390.000000	64.253091 
4389.000000	64.215540 
4388.000000	64.173841 
4387.000000	64.132308 
4386.000000	64.096975 
4385.000000	64.074754 
4384.000000	64.070272 
4383.000000	64.085531 
4382.000000	64.120745 
4381.000000	64.173579 
4380.000000	64.238333 
4379.000000	64.308261 
4378.000000	64.375662 
4377.000000	64.435434 
4376.000000	64.488148 
4375.000000	64.537930 
4374.000000	64.588689 
4373.000000	64.644551 
4372.000000	64.707970 
4371.000000	64.778923 
4370.000000	64.853692 
4369.000000	64.927530 
4368.000000	64.997196 
4367.000000	65.060353 
4366.000000	65.116667 
4365.000000	65.166640 
4364.000000	65.211105 
4363.000000	65.250778 
4362.000000	65.286064 
4361.000000	65.316534 
4360.000000	65.341353 
4359.000000	65.360188 
4358.000000	65.373206 
4357.000000	65.382099 
4356.000000	65.388846 
4355.000000	65.395331 
4354.000000	65.402030 
4353.000000	65.408086 
4352.000000	65.410494 
4351.000000	65.405511 
4350.000000	65.388965 
4349.000000	65.358114 
4348.000000	65.312170 
4347.000000	65.253520 
4346.000000	65.186882 
4345.000000	65.118288 
4344.000000	65.054273 
4343.000000	65.000820 
4342.000000	64.961910 
4341.000000	64.938879 
4340.000000	64.930343 
4339.000000	64.932990 
4338.000000	64.941763 
4337.000000	64.950895 
4336.000000	64.955282 
4335.000000	64.951443 
4334.000000	64.937829 
4333.000000	64.915084 
4332.000000	64.886236 
4331.000000	64.856028 
4330.000000	64.830279 
4329.000000	64.814233 
4328.000000	64.811682 
4327.000000	64.823412 
4326.000000	64.847660 
4325.000000	64.879655 
4324.000000	64.912915 
4323.000000	64.940404 
4322.000000	64.956378 
4321.000000	64.957475 
4320.000000	64.943337 
4319.000000	64.916729 
4318.000000	64.882683 
4317.000000	64.847064 
4316.000000	64.815187 
4315.000000	64.790630 
4314.000000	64.774680 
4313.000000	64.766097 
4312.000000	64.761853 
4311.000000	64.758372 
4310.000000	64.752769 
4309.000000	64.743757 
4308.000000	64.731955 
4307.000000	64.719772 
4306.000000	64.710831 
4305.000000	64.709019 
4304.000000	64.717769 
4303.000000	64.738988 
4302.000000	64.772701 
4301.000000	64.816999 
4300.000000	64.868402 
4299.000000	64.922475 
4298.000000	64.974737 
4297.000000	65.021061 
4296.000000	65.058398 
4295.000000	65.084934 
4294.000000	65.100240 
4293.000000	65.104794 
4292.000000	65.099835 
4291.000000	65.087199 
4290.000000	65.068769 
4289.000000	65.046715 
4288.000000	65.023016 
4287.000000	64.999914 
4286.000000	64.979171 
4285.000000	64.962029 
4284.000000	64.949083 
4283.000000	64.940237 
4282.000000	64.934849 
4281.000000	64.931941 
4280.000000	64.930295 
4279.000000	64.928817 
4278.000000	64.926695 
4277.000000	64.923667 
4276.000000	64.919829 
4275.000000	64.915728 
4274.000000	64.912080 
4273.000000	64.909625 
4272.000000	64.908814 
4271.000000	64.909625 
4270.000000	64.911723 
4269.000000	64.914393 
4268.000000	64.916419 
4267.000000	64.916658 
4266.000000	64.914703 
4265.000000	64.910912 
4264.000000	64.906334 
4263.000000	64.902472 
4262.000000	64.901351 
4261.000000	64.904284 
4260.000000	64.911794 
4259.000000	64.922642 
4258.000000	64.933943 
4257.000000	64.941573 
4256.000000	64.941239 
4255.000000	64.929366 
4254.000000	64.904356 
4253.000000	64.867377 
4252.000000	64.822578 
4251.000000	64.776492 
4250.000000	64.736628 
4249.000000	64.709854 
4248.000000	64.700436 
4247.000000	64.709067 
4246.000000	64.732360 
4245.000000	64.763665 
4244.000000	64.794325 
4243.000000	64.815878 
4242.000000	64.822077 
4241.000000	64.810037 
4240.000000	64.780974 
4239.000000	64.739346 
4238.000000	64.692068 
4237.000000	64.646291 
4236.000000	64.608335 
4235.000000	64.582180 
4234.000000	64.569401 
4233.000000	64.569354 
4232.000000	64.580082 
4231.000000	64.599299 
4230.000000	64.624905 
4229.000000	64.655351 
4228.000000	64.689064 
4227.000000	64.724206 
4226.000000	64.758229 
4225.000000	64.787888 
4224.000000	64.809823 
4223.000000	64.821386 
4222.000000	64.821529 
4221.000000	64.811062 
4220.000000	64.792895 
4219.000000	64.771246 
4218.000000	64.750957 
4217.000000	64.736175 
4216.000000	64.729809 
4215.000000	64.732837 
4214.000000	64.744687 
4213.000000	64.763379 
4212.000000	64.786624 
4211.000000	64.811682 
4210.000000	64.836764 
4209.000000	64.859962 
4208.000000	64.879369 
4207.000000	64.893317 
4206.000000	64.900088 
4205.000000	64.898681 
4204.000000	64.889049 
4203.000000	64.872598 
4202.000000	64.852070 
4201.000000	64.830827 
4200.000000	64.812183 
4199.000000	64.798164 
4198.000000	64.789128 
4197.000000	64.783596 
4196.000000	64.778447 
4195.000000	64.770102 
4194.000000	64.755177 
4193.000000	64.731502 
4192.000000	64.698863 
4191.000000	64.658665 
4190.000000	64.614272 
4189.000000	64.569759 
4188.000000	64.530324 
4187.000000	64.500761 
4186.000000	64.485740 
4185.000000	64.489197 
4184.000000	64.513468 
4183.000000	64.559316 
4182.000000	64.624500 
4181.000000	64.703655 
4180.000000	64.788246 
4179.000000	64.867568 
4178.000000	64.930868 
4177.000000	64.969420 
4176.000000	64.978694 
4175.000000	64.959406 
4174.000000	64.917945 
4173.000000	64.864921 
4172.000000	64.812970 
4171.000000	64.773535 
4170.000000	64.754581 
4169.000000	64.758682 
4168.000000	64.783120 
4167.000000	64.820718 
4166.000000	64.862370 
4165.000000	64.899516 
4164.000000	64.926195 
4163.000000	64.940333 
4162.000000	64.943313 
4161.000000	64.939594 
4160.000000	64.934015 
4159.000000	64.931201 
