PE IR       SPECTRUM    SPECTRUM    ASCII       PEDS        1.60        
  -1
BZ4C79~1.ASC
17/04/07
22:48:22.00
17/04/07
22:48:22.00
tln
$BZ1503107-1_t0116$<tbV0>[0.0,13.0,8.0,0.0,27,1,0]
370.000000
64









2002,4.07    
MIRTGS : RIGHTBACK : INTERNAL 2
MIR : ON : INTERNAL 2
OPTKBR

0.200000
8
8.000000
FILLER
RATIO
SPECTRUM
UNLOCKED 256

DOUBLE
64
COMBINED
1
0
0


1.000000
RATIO


1
0
TRUE
51149
0
LEFT NOT FITTED RIGHT NOT FITTED 0
NONE
NONE
15600
12.000000
4.427000
51148
TRUE
1 0 8 72 0 0 0 0 

15798.010000






#HDR
-1
-1
#GR
CM-1
%T
0.00002384185791015625
0.0
5000.000000
-1.000000
4631
8
71.441936
34.709072
#DATA
5000.000000	65.866541 
4999.000000	65.678787 
4998.000000	65.503120 
4997.000000	65.339708 
4996.000000	65.195155 
4995.000000	65.080118 
4994.000000	65.008902 
4993.000000	64.991474 
4992.000000	65.033745 
4991.000000	65.132260 
4990.000000	65.276002 
4989.000000	65.447044 
4988.000000	65.622830 
4987.000000	65.779829 
4986.000000	65.897154 
4985.000000	65.959835 
4984.000000	65.961146 
4983.000000	65.903377 
4982.000000	65.796923 
4981.000000	65.658140 
4980.000000	65.507054 
4979.000000	65.363907 
4978.000000	65.246868 
4977.000000	65.168786 
4976.000000	65.136146 
4975.000000	65.148472 
4974.000000	65.198874 
4973.000000	65.276932 
4972.000000	65.368843 
4971.000000	65.463542 
4970.000000	65.552496 
4969.000000	65.634393 
4968.000000	65.711593 
4967.000000	65.792298 
4966.000000	65.886497 
4965.000000	66.003489 
4964.000000	66.148185 
4963.000000	66.318893 
4962.000000	66.507863 
4961.000000	66.700077 
4960.000000	66.876602 
4959.000000	67.017412 
4958.000000	67.106270 
4957.000000	67.133331 
4956.000000	67.097568 
4955.000000	67.006683 
4954.000000	66.874814 
4953.000000	66.719508 
4952.000000	66.557502 
4951.000000	66.402482 
4950.000000	66.262602 
4949.000000	66.140675 
4948.000000	66.035079 
4947.000000	65.942931 
4946.000000	65.861988 
4945.000000	65.791225 
4944.000000	65.733170 
4943.000000	65.690922 
4942.000000	65.670132 
4941.000000	65.675401 
4940.000000	65.710735 
4939.000000	65.775609 
4938.000000	65.866589 
4937.000000	65.977168 
4936.000000	66.098141 
4935.000000	66.218233 
4934.000000	66.326570 
4933.000000	66.414213 
4932.000000	66.475319 
4931.000000	66.507482 
4930.000000	66.513204 
4929.000000	66.498994 
4928.000000	66.473793 
4927.000000	66.446924 
4926.000000	66.426706 
4925.000000	66.418576 
4924.000000	66.424489 
4923.000000	66.442561 
4922.000000	66.468071 
4921.000000	66.494917 
4920.000000	66.518259 
4919.000000	66.534972 
4918.000000	66.544127 
4917.000000	66.546463 
4916.000000	66.544079 
4915.000000	66.538715 
4914.000000	66.530776 
4913.000000	66.518878 
4912.000000	66.500568 
4911.000000	66.473054 
4910.000000	66.434741 
4909.000000	66.385769 
4908.000000	66.329026 
4907.000000	66.268801 
4906.000000	66.210389 
4905.000000	66.157937 
4904.000000	66.113257 
4903.000000	66.075730 
4902.000000	66.042661 
4901.000000	66.010308 
4900.000000	65.975308 
4899.000000	65.936517 
4898.000000	65.895628 
4897.000000	65.856599 
4896.000000	65.824794 
4895.000000	65.804624 
4894.000000	65.798330 
4893.000000	65.804886 
4892.000000	65.820217 
4891.000000	65.838003 
4890.000000	65.851712 
4889.000000	65.855979 
4888.000000	65.848207 
4887.000000	65.829014 
4886.000000	65.801835 
4885.000000	65.771031 
4884.000000	65.741348 
4883.000000	65.716361 
4882.000000	65.698313 
4881.000000	65.687775 
4880.000000	65.684556 
4879.000000	65.687990 
4878.000000	65.697836 
4877.000000	65.714526 
4876.000000	65.738129 
4875.000000	65.768218 
4874.000000	65.803241 
4873.000000	65.840792 
4872.000000	65.877866 
4871.000000	65.911817 
4870.000000	65.941596 
4869.000000	65.967845 
4868.000000	65.993142 
4867.000000	66.020298 
4866.000000	66.051912 
4865.000000	66.087818 
4864.000000	66.124916 
4863.000000	66.156339 
4862.000000	66.173458 
4861.000000	66.167211 
4860.000000	66.130995 
4859.000000	66.062688 
4858.000000	65.965843 
4857.000000	65.849781 
4856.000000	65.727996 
4855.000000	65.615534 
4854.000000	65.525889 
4853.000000	65.468311 
4852.000000	65.446209 
4851.000000	65.456771 
4850.000000	65.492367 
4849.000000	65.542244 
4848.000000	65.595388 
4847.000000	65.642094 
4846.000000	65.675783 
4845.000000	65.693593 
4844.000000	65.696477 
4843.000000	65.687203 
4842.000000	65.669727 
4841.000000	65.648055 
4840.000000	65.625286 
4839.000000	65.603995 
4838.000000	65.585565 
4837.000000	65.571403 
4836.000000	65.561985 
4835.000000	65.558028 
4834.000000	65.559315 
4833.000000	65.564393 
4832.000000	65.570688 
4831.000000	65.575003 
4830.000000	65.574049 
4829.000000	65.565037 
4828.000000	65.546941 
4827.000000	65.521287 
4826.000000	65.491461 
4825.000000	65.462017 
4824.000000	65.437388 
4823.000000	65.420770 
4822.000000	65.412521 
4821.000000	65.410184 
4820.000000	65.409016 
4819.000000	65.403413 
4818.000000	65.389394 
4817.000000	65.366101 
4816.000000	65.335941 
4815.000000	65.304660 
4814.000000	65.279865 
4813.000000	65.269374 
4812.000000	65.278029 
4811.000000	65.307426 
4810.000000	65.355157 
4809.000000	65.416598 
4808.000000	65.485429 
4807.000000	65.556406 
4806.000000	65.626335 
4805.000000	65.694761 
4804.000000	65.763401 
4803.000000	65.834593 
4802.000000	65.909814 
4801.000000	65.987920 
4800.000000	66.064953 
4799.000000	66.133642 
4798.000000	66.185355 
4797.000000	66.211438 
4796.000000	66.206049 
4795.000000	66.166520 
4794.000000	66.094374 
4793.000000	65.995073 
4792.000000	65.877151 
4791.000000	65.750503 
4790.000000	65.624809 
4789.000000	65.508747 
4788.000000	65.408515 
4787.000000	65.327477 
4786.000000	65.266203 
4785.000000	65.222764 
4784.000000	65.193819 
4783.000000	65.175080 
4782.000000	65.162682 
4781.000000	65.152621 
4780.000000	65.142631 
4779.000000	65.130829 
4778.000000	65.117478 
4777.000000	65.102815 
4776.000000	65.088963 
4775.000000	65.078592 
4774.000000	65.074920 
4773.000000	65.080595 
4772.000000	65.097355 
4771.000000	65.125441 
4770.000000	65.163087 
4769.000000	65.206694 
4768.000000	65.251421 
4767.000000	65.292286 
4766.000000	65.325140 
4765.000000	65.347743 
4764.000000	65.360331 
4763.000000	65.365409 
4762.000000	65.367650 
4761.000000	65.372157 
4760.000000	65.382790 
4759.000000	65.400767 
4758.000000	65.425229 
4757.000000	65.452647 
4756.000000	65.478086 
4755.000000	65.496373 
4754.000000	65.504336 
4753.000000	65.500998 
4752.000000	65.487980 
4751.000000	65.469002 
4750.000000	65.448880 
4749.000000	65.432310 
4748.000000	65.422725 
4747.000000	65.421462 
4746.000000	65.427803 
4745.000000	65.438914 
4744.000000	65.451192 
4743.000000	65.460753 
4742.000000	65.464806 
4741.000000	65.462279 
4740.000000	65.454173 
4739.000000	65.443253 
4738.000000	65.433287 
4737.000000	65.428280 
4736.000000	65.431141 
4735.000000	65.442895 
4734.000000	65.462350 
4733.000000	65.486454 
4732.000000	65.511035 
4731.000000	65.531587 
4730.000000	65.544795 
4729.000000	65.549039 
4728.000000	65.544986 
4727.000000	65.535640 
4726.000000	65.525054 
4725.000000	65.517568 
4724.000000	65.516090 
4723.000000	65.521693 
4722.000000	65.532827 
4721.000000	65.545988 
4720.000000	65.556550 
4719.000000	65.560221 
4718.000000	65.554332 
4717.000000	65.538549 
4716.000000	65.515470 
4715.000000	65.489721 
4714.000000	65.467238 
4713.000000	65.453433 
4712.000000	65.451788 
4711.000000	65.462827 
4710.000000	65.484189 
4709.000000	65.511274 
4708.000000	65.538430 
4707.000000	65.560650 
4706.000000	65.574979 
4705.000000	65.581583 
4704.000000	65.583348 
4703.000000	65.585255 
4702.000000	65.592503 
4701.000000	65.608763 
4700.000000	65.635132 
4699.000000	65.669298 
4698.000000	65.706348 
4697.000000	65.739655 
4696.000000	65.763020 
4695.000000	65.771865 
4694.000000	65.764689 
4693.000000	65.743231 
4692.000000	65.712261 
4691.000000	65.677928 
4690.000000	65.646529 
4689.000000	65.622639 
4688.000000	65.608167 
4687.000000	65.601634 
4686.000000	65.598964 
4685.000000	65.594673 
4684.000000	65.583705 
4683.000000	65.563082 
4682.000000	65.533232 
4681.000000	65.497970 
4680.000000	65.463852 
4679.000000	65.438389 
4678.000000	65.428209 
4677.000000	65.436840 
4676.000000	65.464258 
4675.000000	65.506696 
4674.000000	65.557646 
4673.000000	65.609455 
4672.000000	65.655159 
4671.000000	65.690016 
4670.000000	65.712285 
4669.000000	65.723204 
4668.000000	65.726208 
4667.000000	65.725398 
4666.000000	65.724563 
4665.000000	65.725898 
4664.000000	65.729641 
4663.000000	65.734457 
4662.000000	65.738177 
4661.000000	65.738868 
4660.000000	65.735244 
4659.000000	65.727496 
4658.000000	65.717029 
4657.000000	65.706253 
4656.000000	65.697884 
4655.000000	65.694308 
4654.000000	65.697193 
4653.000000	65.707039 
4652.000000	65.722727 
4651.000000	65.741968 
4650.000000	65.761685 
4649.000000	65.778803 
4648.000000	65.790963 
4647.000000	65.796995 
4646.000000	65.797019 
4645.000000	65.792322 
4644.000000	65.784716 
4643.000000	65.776681 
4642.000000	65.770053 
4641.000000	65.766859 
4640.000000	65.769267 
4639.000000	65.778851 
4638.000000	65.796780 
4637.000000	65.822577 
4636.000000	65.854692 
4635.000000	65.889430 
4634.000000	65.921854 
4633.000000	65.946483 
4632.000000	65.958666 
4631.000000	65.956163 
4630.000000	65.940308 
4629.000000	65.915966 
4628.000000	65.890622 
4627.000000	65.873074 
4626.000000	65.870738 
4625.000000	65.887665 
4624.000000	65.922951 
4623.000000	65.970897 
4622.000000	66.022324 
4621.000000	66.067171 
4620.000000	66.096901 
4619.000000	66.107225 
4618.000000	66.098070 
4617.000000	66.073656 
4616.000000	66.040277 
4615.000000	66.004109 
4614.000000	65.969395 
4613.000000	65.937495 
4612.000000	65.906906 
4611.000000	65.874457 
4610.000000	65.837502 
4609.000000	65.795469 
4608.000000	65.751409 
4607.000000	65.711712 
4606.000000	65.685296 
4605.000000	65.681195 
4604.000000	65.706253 
4603.000000	65.762495 
4602.000000	65.845894 
4601.000000	65.946602 
4600.000000	66.050648 
4599.000000	66.143012 
4598.000000	66.211032 
4597.000000	66.247344 
4596.000000	66.251444 
4595.000000	66.229319 
4594.000000	66.191649 
4593.000000	66.150712 
4592.000000	66.117644 
4591.000000	66.099190 
4590.000000	66.097354 
4589.000000	66.108393 
4588.000000	66.125130 
4587.000000	66.138792 
4586.000000	66.142296 
4585.000000	66.131949 
4584.000000	66.108012 
4583.000000	66.075181 
4582.000000	66.040778 
4581.000000	66.013336 
4580.000000	66.000151 
4579.000000	66.006302 
4578.000000	66.033077 
4577.000000	66.078448 
4576.000000	66.137576 
4575.000000	66.203498 
4574.000000	66.268658 
4573.000000	66.325831 
4572.000000	66.369819 
4571.000000	66.398286 
4570.000000	66.412091 
4569.000000	66.414618 
4568.000000	66.410422 
4567.000000	66.404747 
4566.000000	66.400742 
4565.000000	66.399788 
4564.000000	66.399693 
4563.000000	66.396212 
4562.000000	66.383218 
4561.000000	66.355681 
4560.000000	66.310238 
4559.000000	66.246581 
4558.000000	66.168260 
4557.000000	66.082000 
4556.000000	65.997552 
4555.000000	65.925407 
4554.000000	65.875315 
4553.000000	65.853953 
4552.000000	65.864157 
4551.000000	65.904426 
4550.000000	65.968847 
4549.000000	66.048264 
4548.000000	66.131687 
4547.000000	66.208410 
4546.000000	66.269183 
4545.000000	66.308116 
4544.000000	66.323018 
4543.000000	66.315960 
4542.000000	66.292357 
4541.000000	66.260290 
4540.000000	66.229510 
4539.000000	66.209125 
4538.000000	66.206860 
4537.000000	66.226816 
4536.000000	66.269612 
4535.000000	66.331148 
4534.000000	66.404461 
4533.000000	66.479706 
4532.000000	66.546463 
4531.000000	66.595077 
4530.000000	66.618943 
4529.000000	66.615080 
4528.000000	66.584253 
4527.000000	66.530728 
4526.000000	66.461300 
4525.000000	66.383767 
4524.000000	66.305804 
4523.000000	66.234087 
4522.000000	66.173791 
4521.000000	66.128468 
4520.000000	66.100454 
4519.000000	66.090774 
4518.000000	66.099309 
4517.000000	66.124987 
4516.000000	66.165709 
4515.000000	66.216921 
4514.000000	66.273093 
4513.000000	66.327023 
4512.000000	66.372370 
4511.000000	66.403174 
4510.000000	66.417050 
4509.000000	66.415405 
4508.000000	66.403675 
4507.000000	66.390228 
4506.000000	66.383719 
4505.000000	66.391539 
4504.000000	66.416645 
4503.000000	66.457223 
4502.000000	66.506314 
4501.000000	66.553854 
4500.000000	66.589045 
4499.000000	66.603446 
4498.000000	66.592383 
4497.000000	66.555976 
4496.000000	66.499161 
4495.000000	66.430258 
4494.000000	66.357707 
4493.000000	66.288375 
4492.000000	66.227149 
4491.000000	66.176056 
4490.000000	66.135025 
4489.000000	66.102123 
4488.000000	66.076588 
4487.000000	66.057705 
4486.000000	66.044759 
4485.000000	66.036272 
4484.000000	66.028738 
4483.000000	66.017937 
4482.000000	65.999221 
4481.000000	65.969419 
4480.000000	65.926742 
4479.000000	65.872979 
4478.000000	65.812945 
4477.000000	65.754723 
4476.000000	65.706992 
4475.000000	65.679502 
4474.000000	65.681028 
4473.000000	65.717148 
4472.000000	65.787816 
4471.000000	65.890765 
4470.000000	66.022515 
4469.000000	66.173791 
4468.000000	66.331267 
4467.000000	66.487288 
4466.000000	66.640281 
4465.000000	66.788196 
4464.000000	66.929197 
4463.000000	67.066931 
4462.000000	67.204332 
4461.000000	67.338752 
4460.000000	67.461347 
4459.000000	67.562365 
4458.000000	67.628884 
4457.000000	67.649888 
4456.000000	67.617797 
4455.000000	67.530179 
4454.000000	67.393374 
4453.000000	67.228722 
4452.000000	67.060685 
4451.000000	66.909790 
4450.000000	66.789746 
4449.000000	66.712450 
4448.000000	66.668438 
4447.000000	66.630053 
4446.000000	66.551065 
4445.000000	66.379976 
4444.000000	66.054296 
4443.000000	65.514183 
4442.000000	64.715051 
4441.000000	63.638830 
4440.000000	62.297058 
4439.000000	60.732102 
4438.000000	59.015822 
4437.000000	57.238531 
4436.000000	55.493211 
4435.000000	53.868031 
4434.000000	52.424049 
4433.000000	51.210117 
4432.000000	50.247120 
4431.000000	49.563145 
4430.000000	49.167752 
4429.000000	49.097728 
4428.000000	49.388551 
4427.000000	50.094509 
4426.000000	51.241874 
4425.000000	52.837610 
4424.000000	54.833006 
4423.000000	57.132506 
4422.000000	59.583902 
4421.000000	62.010741 
4420.000000	64.232277 
4419.000000	66.102361 
4418.000000	67.532277 
4417.000000	68.502831 
4416.000000	69.059133 
4415.000000	69.299006 
4414.000000	69.342398 
4413.000000	69.300055 
4412.000000	69.244599 
4411.000000	69.213843 
4410.000000	69.201517 
4409.000000	69.177603 
4408.000000	69.097208 
4407.000000	68.939304 
4406.000000	68.702101 
4405.000000	68.403291 
4404.000000	68.075823 
4403.000000	67.756962 
4402.000000	67.480683 
4401.000000	67.264866 
4400.000000	67.114090 
4399.000000	67.022609 
4398.000000	66.976308 
4397.000000	66.960501 
4396.000000	66.960239 
4395.000000	66.959476 
4394.000000	66.950440 
4393.000000	66.934704 
4392.000000	66.916966 
4391.000000	66.898775 
4390.000000	66.886782 
4389.000000	66.890668 
4388.000000	66.912817 
4387.000000	66.947388 
4386.000000	66.989064 
4385.000000	67.032861 
4384.000000	67.071866 
4383.000000	67.099523 
4382.000000	67.111778 
4381.000000	67.107629 
4380.000000	67.089462 
4379.000000	67.061519 
4378.000000	67.027997 
4377.000000	66.992187 
4376.000000	66.955757 
4375.000000	66.918897 
4374.000000	66.881275 
4373.000000	66.842746 
4372.000000	66.805934 
4371.000000	66.773319 
4370.000000	66.746401 
4369.000000	66.725373 
4368.000000	66.709160 
4367.000000	66.695165 
4366.000000	66.679382 
4365.000000	66.658473 
4364.000000	66.630840 
4363.000000	66.597080 
4362.000000	66.560244 
4361.000000	66.524887 
4360.000000	66.495585 
4359.000000	66.476058 
4358.000000	66.467595 
4357.000000	66.469025 
4356.000000	66.476416 
4355.000000	66.484045 
4354.000000	66.485452 
4353.000000	66.474628 
4352.000000	66.447639 
4351.000000	66.402983 
4350.000000	66.342949 
4349.000000	66.271996 
4348.000000	66.197657 
4347.000000	66.128611 
4346.000000	66.074299 
4345.000000	66.042780 
4344.000000	66.039776 
4343.000000	66.067481 
4342.000000	66.123437 
4341.000000	66.200971 
4340.000000	66.289710 
4339.000000	66.377282 
4338.000000	66.451597 
4337.000000	66.502690 
4336.000000	66.525006 
4335.000000	66.517925 
4334.000000	66.486167 
4333.000000	66.438388 
4332.000000	66.385149 
4331.000000	66.336250 
4330.000000	66.299366 
4329.000000	66.278052 
4328.000000	66.271591 
4327.000000	66.275358 
4326.000000	66.283154 
4325.000000	66.288375 
4324.000000	66.285967 
4323.000000	66.273069 
4322.000000	66.249561 
4321.000000	66.217231 
4320.000000	66.178679 
4319.000000	66.136503 
4318.000000	66.092371 
4317.000000	66.047096 
4316.000000	66.000461 
4315.000000	65.952157 
4314.000000	65.902757 
4313.000000	65.853571 
4312.000000	65.806961 
4311.000000	65.765666 
4310.000000	65.732002 
4309.000000	65.708160 
4308.000000	65.695476 
4307.000000	65.694117 
4306.000000	65.703153 
4305.000000	65.721344 
4304.000000	65.747117 
4303.000000	65.778613 
4302.000000	65.813922 
4301.000000	65.850853 
4300.000000	65.887141 
4299.000000	65.920352 
4298.000000	65.948367 
4297.000000	65.969324 
4296.000000	65.982413 
4295.000000	65.988063 
4294.000000	65.988063 
4293.000000	65.985512 
4292.000000	65.983605 
4291.000000	65.985608 
4290.000000	65.992951 
4289.000000	66.005563 
4288.000000	66.021060 
4287.000000	66.035842 
4286.000000	66.045284 
4285.000000	66.045045 
4284.000000	66.032218 
4283.000000	66.006374 
4282.000000	65.969491 
4281.000000	65.925645 
4280.000000	65.880107 
4279.000000	65.837883 
4278.000000	65.802693 
4277.000000	65.776038 
4276.000000	65.757179 
4275.000000	65.743637 
4274.000000	65.732550 
4273.000000	65.721535 
4272.000000	65.709638 
4271.000000	65.697312 
4270.000000	65.686345 
4269.000000	65.678834 
4268.000000	65.675806 
4267.000000	65.677118 
4266.000000	65.680742 
4265.000000	65.683770 
4264.000000	65.682792 
4263.000000	65.675449 
4262.000000	65.661430 
4261.000000	65.642595 
4260.000000	65.622663 
4259.000000	65.605974 
4258.000000	65.596318 
4257.000000	65.595364 
4256.000000	65.602040 
4255.000000	65.613007 
4254.000000	65.623593 
4253.000000	65.629148 
4252.000000	65.626430 
4251.000000	65.614390 
4250.000000	65.594506 
4249.000000	65.570282 
4248.000000	65.546536 
4247.000000	65.527629 
4246.000000	65.516638 
4245.000000	65.515089 
4244.000000	65.522432 
4243.000000	65.536236 
4242.000000	65.553307 
4241.000000	65.570282 
4240.000000	65.584444 
4239.000000	65.594244 
4238.000000	65.599060 
4237.000000	65.599346 
4236.000000	65.595650 
4235.000000	65.588450 
4234.000000	65.577578 
4233.000000	65.562367 
4232.000000	65.541577 
4231.000000	65.514111 
4230.000000	65.479302 
4229.000000	65.437841 
4228.000000	65.391850 
4227.000000	65.344977 
4226.000000	65.302062 
4225.000000	65.268492 
4224.000000	65.249133 
4223.000000	65.247297 
4222.000000	65.264415 
4221.000000	65.299606 
4220.000000	65.349888 
4219.000000	65.410709 
4218.000000	65.476703 
4217.000000	65.542411 
4216.000000	65.602946 
4215.000000	65.654230 
4214.000000	65.693473 
4213.000000	65.718960 
4212.000000	65.730333 
4211.000000	65.728092 
4210.000000	65.714025 
4209.000000	65.690374 
4208.000000	65.660190 
4207.000000	65.626525 
4206.000000	65.592980 
4205.000000	65.562462 
4204.000000	65.537238 
4203.000000	65.518808 
4202.000000	65.507841 
4201.000000	65.504288 
4200.000000	65.507745 
4199.000000	65.517616 
4198.000000	65.533423 
4197.000000	65.554928 
4196.000000	65.581917 
4195.000000	65.613913 
4194.000000	65.649724 
4193.000000	65.687370 
4192.000000	65.723752 
4191.000000	65.755128 
4190.000000	65.777397 
4189.000000	65.786981 
4188.000000	65.781784 
4187.000000	65.761423 
4186.000000	65.727829 
4185.000000	65.685415 
4184.000000	65.640211 
4183.000000	65.598988 
4182.000000	65.567898 
4181.000000	65.551614 
4180.000000	65.552020 
4179.000000	65.568351 
4178.000000	65.597009 
4177.000000	65.632724 
4176.000000	65.669369 
4175.000000	65.701150 
4174.000000	65.723419 
4173.000000	65.733242 
4172.000000	65.729570 
4171.000000	65.712881 
4170.000000	65.685033 
4169.000000	65.648484 
4168.000000	65.606045 
4167.000000	65.560340 
4166.000000	65.513658 
4165.000000	65.468072 
4164.000000	65.425348 
4163.000000	65.387344 
4162.000000	65.355873 
4161.000000	65.332889 
4160.000000	65.320086 
4159.000000	65.318942 
