PE IR       SPECTRUM    SPECTRUM    ASCII       PEDS        1.60        
  -1
BZ68A3~1.ASC
17/04/07
17:22:08.00
17/04/07
17:22:08.00
tln
$BZ1503107-1_t0050$<tbV0>[0.0,-2.6,8.0,0.0,27,1,0]
370.000000
64









2002,4.07    
MIRTGS : RIGHTBACK : INTERNAL 2
MIR : ON : INTERNAL 2
OPTKBR

0.200000
8
8.000000
FILLER
RATIO
SPECTRUM
UNLOCKED 256

DOUBLE
64
COMBINED
1
0
0


1.000000
RATIO


1
0
TRUE
51149
0
LEFT NOT FITTED RIGHT NOT FITTED 0
NONE
NONE
15600
12.000000
4.427000
51148
TRUE
1 0 8 72 0 0 0 0 

15798.010000






#HDR
-1
-1
#GR
CM-1
%T
0.00002384185791015625
0.0
5000.000000
-1.000000
4631
8
66.921043
33.312702
#DATA
5000.000000	64.290523 
4999.000000	64.513039 
4998.000000	64.732599 
4997.000000	64.939260 
4996.000000	65.129375 
4995.000000	65.303206 
4994.000000	65.466403 
4993.000000	65.626764 
4992.000000	65.792202 
4991.000000	65.969204 
4990.000000	66.158461 
4989.000000	66.356182 
4988.000000	66.549968 
4987.000000	66.722679 
4986.000000	66.852951 
4985.000000	66.921043 
4984.000000	66.913223 
4983.000000	66.826510 
4982.000000	66.669750 
4981.000000	66.463041 
4980.000000	66.234755 
4979.000000	66.016387 
4978.000000	65.836548 
4977.000000	65.715885 
4976.000000	65.664863 
4975.000000	65.681886 
4974.000000	65.756273 
4973.000000	65.869450 
4972.000000	65.999794 
4971.000000	66.125035 
4970.000000	66.225028 
4969.000000	66.284179 
4968.000000	66.291666 
4967.000000	66.243410 
4966.000000	66.139864 
4965.000000	65.988826 
4964.000000	65.804886 
4963.000000	65.606284 
4962.000000	65.413379 
4961.000000	65.242958 
4960.000000	65.106892 
4959.000000	65.007472 
4958.000000	64.938092 
4957.000000	64.885973 
4956.000000	64.836812 
4955.000000	64.778161 
4954.000000	64.703917 
4953.000000	64.615964 
4952.000000	64.524507 
4951.000000	64.443659 
4950.000000	64.389204 
4949.000000	64.372420 
4948.000000	64.399576 
4947.000000	64.469981 
4946.000000	64.577603 
4945.000000	64.712572 
4944.000000	64.863562 
4943.000000	65.020751 
4942.000000	65.175104 
4941.000000	65.318751 
4940.000000	65.443849 
4939.000000	65.541625 
4938.000000	65.604090 
4937.000000	65.625619 
4936.000000	65.604138 
4935.000000	65.543842 
4934.000000	65.452837 
4933.000000	65.342879 
4932.000000	65.226292 
4931.000000	65.114903 
4930.000000	65.015840 
4929.000000	64.931368 
4928.000000	64.860320 
4927.000000	64.799952 
4926.000000	64.747858 
4925.000000	64.704108 
4924.000000	64.671778 
4923.000000	64.656758 
4922.000000	64.664983 
4921.000000	64.700794 
4920.000000	64.763355 
4919.000000	64.847040 
4918.000000	64.941716 
4917.000000	65.034627 
4916.000000	65.113377 
4915.000000	65.167808 
4914.000000	65.192174 
4913.000000	65.185594 
4912.000000	65.150880 
4911.000000	65.094828 
4910.000000	65.026807 
4909.000000	64.956998 
4908.000000	64.894509 
4907.000000	64.846730 
4906.000000	64.818668 
4905.000000	64.812231 
4904.000000	64.826583 
4903.000000	64.858746 
4902.000000	64.904236 
4901.000000	64.958214 
4900.000000	65.015983 
4899.000000	65.072822 
4898.000000	65.124225 
4897.000000	65.166497 
4896.000000	65.196442 
4895.000000	65.211391 
4894.000000	65.209245 
4893.000000	65.189361 
4892.000000	65.152835 
4891.000000	65.102839 
4890.000000	65.044474 
4889.000000	64.984536 
4888.000000	64.929914 
4887.000000	64.886903 
4886.000000	64.859032 
4885.000000	64.846563 
4884.000000	64.846086 
4883.000000	64.851927 
4882.000000	64.857053 
4881.000000	64.854621 
4880.000000	64.839792 
4879.000000	64.810132 
4878.000000	64.767098 
4877.000000	64.715051 
4876.000000	64.661026 
4875.000000	64.612913 
4874.000000	64.578199 
4873.000000	64.562177 
4872.000000	64.567136 
4871.000000	64.591836 
4870.000000	64.631581 
4869.000000	64.679288 
4868.000000	64.727640 
4867.000000	64.770293 
4866.000000	64.802670 
4865.000000	64.822745 
4864.000000	64.830708 
4863.000000	64.828300 
4862.000000	64.817833 
4861.000000	64.801239 
4860.000000	64.779400 
4859.000000	64.752793 
4858.000000	64.721846 
4857.000000	64.688062 
4856.000000	64.654660 
4855.000000	64.626312 
4854.000000	64.608955 
4853.000000	64.607477 
4852.000000	64.624428 
4851.000000	64.658951 
4850.000000	64.706277 
4849.000000	64.758729 
4848.000000	64.807224 
4847.000000	64.843583 
4846.000000	64.862322 
4845.000000	64.861083 
4844.000000	64.840769 
4843.000000	64.804887 
4842.000000	64.758658 
4841.000000	64.707183 
4840.000000	64.655089 
4839.000000	64.605998 
4838.000000	64.562869 
4837.000000	64.528656 
4836.000000	64.505958 
4835.000000	64.497041 
4834.000000	64.502906 
4833.000000	64.522790 
4832.000000	64.553713 
4831.000000	64.589762 
4830.000000	64.624214 
4829.000000	64.650225 
4828.000000	64.663314 
4827.000000	64.662313 
4826.000000	64.650154 
4825.000000	64.633083 
4824.000000	64.619350 
4823.000000	64.616990 
4822.000000	64.632010 
4821.000000	64.666891 
4820.000000	64.720416 
4819.000000	64.787888 
4818.000000	64.862632 
4817.000000	64.937114 
4816.000000	65.004968 
4815.000000	65.061402 
4814.000000	65.103292 
4813.000000	65.128970 
4812.000000	65.138101 
4811.000000	65.130877 
4810.000000	65.107822 
4809.000000	65.069818 
4808.000000	65.019321 
4807.000000	64.959621 
4806.000000	64.895439 
4805.000000	64.831686 
4804.000000	64.773535 
4803.000000	64.725160 
4802.000000	64.689421 
4801.000000	64.667153 
4800.000000	64.656925 
4799.000000	64.655947 
4798.000000	64.660668 
4797.000000	64.667677 
4796.000000	64.674162 
4795.000000	64.679002 
4794.000000	64.682841 
4793.000000	64.687633 
4792.000000	64.695978 
4791.000000	64.710974 
4790.000000	64.735698 
4789.000000	64.772057 
4788.000000	64.820766 
4787.000000	64.881443 
4786.000000	64.952516 
4785.000000	65.030932 
4784.000000	65.112328 
4783.000000	65.192317 
4782.000000	65.265631 
4781.000000	65.327286 
4780.000000	65.372371 
4779.000000	65.397047 
4778.000000	65.398812 
4777.000000	65.377545 
4776.000000	65.335297 
4775.000000	65.276479 
4774.000000	65.207314 
4773.000000	65.135908 
4772.000000	65.069866 
4771.000000	65.015387 
4770.000000	64.975786 
4769.000000	64.951610 
4768.000000	64.939713 
4767.000000	64.934372 
4766.000000	64.928603 
4765.000000	64.915895 
4764.000000	64.892077 
4763.000000	64.856457 
4762.000000	64.811348 
4761.000000	64.761519 
4760.000000	64.712667 
4759.000000	64.669775 
4758.000000	64.635181 
4757.000000	64.608502 
4756.000000	64.587187 
4755.000000	64.567518 
4754.000000	64.545845 
4753.000000	64.520382 
4752.000000	64.492154 
4751.000000	64.465117 
4750.000000	64.444565 
4749.000000	64.436697 
4748.000000	64.446234 
4747.000000	64.475941 
4746.000000	64.525032 
4745.000000	64.590048 
4744.000000	64.665365 
4743.000000	64.744448 
4742.000000	64.821004 
4741.000000	64.889216 
4740.000000	64.944362 
4739.000000	64.983105 
4738.000000	65.003752 
4737.000000	65.006542 
4736.000000	64.993071 
4735.000000	64.966773 
4734.000000	64.931726 
4733.000000	64.892363 
4732.000000	64.852190 
4731.000000	64.813923 
4730.000000	64.778971 
4729.000000	64.747357 
4728.000000	64.718723 
4727.000000	64.693164 
4726.000000	64.671850 
4725.000000	64.656758 
4724.000000	64.650678 
4723.000000	64.655947 
4722.000000	64.673614 
4721.000000	64.701747 
4720.000000	64.736318 
4719.000000	64.771056 
4718.000000	64.800167 
4717.000000	64.819669 
4716.000000	64.828586 
4715.000000	64.829254 
4714.000000	64.825344 
4713.000000	64.820456 
4712.000000	64.816045 
4711.000000	64.810800 
4710.000000	64.801096 
4709.000000	64.782786 
4708.000000	64.752984 
4707.000000	64.712047 
4706.000000	64.664745 
4705.000000	64.619445 
4704.000000	64.585924 
4703.000000	64.573216 
4702.000000	64.586400 
4701.000000	64.625835 
4700.000000	64.686059 
4699.000000	64.758062 
4698.000000	64.831829 
4697.000000	64.898109 
4696.000000	64.951276 
4695.000000	64.988756 
4694.000000	65.010690 
4693.000000	65.018939 
4692.000000	65.015125 
4691.000000	65.001392 
4690.000000	64.979672 
4689.000000	64.953255 
4688.000000	64.927124 
4687.000000	64.907169 
4686.000000	64.899349 
4685.000000	64.907908 
4684.000000	64.933991 
4683.000000	64.974474 
4682.000000	65.022230 
4681.000000	65.067362 
4680.000000	65.099287 
4679.000000	65.109610 
4678.000000	65.094041 
4677.000000	65.053892 
4676.000000	64.995145 
4675.000000	64.926838 
4674.000000	64.858484 
4673.000000	64.797735 
4672.000000	64.748406 
4671.000000	64.710068 
4670.000000	64.679074 
4669.000000	64.650774 
4668.000000	64.621496 
4667.000000	64.589786 
4666.000000	64.557886 
4665.000000	64.530372 
4664.000000	64.514374 
4663.000000	64.516925 
4662.000000	64.543080 
4661.000000	64.593791 
4660.000000	64.665365 
4659.000000	64.749431 
4658.000000	64.834618 
4657.000000	64.908742 
4656.000000	64.961528 
4655.000000	64.986777 
4654.000000	64.983272 
4653.000000	64.954757 
4652.000000	64.908480 
4651.000000	64.853715 
4650.000000	64.799094 
4649.000000	64.752006 
4648.000000	64.717841 
4647.000000	64.700269 
4646.000000	64.701509 
4645.000000	64.723038 
4644.000000	64.765977 
4643.000000	64.830660 
4642.000000	64.915943 
4641.000000	65.018320 
4640.000000	65.130925 
4639.000000	65.244340 
4638.000000	65.347504 
4637.000000	65.429687 
4636.000000	65.482354 
4635.000000	65.501308 
4634.000000	65.487599 
4633.000000	65.446662 
4632.000000	65.386843 
4631.000000	65.317654 
4630.000000	65.247535 
4629.000000	65.182709 
4628.000000	65.126204 
4627.000000	65.078711 
4626.000000	65.038752 
4625.000000	65.004324 
4624.000000	64.973187 
4623.000000	64.943861 
4622.000000	64.915466 
4621.000000	64.887166 
4620.000000	64.858698 
4619.000000	64.829015 
4618.000000	64.797854 
4617.000000	64.764857 
4616.000000	64.731144 
4615.000000	64.698696 
4614.000000	64.671111 
4613.000000	64.652681 
4612.000000	64.647722 
4611.000000	64.658784 
4610.000000	64.686870 
4609.000000	64.730668 
4608.000000	64.786529 
4607.000000	64.848875 
4606.000000	64.911341 
4605.000000	64.968156 
4604.000000	65.014839 
4603.000000	65.049123 
4602.000000	65.071463 
4601.000000	65.084743 
4600.000000	65.093779 
4599.000000	65.103936 
4598.000000	65.119457 
4597.000000	65.141940 
4596.000000	65.171074 
4595.000000	65.203642 
4594.000000	65.234971 
4593.000000	65.259408 
4592.000000	65.272784 
4591.000000	65.272355 
4590.000000	65.257501 
4589.000000	65.229749 
4588.000000	65.192508 
4587.000000	65.149831 
4586.000000	65.105652 
4585.000000	65.063214 
4584.000000	65.024805 
4583.000000	64.991831 
4582.000000	64.965081 
4581.000000	64.944934 
4580.000000	64.931583 
4579.000000	64.924883 
4578.000000	64.924788 
4577.000000	64.930391 
4576.000000	64.940142 
4575.000000	64.952874 
4574.000000	64.967918 
4573.000000	64.984583 
4572.000000	65.002584 
4571.000000	65.021800 
4570.000000	65.042304 
4569.000000	65.063548 
4568.000000	65.084886 
4567.000000	65.105605 
4566.000000	65.125465 
4565.000000	65.145158 
4564.000000	65.165877 
4563.000000	65.188837 
4562.000000	65.214920 
4561.000000	65.244364 
4560.000000	65.276265 
4559.000000	65.308666 
4558.000000	65.338587 
4557.000000	65.363144 
4556.000000	65.379190 
4555.000000	65.384244 
4554.000000	65.376639 
4553.000000	65.356087 
4552.000000	65.322709 
4551.000000	65.276956 
4550.000000	65.219783 
4549.000000	65.152740 
4548.000000	65.077710 
4547.000000	64.997315 
4546.000000	64.914941 
4545.000000	64.834928 
4544.000000	64.762043 
4543.000000	64.701437 
4542.000000	64.657378 
4541.000000	64.633822 
4540.000000	64.633440 
4539.000000	64.657711 
4538.000000	64.706063 
4537.000000	64.775848 
4536.000000	64.862370 
4535.000000	64.958930 
4534.000000	65.056657 
4533.000000	65.146350 
4532.000000	65.219259 
4531.000000	65.269398 
4530.000000	65.293836 
4529.000000	65.294575 
4528.000000	65.277886 
4527.000000	65.253639 
4526.000000	65.233016 
4525.000000	65.226435 
4524.000000	65.241098 
4523.000000	65.279221 
4522.000000	65.337777 
4521.000000	65.409016 
4520.000000	65.482616 
4519.000000	65.548181 
4518.000000	65.597677 
4517.000000	65.627050 
4516.000000	65.636467 
4515.000000	65.630388 
4514.000000	65.615367 
4513.000000	65.597414 
4512.000000	65.580201 
4511.000000	65.564656 
4510.000000	65.548777 
4509.000000	65.529632 
4508.000000	65.504169 
4507.000000	65.471410 
4506.000000	65.432500 
4505.000000	65.391278 
4504.000000	65.352463 
4503.000000	65.319943 
4502.000000	65.296578 
4501.000000	65.283083 
4500.000000	65.278053 
4499.000000	65.278601 
4498.000000	65.280270 
4497.000000	65.278458 
4496.000000	65.269255 
4495.000000	65.250682 
4494.000000	65.224099 
4493.000000	65.194201 
4492.000000	65.168190 
4491.000000	65.154361 
4490.000000	65.159559 
4489.000000	65.187382 
4488.000000	65.237712 
4487.000000	65.305805 
4486.000000	65.383148 
4485.000000	65.458536 
4484.000000	65.521121 
4483.000000	65.561246 
4482.000000	65.572619 
4481.000000	65.552997 
4480.000000	65.503525 
4479.000000	65.429782 
4478.000000	65.339589 
4477.000000	65.244340 
4476.000000	65.156745 
4475.000000	65.090751 
4474.000000	65.059638 
4473.000000	65.072536 
4472.000000	65.132427 
4471.000000	65.233945 
4470.000000	65.364599 
4469.000000	65.501546 
4468.000000	65.617537 
4467.000000	65.690469 
4466.000000	65.709972 
4465.000000	65.680813 
4464.000000	65.622305 
4463.000000	65.565586 
4462.000000	65.543913 
4461.000000	65.579915 
4460.000000	65.680217 
4459.000000	65.839934 
4458.000000	66.036558 
4457.000000	66.236066 
4456.000000	66.399097 
4455.000000	66.487383 
4454.000000	66.478157 
4453.000000	66.369414 
4452.000000	66.184329 
4451.000000	65.966773 
4450.000000	65.769004 
4449.000000	65.644240 
4448.000000	65.617060 
4447.000000	65.677022 
4446.000000	65.771770 
4445.000000	65.821647 
4444.000000	65.735626 
4443.000000	65.438580 
4442.000000	64.900755 
4441.000000	64.149498 
4440.000000	63.271641 
4439.000000	62.385964 
4438.000000	61.618328 
4437.000000	61.054873 
4436.000000	60.706543 
4435.000000	60.506319 
4434.000000	60.315680 
4433.000000	59.984207 
4432.000000	59.393644 
4431.000000	58.517026 
4430.000000	57.432723 
4429.000000	56.319594 
4428.000000	55.403113 
4427.000000	54.905390 
4426.000000	54.964995 
4425.000000	55.614733 
4424.000000	56.761360 
4423.000000	58.217859 
4422.000000	59.748744 
4421.000000	61.130547 
4420.000000	62.203073 
4419.000000	62.899708 
4418.000000	63.248896 
4417.000000	63.353347 
4416.000000	63.348031 
4415.000000	63.362193 
4414.000000	63.481903 
4413.000000	63.739538 
4412.000000	64.109396 
4411.000000	64.539647 
4410.000000	64.964818 
4409.000000	65.331721 
4408.000000	65.607357 
4407.000000	65.787148 
4406.000000	65.887475 
4405.000000	65.927958 
4404.000000	65.928697 
4403.000000	65.902829 
4402.000000	65.855574 
4401.000000	65.789842 
4400.000000	65.705609 
4399.000000	65.612792 
4398.000000	65.520739 
4397.000000	65.440273 
4396.000000	65.377235 
4395.000000	65.330862 
4394.000000	65.293979 
4393.000000	65.254807 
4392.000000	65.202140 
4391.000000	65.128779 
4390.000000	65.037083 
4389.000000	64.940166 
4388.000000	64.851403 
4387.000000	64.781236 
4386.000000	64.739298 
4385.000000	64.731788 
4384.000000	64.760088 
4383.000000	64.820671 
4382.000000	64.906215 
4381.000000	65.006709 
4380.000000	65.109395 
4379.000000	65.202379 
4378.000000	65.276741 
4377.000000	65.327858 
4376.000000	65.353322 
4375.000000	65.355253 
4374.000000	65.338945 
4373.000000	65.312623 
4372.000000	65.285611 
4371.000000	65.267372 
4370.000000	65.266489 
4369.000000	65.288901 
4368.000000	65.337562 
4367.000000	65.411019 
4366.000000	65.504026 
4365.000000	65.607833 
4364.000000	65.711975 
4363.000000	65.805149 
4362.000000	65.877246 
4361.000000	65.920853 
4360.000000	65.932440 
4359.000000	65.912580 
4358.000000	65.865921 
4357.000000	65.800428 
4356.000000	65.726017 
4355.000000	65.653061 
4354.000000	65.590167 
4353.000000	65.544128 
4352.000000	65.518045 
4351.000000	65.512132 
4350.000000	65.522909 
4349.000000	65.544652 
4348.000000	65.569925 
4347.000000	65.591311 
4346.000000	65.602540 
4345.000000	65.598797 
4344.000000	65.578150 
4343.000000	65.541481 
4342.000000	65.492105 
4341.000000	65.435004 
4340.000000	65.375590 
4339.000000	65.318965 
4338.000000	65.268683 
4337.000000	65.226578 
4336.000000	65.192937 
4335.000000	65.167236 
4334.000000	65.148615 
4333.000000	65.136647 
4332.000000	65.131545 
4331.000000	65.134358 
4330.000000	65.145826 
4329.000000	65.166211 
4328.000000	65.194249 
4327.000000	65.227365 
4326.000000	65.261411 
4325.000000	65.291905 
4324.000000	65.314579 
4323.000000	65.326976 
4322.000000	65.328955 
4321.000000	65.322780 
4320.000000	65.312600 
4319.000000	65.303063 
4318.000000	65.298414 
4317.000000	65.300536 
4316.000000	65.308809 
4315.000000	65.319800 
4314.000000	65.328335 
4313.000000	65.328955 
4312.000000	65.317606 
4311.000000	65.293264 
4310.000000	65.258502 
4309.000000	65.219211 
4308.000000	65.183115 
4307.000000	65.158414 
4306.000000	65.151739 
4305.000000	65.166544 
4304.000000	65.202140 
4303.000000	65.254020 
4302.000000	65.314483 
4301.000000	65.374422 
4300.000000	65.424823 
4299.000000	65.458345 
4298.000000	65.470695 
4297.000000	65.460968 
4296.000000	65.431499 
4295.000000	65.387034 
4294.000000	65.333604 
4293.000000	65.277338 
4292.000000	65.223622 
4291.000000	65.176606 
4290.000000	65.139007 
4289.000000	65.112066 
4288.000000	65.096092 
4287.000000	65.090727 
4286.000000	65.095353 
4285.000000	65.109205 
4284.000000	65.131139 
4283.000000	65.159249 
4282.000000	65.191006 
4281.000000	65.223121 
4280.000000	65.251898 
4279.000000	65.273594 
4278.000000	65.285539 
4277.000000	65.286564 
4276.000000	65.277385 
4275.000000	65.260338 
4274.000000	65.238833 
4273.000000	65.216565 
4272.000000	65.196514 
4271.000000	65.180969 
4270.000000	65.171360 
4269.000000	65.168571 
4268.000000	65.172863 
4267.000000	65.184402 
4266.000000	65.203762 
4265.000000	65.230989 
4264.000000	65.265464 
4263.000000	65.304851 
4262.000000	65.345454 
4261.000000	65.381932 
4260.000000	65.408539 
4259.000000	65.419864 
4258.000000	65.412378 
4257.000000	65.385365 
4256.000000	65.341424 
4255.000000	65.285825 
4254.000000	65.225458 
4253.000000	65.167331 
4252.000000	65.117120 
4251.000000	65.078449 
4250.000000	65.052390 
4249.000000	65.037798 
4248.000000	65.031814 
4247.000000	65.031027 
4246.000000	65.032172 
4245.000000	65.032458 
4244.000000	65.030264 
4243.000000	65.024352 
4242.000000	65.014171 
4241.000000	64.999198 
4240.000000	64.979124 
4239.000000	64.953398 
4238.000000	64.921879 
4237.000000	64.885067 
4236.000000	64.844536 
4235.000000	64.802980 
4234.000000	64.764237 
4233.000000	64.732360 
4232.000000	64.711117 
4231.000000	64.703059 
4230.000000	64.708757 
4229.000000	64.726495 
4228.000000	64.752817 
4227.000000	64.783120 
4226.000000	64.812350 
4225.000000	64.836215 
4224.000000	64.851951 
4223.000000	64.859104 
4222.000000	64.859056 
4221.000000	64.855217 
4220.000000	64.851927 
4219.000000	64.853596 
4218.000000	64.863801 
4217.000000	64.884328 
4216.000000	64.915204 
4215.000000	64.954185 
4214.000000	64.997673 
4213.000000	65.041136 
4212.000000	65.080142 
4211.000000	65.111303 
4210.000000	65.132880 
4209.000000	65.145230 
4208.000000	65.150499 
4207.000000	65.151858 
4206.000000	65.153169 
4205.000000	65.156984 
4204.000000	65.164327 
4203.000000	65.173840 
4202.000000	65.182662 
4201.000000	65.186810 
4200.000000	65.182566 
4199.000000	65.167403 
4198.000000	65.140819 
4197.000000	65.104079 
4196.000000	65.059781 
4195.000000	65.011143 
4194.000000	64.961004 
4193.000000	64.911460 
4192.000000	64.863610 
4191.000000	64.817810 
4190.000000	64.773964 
4189.000000	64.732265 
4188.000000	64.693689 
4187.000000	64.659833 
4186.000000	64.633011 
4185.000000	64.615368 
4184.000000	64.608788 
4183.000000	64.613580 
4182.000000	64.628744 
4181.000000	64.651584 
4180.000000	64.678120 
4179.000000	64.703583 
4178.000000	64.723324 
4177.000000	64.733529 
4176.000000	64.731955 
4175.000000	64.718222 
4174.000000	64.694333 
4173.000000	64.664244 
4172.000000	64.633369 
4171.000000	64.607334 
4170.000000	64.590978 
4169.000000	64.587235 
4168.000000	64.596581 
4167.000000	64.617013 
4166.000000	64.644432 
4165.000000	64.673805 
4164.000000	64.700102 
4163.000000	64.719653 
4162.000000	64.730477 
4161.000000	64.732837 
4160.000000	64.728832 
4159.000000	64.722061 
