PE IR       SPECTRUM    SPECTRUM    ASCII       PEDS        1.60        
  -1
BZ60B5~1.ASC
17/04/07
21:18:20.00
17/04/07
21:18:20.00
tln
$BZ1503107-1_t0098$<tbV0>[-10.4,7.8,8.0,0.0,27,1,0]
370.000000
64









2002,4.07    
MIRTGS : RIGHTBACK : INTERNAL 2
MIR : ON : INTERNAL 2
OPTKBR

0.200000
8
8.000000
FILLER
RATIO
SPECTRUM
UNLOCKED 256

DOUBLE
64
COMBINED
1
0
0


1.000000
RATIO


1
0
TRUE
51149
0
LEFT NOT FITTED RIGHT NOT FITTED 0
NONE
NONE
15600
12.000000
4.427000
51148
TRUE
1 0 8 72 0 0 0 0 

15798.010000






#HDR
-1
-1
#GR
CM-1
%T
0.00002384185791015625
0.0
5000.000000
-1.000000
4631
8
74.046039
53.074955
#DATA
5000.000000	65.968680 
4999.000000	66.001820 
4998.000000	66.055583 
4997.000000	66.114640 
4996.000000	66.159772 
4995.000000	66.174387 
4994.000000	66.144204 
4993.000000	66.061019 
4992.000000	65.922045 
4991.000000	65.730166 
4990.000000	65.493154 
4989.000000	65.223717 
4988.000000	64.935708 
4987.000000	64.642548 
4986.000000	64.357614 
4985.000000	64.094471 
4984.000000	63.865780 
4983.000000	63.683462 
4982.000000	63.560318 
4981.000000	63.508605 
4980.000000	63.538384 
4979.000000	63.654160 
4978.000000	63.851284 
4977.000000	64.113903 
4976.000000	64.415764 
4975.000000	64.722371 
4974.000000	64.992952 
4973.000000	65.189814 
4972.000000	65.285205 
4971.000000	65.269041 
4970.000000	65.149021 
4969.000000	64.953255 
4968.000000	64.723706 
4967.000000	64.510107 
4966.000000	64.358472 
4965.000000	64.304900 
4964.000000	64.369201 
4963.000000	64.553451 
4962.000000	64.843034 
4961.000000	65.212893 
4960.000000	65.632796 
4959.000000	66.075038 
4958.000000	66.517829 
4957.000000	66.945958 
4956.000000	67.348170 
4955.000000	67.716765 
4954.000000	68.042421 
4953.000000	68.310689 
4952.000000	68.499970 
4951.000000	68.588948 
4950.000000	68.557262 
4949.000000	68.395185 
4948.000000	68.103456 
4947.000000	67.700695 
4946.000000	67.217016 
4945.000000	66.693401 
4944.000000	66.171407 
4943.000000	65.687990 
4942.000000	65.269184 
4941.000000	64.929461 
4940.000000	64.670610 
4939.000000	64.484405 
4938.000000	64.357399 
4937.000000	64.273238 
4936.000000	64.219760 
4935.000000	64.186358 
4934.000000	64.172291 
4933.000000	64.181709 
4932.000000	64.225149 
4931.000000	64.312219 
4930.000000	64.452314 
4929.000000	64.649128 
4928.000000	64.897608 
4927.000000	65.182042 
4926.000000	65.479803 
4925.000000	65.762948 
4924.000000	66.002202 
4923.000000	66.171193 
4922.000000	66.251635 
4921.000000	66.236615 
4920.000000	66.131258 
4919.000000	65.953373 
4918.000000	65.730834 
4917.000000	65.497255 
4916.000000	65.289258 
4915.000000	65.137362 
4914.000000	65.062332 
4913.000000	65.070199 
4912.000000	65.156030 
4911.000000	65.300178 
4910.000000	65.472555 
4909.000000	65.639019 
4908.000000	65.768003 
4907.000000	65.836501 
4906.000000	65.833139 
4905.000000	65.761137 
4904.000000	65.635871 
4903.000000	65.481638 
4902.000000	65.325403 
4901.000000	65.191841 
4900.000000	65.097737 
4899.000000	65.050125 
4898.000000	65.044951 
4897.000000	65.069580 
4896.000000	65.105915 
4895.000000	65.134644 
4894.000000	65.140390 
4893.000000	65.111804 
4892.000000	65.047550 
4891.000000	64.955019 
4890.000000	64.850735 
4889.000000	64.754581 
4888.000000	64.687132 
4887.000000	64.664292 
4886.000000	64.693760 
4885.000000	64.773654 
4884.000000	64.891719 
4883.000000	65.028071 
4882.000000	65.159749 
4881.000000	65.265750 
4880.000000	65.331983 
4879.000000	65.353441 
4878.000000	65.335702 
4877.000000	65.292406 
4876.000000	65.242886 
4875.000000	65.207052 
4874.000000	65.201258 
4873.000000	65.234279 
4872.000000	65.306425 
4871.000000	65.408897 
4870.000000	65.527629 
4869.000000	65.645432 
4868.000000	65.745210 
4867.000000	65.813064 
4866.000000	65.840554 
4865.000000	65.825772 
4864.000000	65.772271 
4863.000000	65.688347 
4862.000000	65.585088 
4861.000000	65.474390 
4860.000000	65.367388 
4859.000000	65.272927 
4858.000000	65.197730 
4857.000000	65.145492 
4856.000000	65.117311 
4855.000000	65.112113 
4854.000000	65.127325 
4853.000000	65.159702 
4852.000000	65.205645 
4851.000000	65.260910 
4850.000000	65.320324 
4849.000000	65.378236 
4848.000000	65.428805 
4847.000000	65.466022 
4846.000000	65.484642 
4845.000000	65.481543 
4844.000000	65.456819 
4843.000000	65.414071 
4842.000000	65.360260 
4841.000000	65.304684 
4840.000000	65.257143 
4839.000000	65.225887 
4838.000000	65.216016 
4837.000000	65.228843 
4836.000000	65.261673 
4835.000000	65.308570 
4834.000000	65.362215 
4833.000000	65.415525 
4832.000000	65.463209 
4831.000000	65.502882 
4830.000000	65.534400 
4829.000000	65.558409 
4828.000000	65.575885 
4827.000000	65.587329 
4826.000000	65.592336 
4825.000000	65.589666 
4824.000000	65.578293 
4823.000000	65.558052 
4822.000000	65.529894 
4821.000000	65.496206 
4820.000000	65.459704 
4819.000000	65.423083 
4818.000000	65.388226 
4817.000000	65.356063 
4816.000000	65.325999 
4815.000000	65.296983 
4814.000000	65.267896 
4813.000000	65.238809 
4812.000000	65.210843 
4811.000000	65.186882 
4810.000000	65.170264 
4809.000000	65.164971 
4808.000000	65.173816 
4807.000000	65.198683 
4806.000000	65.239357 
4805.000000	65.293860 
4804.000000	65.358352 
4803.000000	65.427374 
4802.000000	65.495061 
4801.000000	65.555071 
4800.000000	65.601563 
4799.000000	65.629863 
4798.000000	65.637350 
4797.000000	65.623855 
4796.000000	65.591788 
4795.000000	65.545463 
4794.000000	65.490221 
4793.000000	65.431904 
4792.000000	65.375971 
4791.000000	65.326476 
4790.000000	65.285730 
4789.000000	65.254545 
4788.000000	65.232634 
4787.000000	65.219426 
4786.000000	65.214371 
4785.000000	65.217137 
4784.000000	65.227556 
4783.000000	65.245079 
4782.000000	65.268492 
4781.000000	65.295195 
4780.000000	65.321254 
4779.000000	65.342068 
4778.000000	65.353155 
4777.000000	65.351009 
4776.000000	65.334248 
4775.000000	65.303874 
4774.000000	65.263819 
4773.000000	65.219879 
4772.000000	65.179371 
4771.000000	65.149736 
4770.000000	65.137314 
4769.000000	65.145897 
4768.000000	65.176701 
4767.000000	65.227937 
4766.000000	65.294790 
4765.000000	65.370035 
4764.000000	65.444517 
4763.000000	65.508460 
4762.000000	65.552806 
4761.000000	65.570640 
4760.000000	65.558242 
4759.000000	65.515780 
4758.000000	65.447878 
4757.000000	65.362453 
4756.000000	65.269684 
4755.000000	65.179991 
4754.000000	65.102577 
4753.000000	65.044188 
4752.000000	65.008473 
4751.000000	64.995980 
4750.000000	65.004539 
4749.000000	65.030264 
4748.000000	65.068578 
4747.000000	65.114688 
4746.000000	65.163874 
4745.000000	65.211629 
4744.000000	65.253496 
4743.000000	65.285420 
4742.000000	65.303826 
4741.000000	65.306520 
4740.000000	65.292882 
4739.000000	65.265011 
4738.000000	65.227317 
4737.000000	65.185761 
4736.000000	65.146684 
4735.000000	65.115737 
4734.000000	65.096592 
4733.000000	65.090632 
4732.000000	65.096902 
4731.000000	65.112495 
4730.000000	65.133285 
4729.000000	65.154719 
4728.000000	65.172815 
4727.000000	65.184545 
4726.000000	65.188527 
4725.000000	65.184521 
4724.000000	65.173697 
4723.000000	65.158057 
4722.000000	65.140247 
4721.000000	65.122652 
4720.000000	65.107488 
4719.000000	65.096521 
4718.000000	65.090990 
4717.000000	65.091609 
4716.000000	65.098690 
4715.000000	65.112018 
4714.000000	65.130949 
4713.000000	65.154314 
4712.000000	65.180492 
4711.000000	65.207481 
4710.000000	65.232658 
4709.000000	65.253257 
4708.000000	65.266704 
4707.000000	65.271496 
4706.000000	65.267682 
4705.000000	65.257263 
4704.000000	65.243840 
4703.000000	65.231633 
4702.000000	65.224742 
4701.000000	65.225505 
4700.000000	65.234184 
4699.000000	65.248155 
4698.000000	65.263295 
4697.000000	65.274238 
4696.000000	65.276384 
4695.000000	65.266585 
4694.000000	65.244007 
4693.000000	65.210676 
4692.000000	65.170764 
4691.000000	65.130734 
4690.000000	65.097665 
4689.000000	65.078854 
4688.000000	65.080094 
4687.000000	65.105557 
4686.000000	65.156698 
4685.000000	65.232038 
4684.000000	65.326738 
4683.000000	65.433192 
4682.000000	65.541100 
4681.000000	65.639042 
4680.000000	65.715718 
4679.000000	65.761566 
4678.000000	65.770483 
4677.000000	65.740990 
4676.000000	65.676856 
4675.000000	65.586543 
4674.000000	65.482115 
4673.000000	65.377616 
4672.000000	65.286564 
4671.000000	65.220475 
4670.000000	65.186476 
4669.000000	65.187096 
4668.000000	65.219235 
4667.000000	65.275764 
4666.000000	65.346050 
4665.000000	65.418195 
4664.000000	65.481042 
4663.000000	65.525841 
4662.000000	65.547871 
4661.000000	65.546274 
4660.000000	65.524458 
4659.000000	65.488934 
4658.000000	65.448069 
4657.000000	65.410351 
4656.000000	65.383028 
4655.000000	65.370845 
4654.000000	65.375757 
4653.000000	65.396547 
4652.000000	65.430021 
4651.000000	65.471267 
4650.000000	65.514755 
4649.000000	65.554928 
4648.000000	65.587735 
4647.000000	65.610313 
4646.000000	65.620851 
4645.000000	65.618586 
4644.000000	65.603804 
4643.000000	65.577578 
4642.000000	65.542006 
4641.000000	65.499711 
4640.000000	65.454053 
4639.000000	65.408778 
4638.000000	65.368175 
4637.000000	65.335965 
4636.000000	65.315055 
4635.000000	65.306520 
4634.000000	65.309786 
4633.000000	65.322756 
4632.000000	65.342378 
4631.000000	65.365290 
4630.000000	65.388655 
4629.000000	65.410828 
4628.000000	65.431332 
4627.000000	65.450906 
4626.000000	65.470480 
4625.000000	65.490055 
4624.000000	65.507626 
4623.000000	65.519857 
4622.000000	65.521645 
4621.000000	65.507888 
4620.000000	65.474605 
4619.000000	65.420126 
4618.000000	65.346169 
4617.000000	65.258407 
4616.000000	65.165328 
4615.000000	65.076518 
4614.000000	65.001368 
4613.000000	64.947342 
4612.000000	64.918565 
4611.000000	64.915251 
4610.000000	64.934015 
4609.000000	64.968824 
4608.000000	65.012621 
4607.000000	65.058660 
4606.000000	65.102005 
4605.000000	65.139889 
4604.000000	65.172266 
4603.000000	65.200972 
4602.000000	65.228772 
4601.000000	65.258169 
4600.000000	65.290880 
4599.000000	65.326905 
4598.000000	65.364599 
4597.000000	65.400195 
4596.000000	65.429377 
4595.000000	65.446972 
4594.000000	65.449070 
4593.000000	65.432429 
4592.000000	65.395951 
4591.000000	65.339922 
4590.000000	65.266680 
4589.000000	65.179944 
4588.000000	65.084671 
4587.000000	64.986681 
4586.000000	64.892411 
4585.000000	64.807987 
4584.000000	64.738941 
4583.000000	64.689016 
4582.000000	64.659333 
4581.000000	64.648866 
4580.000000	64.654612 
4579.000000	64.672970 
4578.000000	64.700531 
4577.000000	64.735174 
4576.000000	64.776039 
4575.000000	64.823246 
4574.000000	64.876818 
4573.000000	64.935469 
4572.000000	64.995574 
4571.000000	65.051198 
4570.000000	65.094399 
4569.000000	65.117216 
4568.000000	65.113019 
4567.000000	65.078735 
4566.000000	65.015220 
4565.000000	64.928340 
4564.000000	64.827036 
4563.000000	64.721941 
4562.000000	64.623355 
4561.000000	64.539313 
4560.000000	64.474892 
4559.000000	64.431500 
4558.000000	64.408183 
4557.000000	64.402747 
4556.000000	64.412498 
4555.000000	64.434719 
4554.000000	64.467525 
4553.000000	64.509415 
4552.000000	64.559197 
4551.000000	64.615154 
4550.000000	64.675283 
4549.000000	64.736843 
4548.000000	64.796876 
4547.000000	64.852380 
4546.000000	64.900922 
4545.000000	64.941048 
4544.000000	64.972710 
4543.000000	64.996933 
4542.000000	65.015578 
4541.000000	65.030479 
4540.000000	65.043520 
4539.000000	65.055632 
4538.000000	65.066766 
4537.000000	65.076136 
4536.000000	65.082907 
4535.000000	65.086412 
4534.000000	65.086841 
4533.000000	65.085101 
4532.000000	65.082526 
4531.000000	65.081048 
4530.000000	65.082359 
4529.000000	65.087890 
4528.000000	65.098285 
4527.000000	65.113520 
4526.000000	65.132808 
4525.000000	65.154838 
4524.000000	65.178108 
4523.000000	65.200638 
4522.000000	65.220499 
4521.000000	65.236759 
4520.000000	65.249180 
4519.000000	65.258049 
4518.000000	65.263557 
4517.000000	65.265321 
4516.000000	65.261960 
4515.000000	65.250802 
4514.000000	65.228962 
4513.000000	65.194916 
4512.000000	65.148973 
4511.000000	65.093898 
4510.000000	65.034365 
4509.000000	64.976310 
4508.000000	64.925408 
4507.000000	64.885544 
4506.000000	64.858269 
4505.000000	64.842891 
4504.000000	64.836549 
4503.000000	64.835214 
4502.000000	64.834213 
4501.000000	64.829206 
4500.000000	64.816927 
4499.000000	64.795732 
4498.000000	64.764928 
4497.000000	64.724755 
4496.000000	64.676427 
4495.000000	64.622092 
4494.000000	64.565992 
4493.000000	64.513540 
4492.000000	64.471244 
4491.000000	64.444065 
4490.000000	64.433908 
4489.000000	64.438557 
4488.000000	64.450001 
4487.000000	64.458012 
4486.000000	64.454221 
4485.000000	64.433360 
4484.000000	64.397144 
4483.000000	64.350342 
4482.000000	64.297342 
4481.000000	64.242076 
4480.000000	64.184308 
4479.000000	64.124584 
4478.000000	64.064526 
4477.000000	64.010000 
4476.000000	63.973617 
4475.000000	63.966822 
4474.000000	63.994216 
4473.000000	64.056992 
4472.000000	64.152598 
4471.000000	64.270615 
4470.000000	64.394426 
4469.000000	64.506936 
4468.000000	64.592981 
4467.000000	64.646553 
4466.000000	64.668297 
4465.000000	64.661312 
4464.000000	64.627647 
4463.000000	64.560914 
4462.000000	64.453053 
4461.000000	64.293384 
4460.000000	64.082312 
4459.000000	63.843870 
4458.000000	63.617300 
4457.000000	63.459038 
4456.000000	63.415074 
4455.000000	63.499116 
4454.000000	63.695764 
4453.000000	63.942432 
4452.000000	64.181327 
4451.000000	64.368963 
4450.000000	64.518165 
4449.000000	64.696812 
4448.000000	65.019607 
4447.000000	65.614748 
4446.000000	66.571044 
4445.000000	67.900323 
4444.000000	69.503140 
4443.000000	71.178674 
4442.000000	72.660684 
4441.000000	73.680567 
4440.000000	74.046039 
4439.000000	73.689126 
4438.000000	72.696876 
4437.000000	71.282148 
4436.000000	69.720816 
4435.000000	68.285560 
4434.000000	67.171573 
4433.000000	66.470360 
4432.000000	66.179895 
4431.000000	66.214990 
4430.000000	66.477203 
4429.000000	66.857051 
4428.000000	67.267036 
4427.000000	67.645621 
4426.000000	67.935490 
4425.000000	68.109750 
4424.000000	68.151021 
4423.000000	68.067121 
4422.000000	67.882204 
4421.000000	67.631912 
4420.000000	67.356705 
4419.000000	67.088890 
4418.000000	66.847085 
4417.000000	66.638565 
4416.000000	66.462731 
4415.000000	66.313242 
4414.000000	66.183328 
4413.000000	66.068220 
4412.000000	65.968084 
4411.000000	65.882158 
4410.000000	65.811157 
4409.000000	65.759682 
4408.000000	65.732979 
4407.000000	65.733003 
4406.000000	65.756940 
4405.000000	65.793371 
4404.000000	65.826177 
4403.000000	65.841865 
4402.000000	65.828585 
4401.000000	65.775775 
4400.000000	65.679407 
4399.000000	65.543556 
4398.000000	65.379214 
4397.000000	65.202188 
4396.000000	65.030193 
4395.000000	64.878630 
4394.000000	64.759397 
4393.000000	64.679551 
4392.000000	64.640140 
4391.000000	64.637064 
4390.000000	64.661169 
4389.000000	64.700579 
4388.000000	64.743137 
4387.000000	64.778900 
4386.000000	64.800763 
4385.000000	64.805889 
4384.000000	64.796280 
4383.000000	64.778017 
4382.000000	64.758753 
4381.000000	64.745974 
4380.000000	64.745545 
4379.000000	64.759993 
4378.000000	64.787936 
4377.000000	64.824342 
4376.000000	64.862537 
4375.000000	64.895892 
4374.000000	64.919495 
4373.000000	64.931583 
4372.000000	64.933633 
4371.000000	64.930129 
4370.000000	64.926719 
4369.000000	64.928984 
4368.000000	64.940834 
4367.000000	64.963436 
4366.000000	64.994788 
4365.000000	65.031003 
4364.000000	65.067481 
4363.000000	65.099263 
4362.000000	65.122127 
4361.000000	65.133595 
4360.000000	65.133547 
4359.000000	65.123605 
4358.000000	65.107011 
4357.000000	65.087962 
4356.000000	65.070700 
4355.000000	65.059423 
4354.000000	65.056777 
4353.000000	65.064120 
4352.000000	65.080261 
4351.000000	65.101885 
4350.000000	65.123629 
4349.000000	65.139317 
4348.000000	65.142869 
4347.000000	65.129923 
4346.000000	65.098881 
4345.000000	65.051221 
4344.000000	64.991569 
4343.000000	64.926719 
4342.000000	64.864397 
4341.000000	64.811301 
4340.000000	64.772677 
4339.000000	64.751553 
4338.000000	64.748644 
4337.000000	64.762663 
4336.000000	64.790797 
4335.000000	64.829587 
4334.000000	64.875078 
4333.000000	64.923238 
4332.000000	64.970588 
4331.000000	65.014314 
4330.000000	65.051984 
4329.000000	65.082025 
4328.000000	65.103793 
4327.000000	65.117430 
4326.000000	65.124225 
4325.000000	65.126013 
4324.000000	65.125012 
4323.000000	65.122818 
4322.000000	65.120959 
4321.000000	65.119791 
4320.000000	65.118765 
4319.000000	65.116429 
4318.000000	65.111136 
4317.000000	65.101552 
4316.000000	65.087294 
4315.000000	65.069079 
4314.000000	65.048837 
4313.000000	65.029096 
4312.000000	65.012311 
4311.000000	65.000510 
4310.000000	64.994573 
4309.000000	64.994025 
4308.000000	64.997053 
4307.000000	65.000915 
4306.000000	65.002942 
4305.000000	65.000820 
4304.000000	64.993572 
4303.000000	64.981484 
4302.000000	64.966464 
4301.000000	64.951920 
4300.000000	64.942193 
4299.000000	64.941310 
4298.000000	64.952301 
4297.000000	64.977049 
4296.000000	65.015101 
4295.000000	65.063929 
4294.000000	65.118789 
4293.000000	65.173840 
4292.000000	65.222740 
4291.000000	65.260028 
4290.000000	65.281939 
4289.000000	65.287160 
4288.000000	65.276908 
4287.000000	65.254783 
4286.000000	65.225481 
4285.000000	65.193748 
4284.000000	65.163493 
4283.000000	65.137434 
4282.000000	65.117096 
4281.000000	65.103006 
4280.000000	65.095329 
4279.000000	65.094041 
4278.000000	65.098714 
4277.000000	65.108346 
4276.000000	65.120816 
4275.000000	65.132880 
4274.000000	65.140342 
4273.000000	65.138769 
4272.000000	65.124416 
4271.000000	65.095233 
4270.000000	65.051531 
4269.000000	64.996528 
4268.000000	64.935684 
4267.000000	64.876031 
4266.000000	64.824748 
4265.000000	64.788126 
4264.000000	64.769816 
4263.000000	64.771080 
4262.000000	64.790463 
4261.000000	64.824390 
4260.000000	64.867901 
4259.000000	64.915466 
4258.000000	64.961767 
4257.000000	65.002059 
4256.000000	65.032577 
4255.000000	65.051031 
4254.000000	65.056443 
4253.000000	65.049600 
4252.000000	65.032601 
4251.000000	65.008640 
4250.000000	64.981579 
4249.000000	64.955639 
4248.000000	64.934873 
4247.000000	64.922690 
4246.000000	64.921140 
4245.000000	64.931249 
4244.000000	64.951825 
4243.000000	64.980077 
4242.000000	65.011572 
4241.000000	65.041136 
4240.000000	65.063834 
4239.000000	65.075731 
4238.000000	65.075278 
4237.000000	65.063714 
4236.000000	65.044927 
4235.000000	65.024423 
4234.000000	65.008258 
4233.000000	65.001797 
4232.000000	65.007877 
4231.000000	65.026259 
4230.000000	65.053224 
4229.000000	65.082669 
4228.000000	65.107822 
4227.000000	65.123057 
4226.000000	65.125179 
4225.000000	65.114235 
4224.000000	65.093994 
4223.000000	65.070796 
4222.000000	65.051507 
4221.000000	65.042042 
4220.000000	65.045690 
4219.000000	65.062737 
4218.000000	65.090274 
4217.000000	65.123319 
4216.000000	65.156245 
4215.000000	65.184593 
4214.000000	65.206074 
4213.000000	65.221142 
4212.000000	65.232181 
4211.000000	65.242886 
4210.000000	65.256762 
4209.000000	65.276074 
4208.000000	65.300703 
4207.000000	65.328216 
4206.000000	65.354728 
4205.000000	65.375494 
4204.000000	65.386295 
4203.000000	65.384364 
4202.000000	65.369081 
4201.000000	65.341591 
4200.000000	65.304303 
4199.000000	65.260148 
4198.000000	65.211796 
4197.000000	65.161156 
4196.000000	65.109419 
4195.000000	65.057158 
4194.000000	65.004968 
4193.000000	64.953875 
4192.000000	64.906191 
4191.000000	64.864945 
4190.000000	64.834284 
4189.000000	64.818120 
4188.000000	64.820432 
4187.000000	64.843058 
4186.000000	64.886355 
4185.000000	64.948129 
4184.000000	65.024352 
4183.000000	65.109014 
4182.000000	65.195703 
4181.000000	65.278315 
4180.000000	65.352249 
4179.000000	65.414309 
4178.000000	65.463590 
4177.000000	65.500855 
4176.000000	65.527915 
4175.000000	65.546798 
4174.000000	65.559244 
4173.000000	65.566468 
4172.000000	65.568757 
4171.000000	65.565967 
4170.000000	65.557861 
4169.000000	65.544581 
4168.000000	65.527272 
4167.000000	65.507912 
4166.000000	65.488791 
4165.000000	65.472173 
4164.000000	65.459942 
4163.000000	65.453171 
4162.000000	65.451669 
4161.000000	65.454268 
4160.000000	65.459394 
4159.000000	65.465450 
