PE IR       SPECTRUM    SPECTRUM    ASCII       PEDS        1.60        
  -1
BZ6A23~1.ASC
17/04/07
14:58:05.00
17/04/07
14:58:05.00
tln
$BZ1503107-1_t0022$<tbV0>[-13.0,-10.4,8.0,0.0,27,1,0]
370.000000
64









2002,4.07    
MIRTGS : RIGHTBACK : INTERNAL 2
MIR : ON : INTERNAL 2
OPTKBR

0.200000
8
8.000000
FILLER
RATIO
SPECTRUM
UNLOCKED 256

DOUBLE
64
COMBINED
1
0
0


1.000000
RATIO


1
0
TRUE
51149
0
LEFT NOT FITTED RIGHT NOT FITTED 0
NONE
NONE
15600
12.000000
4.427000
51148
TRUE
1 0 8 72 0 0 0 0 

15798.010000






#HDR
-1
-1
#GR
CM-1
%T
0.00002384185791015625
0.0
5000.000000
-1.000000
4631
8
109.254074
47.268176
#DATA
5000.000000	64.686059  
4999.000000	64.830422  
4998.000000	64.947247  
4997.000000	65.037226  
4996.000000	65.100264  
4995.000000	65.136814  
4994.000000	65.146279  
4993.000000	65.130329  
4992.000000	65.090870  
4991.000000	65.032196  
4990.000000	64.959526  
4989.000000	64.880561  
4988.000000	64.802026  
4987.000000	64.729237  
4986.000000	64.664840  
4985.000000	64.609193  
4984.000000	64.560317  
4983.000000	64.515161  
4982.000000	64.471578  
4981.000000	64.429283  
4980.000000	64.388942  
4979.000000	64.352059  
4978.000000	64.319849  
4977.000000	64.292955  
4976.000000	64.270067  
4975.000000	64.249849  
4974.000000	64.230036  
4973.000000	64.210748  
4972.000000	64.195823  
4971.000000	64.192271  
4970.000000	64.208126  
4969.000000	64.250254  
4968.000000	64.321851  
4967.000000	64.420533  
4966.000000	64.536261  
4965.000000	64.655518  
4964.000000	64.764380  
4963.000000	64.852070  
4962.000000	64.913868  
4961.000000	64.950847  
4960.000000	64.969062  
4959.000000	64.976096  
4958.000000	64.978528  
4957.000000	64.978551  
4956.000000	64.973425  
4955.000000	64.957833  
4954.000000	64.926552  
4953.000000	64.877271  
4952.000000	64.812779  
4951.000000	64.742159  
4950.000000	64.678788  
4949.000000	64.636683  
4948.000000	64.626908  
4947.000000	64.653301  
4946.000000	64.711761  
4945.000000	64.791321  
4944.000000	64.875960  
4943.000000	64.949727  
4942.000000	64.998412  
4941.000000	65.012693  
4940.000000	64.988946  
4939.000000	64.928698  
4938.000000	64.838743  
4937.000000	64.728736  
4936.000000	64.610648  
4935.000000	64.496254  
4934.000000	64.397239  
4933.000000	64.323949  
4932.000000	64.284491  
4931.000000	64.283537  
4930.000000	64.322829  
4929.000000	64.400601  
4928.000000	64.511108  
4927.000000	64.644837  
4926.000000	64.788579  
4925.000000	64.927124  
4924.000000	65.044808  
4923.000000	65.127801  
4922.000000	65.165519  
4921.000000	65.153121  
4920.000000	65.092420  
4919.000000	64.992332  
4918.000000	64.867758  
4917.000000	64.737105  
4916.000000	64.621138  
4915.000000	64.537048  
4914.000000	64.496493  
4913.000000	64.501929  
4912.000000	64.547705  
4911.000000	64.620399  
4910.000000	64.702987  
4909.000000	64.777684  
4908.000000	64.829492  
4907.000000	64.849185  
4906.000000	64.834284  
4905.000000	64.789366  
4904.000000	64.723634  
4903.000000	64.649844  
4902.000000	64.580941  
4901.000000	64.528417  
4900.000000	64.499878  
4899.000000	64.498114  
4898.000000	64.520788  
4897.000000	64.561295  
4896.000000	64.611268  
4895.000000	64.661455  
4894.000000	64.705634  
4893.000000	64.740777  
4892.000000	64.769315  
4891.000000	64.797735  
4890.000000	64.834976  
4889.000000	64.890289  
4888.000000	64.968419  
4887.000000	65.067958  
4886.000000	65.179324  
4885.000000	65.287399  
4884.000000	65.373229  
4883.000000	65.419483  
4882.000000	65.413880  
4881.000000	65.353608  
4880.000000	65.244460  
4879.000000	65.100216  
4878.000000	64.938759  
4877.000000	64.778256  
4876.000000	64.634156  
4875.000000	64.517045  
4874.000000	64.432263  
4873.000000	64.380908  
4872.000000	64.361715  
4871.000000	64.373159  
4870.000000	64.414167  
4869.000000	64.485049  
4868.000000	64.585971  
4867.000000	64.716434  
4866.000000	64.872074  
4865.000000	65.045118  
4864.000000	65.224528  
4863.000000	65.396618  
4862.000000	65.547537  
4861.000000	65.664601  
4860.000000	65.739321  
4859.000000	65.767621  
4858.000000	65.751481  
4857.000000	65.697169  
4856.000000	65.615010  
4855.000000	65.516757  
4854.000000	65.414834  
4853.000000	65.319848  
4852.000000	65.240597  
4851.000000	65.182065  
4850.000000	65.145993  
4849.000000	65.131044  
4848.000000	65.133833  
4847.000000	65.149974  
4846.000000	65.174865  
4845.000000	65.203785  
4844.000000	65.232443  
4843.000000	65.256977  
4842.000000	65.273976  
4841.000000	65.280652  
4840.000000	65.274739  
4839.000000	65.254163  
4838.000000	65.218353  
4837.000000	65.168333  
4836.000000	65.108203  
4835.000000	65.044593  
4834.000000	64.986491  
4833.000000	64.944243  
4832.000000	64.926457  
4831.000000	64.939546  
4830.000000	64.983105  
4829.000000	65.050244  
4828.000000	65.127038  
4827.000000	65.195131  
4826.000000	65.236330  
4825.000000	65.236449  
4824.000000	65.190386  
4823.000000	65.103316  
4822.000000	64.990448  
4821.000000	64.872908  
4820.000000	64.773249  
4819.000000	64.709305  
4818.000000	64.689087  
4817.000000	64.708471  
4816.000000	64.752292  
4815.000000	64.799165  
4814.000000	64.826750  
4813.000000	64.820170  
4812.000000	64.774250  
4811.000000	64.698648  
4810.000000	64.614224  
4809.000000	64.550256  
4808.000000	64.534807  
4807.000000	64.588975  
4806.000000	64.721250  
4805.000000	64.924097  
4804.000000	65.176391  
4803.000000	65.445995  
4802.000000	65.697836  
4801.000000	65.899944  
4800.000000	66.030168  
4799.000000	66.080307  
4798.000000	66.056442  
4797.000000	65.976619  
4796.000000	65.865349  
4795.000000	65.748071  
4794.000000	65.645456  
4793.000000	65.570807  
4792.000000	65.528488  
4791.000000	65.514779  
4790.000000	65.519976  
4789.000000	65.533137  
4788.000000	65.544033  
4787.000000	65.544033  
4786.000000	65.527892  
4785.000000	65.492081  
4784.000000	65.437102  
4783.000000	65.365743  
4782.000000	65.284323  
4781.000000	65.201044  
4780.000000	65.124869  
4779.000000	65.065145  
4778.000000	65.027809  
4777.000000	65.014791  
4776.000000	65.021634  
4775.000000	65.038633  
4774.000000	65.051960  
4773.000000	65.046000  
4772.000000	65.009522  
4771.000000	64.938688  
4770.000000	64.839506  
4769.000000	64.726257  
4768.000000	64.621520  
4767.000000	64.550662  
4766.000000	64.536166  
4765.000000	64.591693  
4764.000000	64.718079  
4763.000000	64.902234  
4762.000000	65.120172  
4761.000000	65.341401  
4760.000000	65.534853  
4759.000000	65.675425  
4758.000000	65.748548  
4757.000000	65.752625  
4756.000000	65.697908  
4755.000000	65.602970  
4754.000000	65.490221  
4753.000000	65.379595  
4752.000000	65.285944  
4751.000000	65.214610  
4750.000000	65.164637  
4749.000000	65.127134  
4748.000000	65.091156  
4747.000000	65.045166  
4746.000000	64.981865  
4745.000000	64.898657  
4744.000000	64.797806  
4743.000000	64.686417  
4742.000000	64.574050  
4741.000000	64.472222  
4740.000000	64.391708  
4739.000000	64.341354  
4738.000000	64.326381  
4737.000000	64.347457  
4736.000000	64.400744  
4735.000000	64.478015  
4734.000000	64.567971  
4733.000000	64.657878  
4732.000000	64.735579  
4731.000000	64.790940  
4730.000000	64.817500  
4729.000000	64.813423  
4728.000000	64.780926  
4727.000000	64.724802  
4726.000000	64.651846  
4725.000000	64.569234  
4724.000000	64.484381  
4723.000000	64.404439  
4722.000000	64.336442  
4721.000000	64.286708  
4720.000000	64.261054  
4719.000000	64.264893  
4718.000000	64.299941  
4717.000000	64.363431  
4716.000000	64.447307  
4715.000000	64.539098  
4714.000000	64.623928  
4713.000000	64.687418  
4712.000000	64.719319  
4711.000000	64.716029  
4710.000000	64.681363  
4709.000000	64.625692  
4708.000000	64.563655  
4707.000000	64.510273  
4706.000000	64.477610  
4705.000000	64.471721  
4704.000000	64.491939  
4703.000000	64.531254  
4702.000000	64.579463  
4701.000000	64.625954  
4700.000000	64.662408  
4699.000000	64.685273  
4698.000000	64.695668  
4697.000000	64.699721  
4696.000000	64.705038  
4695.000000	64.720010  
4694.000000	64.750313  
4693.000000	64.798521  
4692.000000	64.863801  
4691.000000	64.941191  
4690.000000	65.023279  
4689.000000	65.101194  
4688.000000	65.166711  
4687.000000	65.212941  
4686.000000	65.235567  
4685.000000	65.233039  
4684.000000	65.206718  
4683.000000	65.160560  
4682.000000	65.100359  
4681.000000	65.032696  
4680.000000	64.963960  
4679.000000	64.899802  
4678.000000	64.844298  
4677.000000	64.799976  
4676.000000	64.767980  
4675.000000	64.747714  
4674.000000	64.738035  
4673.000000	64.737439  
4672.000000	64.744806  
4671.000000	64.759159  
4670.000000	64.779973  
4669.000000	64.805960  
4668.000000	64.836120  
4667.000000	64.869141  
4666.000000	64.903450  
4665.000000	64.936947  
4664.000000	64.967775  
4663.000000	64.994454  
4662.000000	65.015864  
4661.000000	65.031218  
4660.000000	65.039849  
4659.000000	65.041303  
4658.000000	65.035033  
4657.000000	65.020513  
4656.000000	64.997720  
4655.000000	64.967679  
4654.000000	64.932560  
4653.000000	64.896082  
4652.000000	64.863324  
4651.000000	64.839792  
4650.000000	64.830899  
4649.000000	64.840126  
4648.000000	64.868307  
4647.000000	64.913034  
4646.000000	64.969015  
4645.000000	65.028667  
4644.000000	65.083670  
4643.000000	65.126276  
4642.000000	65.150928  
4641.000000	65.154457  
4640.000000	65.136599  
4639.000000	65.099215  
4638.000000	65.045857  
4637.000000	64.981174  
4636.000000	64.910316  
4635.000000	64.838719  
4634.000000	64.771938  
4633.000000	64.715266  
4632.000000	64.673352  
4631.000000	64.649820  
4630.000000	64.646291  
4629.000000	64.661908  
4628.000000	64.693260  
4627.000000	64.734148  
4626.000000	64.776682  
4625.000000	64.812326  
4624.000000	64.833974  
4623.000000	64.836883  
4622.000000	64.820194  
4621.000000	64.786529  
4620.000000	64.741945  
4619.000000	64.694404  
4618.000000	64.651918  
4617.000000	64.620971  
4616.000000	64.605236  
4615.000000	64.605069  
4614.000000	64.617729  
4613.000000	64.638471  
4612.000000	64.661955  
4611.000000	64.683461  
4610.000000	64.700675  
4609.000000	64.713859  
4608.000000	64.725756  
4607.000000	64.740180  
4606.000000	64.760208  
4605.000000	64.786648  
4604.000000	64.817571  
4603.000000	64.848518  
4602.000000	64.873862  
4601.000000	64.888238  
4600.000000	64.888191  
4599.000000	64.873147  
4598.000000	64.845538  
4597.000000	64.810299  
4596.000000	64.773178  
4595.000000	64.740037  
4594.000000	64.715695  
4593.000000	64.703369  
4592.000000	64.704704  
4591.000000	64.719247  
4590.000000	64.744997  
4589.000000	64.778661  
4588.000000	64.815998  
4587.000000	64.852762  
4586.000000	64.884901  
4585.000000	64.909744  
4584.000000	64.926123  
4583.000000	64.935302  
4582.000000	64.940643  
4581.000000	64.946651  
4580.000000	64.957928  
4579.000000	64.977097  
4578.000000	65.003895  
4577.000000	65.033984  
4576.000000	65.059900  
4575.000000	65.072560  
4574.000000	65.063500  
4573.000000	65.027570  
4572.000000	64.964437  
4571.000000	64.879179  
4570.000000	64.781808  
4569.000000	64.685034  
4568.000000	64.602088  
4567.000000	64.543938  
4566.000000	64.517211  
4565.000000	64.523553  
4564.000000	64.558792  
4563.000000	64.614248  
4562.000000	64.678335  
4561.000000	64.738917  
4560.000000	64.785718  
4559.000000	64.811515  
4558.000000	64.813661  
4557.000000	64.793252  
4556.000000	64.754939  
4555.000000	64.705228  
4554.000000	64.651250  
4553.000000	64.599204  
4552.000000	64.554023  
4551.000000	64.519143  
4550.000000	64.496326  
4549.000000	64.485955  
4548.000000	64.486742  
4547.000000	64.496588  
4546.000000	64.512324  
4545.000000	64.530944  
4544.000000	64.550089  
4543.000000	64.568710  
4542.000000	64.587116  
4541.000000	64.606571  
4540.000000	64.627957  
4539.000000	64.651727  
4538.000000	64.677453  
4537.000000	64.703965  
4536.000000	64.729213  
4535.000000	64.751410  
4534.000000	64.769935  
4533.000000	64.784884  
4532.000000	64.796662  
4531.000000	64.805769  
4530.000000	64.812564  
4529.000000	64.816570  
4528.000000	64.816641  
4527.000000	64.811658  
4526.000000	64.801383  
4525.000000	64.786171  
4524.000000	64.767050  
4523.000000	64.746618  
4522.000000	64.728593  
4521.000000	64.714860  
4520.000000	64.705395  
4519.000000	64.698529  
4518.000000	64.692234  
4517.000000	64.684939  
4516.000000	64.676976  
4515.000000	64.672780  
4514.000000	64.678621  
4513.000000	64.698696  
4512.000000	64.735484  
4511.000000	64.788007  
4510.000000	64.852905  
4509.000000	64.925599  
4508.000000	65.000987  
4507.000000	65.073990  
4506.000000	65.141248  
4505.000000	65.202450  
4504.000000	65.259051  
4503.000000	65.310835  
4502.000000	65.361094  
4501.000000	65.415358  
4500.000000	65.482282  
4499.000000	65.570878  
4498.000000	65.693068  
4497.000000	65.860390  
4496.000000	66.077828  
4495.000000	66.341090  
4494.000000	66.633820  
4493.000000	66.932296  
4492.000000	67.206358  
4491.000000	67.431688  
4490.000000	67.600393  
4489.000000	67.724204  
4488.000000	67.836260  
4487.000000	67.976164  
4486.000000	68.182110  
4485.000000	68.468379  
4484.000000	68.822836  
4483.000000	69.197320  
4482.000000	69.521045  
4481.000000	69.712042  
4480.000000	69.704365  
4479.000000	69.460177  
4478.000000	68.986606  
4477.000000	68.330144  
4476.000000	67.571282  
4475.000000	66.798210  
4474.000000	66.088390  
4473.000000	65.489387  
4472.000000	65.012073  
4471.000000	64.637231  
4470.000000	64.328527  
4469.000000	64.047837  
4468.000000	63.769149  
4467.000000	63.481998  
4466.000000	63.194823  
4465.000000	62.915945  
4464.000000	62.656545  
4463.000000	62.428569  
4462.000000	62.244129  
4461.000000	62.109899  
4460.000000	62.030410  
4459.000000	62.002611  
4458.000000	62.022686  
4457.000000	62.086963  
4456.000000	62.193703  
4455.000000	62.337231  
4454.000000	62.512803  
4453.000000	62.714290  
4452.000000	62.933182  
4451.000000	63.157486  
4450.000000	63.370895  
4449.000000	63.553905  
4448.000000	63.686728  
4447.000000	63.751077  
4446.000000	63.741540  
4445.000000	63.667368  
4444.000000	63.554215  
4443.000000	63.434433  
4442.000000	63.337635  
4441.000000	63.275051  
4440.000000	63.207435  
4439.000000	63.056612  
4438.000000	62.711310  
4437.000000	62.080407  
4436.000000	61.126542  
4435.000000	59.911775  
4434.000000	58.603858  
4433.000000	57.452869  
4432.000000	56.735897  
4431.000000	56.683468  
4430.000000	57.411646  
4429.000000	58.881449  
4428.000000	60.893177  
4427.000000	63.130354  
4426.000000	65.226387  
4425.000000	66.857290  
4424.000000	67.814874  
4423.000000	68.049359  
4422.000000	67.668151  
4421.000000	66.891336  
4420.000000	65.980219  
4419.000000	65.168833  
4418.000000	64.604163  
4417.000000	64.336490  
4416.000000	64.326882  
4415.000000	64.489674  
4414.000000	64.732885  
4413.000000	64.985489  
4412.000000	65.217638  
4411.000000	65.427279  
4410.000000	65.636229  
4409.000000	65.861797  
4408.000000	66.112160  
4407.000000	66.373848  
4406.000000	66.619014  
4405.000000	66.816735  
4404.000000	66.940712  
4403.000000	66.987442  
4402.000000	66.968083  
4401.000000	66.907763  
4400.000000	66.833996  
4399.000000	66.767740  
4398.000000	66.718316  
4397.000000	66.683840  
4396.000000	66.652011  
4395.000000	66.607666  
4394.000000	66.538357  
4393.000000	66.444230  
4392.000000	66.327834  
4391.000000	66.192436  
4390.000000	66.043519  
4389.000000	65.886545  
4388.000000	65.729069  
4387.000000	65.579366  
4386.000000	65.442013  
4385.000000	65.318107  
4384.000000	65.205907  
4383.000000	65.102481  
4382.000000	65.005588  
4381.000000	64.915180  
4380.000000	64.831256  
4379.000000	64.756250  
4378.000000	64.693140  
4377.000000	64.646196  
4376.000000	64.617633  
4375.000000	64.608836  
4374.000000	64.618802  
4373.000000	64.644765  
4372.000000	64.681100  
4371.000000	64.721369  
4370.000000	64.759182  
4369.000000	64.789390  
4368.000000	64.808940  
4367.000000	64.816975  
4366.000000	64.814209  
4365.000000	64.803290  
4364.000000	64.787936  
4363.000000	64.772534  
4362.000000	64.760899  
4361.000000	64.756512  
4360.000000	64.761614  
4359.000000	64.775919  
4358.000000	64.796495  
4357.000000	64.818787  
4356.000000	64.837813  
4355.000000	64.848470  
4354.000000	64.847779  
4353.000000	64.835977  
4352.000000	64.817118  
4351.000000	64.798045  
4350.000000	64.786958  
4349.000000	64.791464  
4348.000000	64.816236  
4347.000000	64.861273  
4346.000000	64.921665  
4345.000000	64.988803  
4344.000000	65.051817  
4343.000000	65.100383  
4342.000000	65.126919  
4341.000000	65.128612  
4340.000000	65.107250  
4339.000000	65.068674  
4338.000000	65.020871  
4337.000000	64.972162  
4336.000000	64.929318  
4335.000000	64.896464  
4334.000000	64.875340  
4333.000000	64.865303  
4332.000000	64.864516  
4331.000000	64.870643  
4330.000000	64.881062  
4329.000000	64.893245  
4328.000000	64.904069  
4327.000000	64.910411  
4326.000000	64.908337  
4325.000000	64.894723  
4324.000000	64.868044  
4323.000000	64.829492  
4322.000000	64.783263  
4321.000000	64.735937  
4320.000000	64.695096  
4319.000000	64.667797  
4318.000000	64.658546  
4317.000000	64.668989  
4316.000000	64.697241  
4315.000000	64.739155  
4314.000000	64.789199  
4313.000000	64.842414  
4312.000000	64.895391  
4311.000000	64.946365  
4310.000000	64.995002  
4309.000000	65.041661  
4308.000000	65.086221  
4307.000000	65.127348  
4306.000000	65.161991  
4305.000000	65.185761  
4304.000000	65.194034  
4303.000000	65.183305  
4302.000000	65.152478  
4301.000000	65.103459  
4300.000000	65.041303  
4299.000000	64.973425  
4298.000000	64.908432  
4297.000000	64.854359  
4296.000000	64.817333  
4295.000000	64.800810  
4294.000000	64.804959  
4293.000000	64.827132  
4292.000000	64.862275  
4291.000000	64.904308  
4290.000000	64.946961  
4289.000000	64.984560  
4288.000000	65.012979  
4287.000000	65.029501  
4286.000000	65.033388  
4285.000000	65.025424  
4284.000000	65.007638  
4283.000000	64.982628  
4282.000000	64.952850  
4281.000000	64.920377  
4280.000000	64.886403  
4279.000000	64.851379  
4278.000000	64.815545  
4277.000000	64.779448  
4276.000000	64.744186  
4275.000000	64.711952  
4274.000000	64.685964  
4273.000000	64.670133  
4272.000000	64.667987  
4271.000000	64.682030  
4270.000000	64.712357  
4269.000000	64.756894  
4268.000000	64.811205  
4267.000000	64.869499  
4266.000000	64.925146  
4265.000000	64.971995  
4264.000000	65.005779  
4263.000000	65.024065  
4262.000000	65.026402  
4261.000000	65.014004  
4260.000000	64.989447  
4259.000000	64.956140  
4258.000000	64.918160  
4257.000000	64.879846  
4256.000000	64.845466  
4255.000000	64.818644  
4254.000000	64.802074  
4253.000000	64.796710  
4252.000000	64.801812  
4251.000000	64.814543  
4250.000000	64.830923  
4249.000000	64.846396  
4248.000000	64.857554  
4247.000000	64.862561  
4246.000000	64.862370  
4245.000000	64.860177  
4244.000000	64.861011  
4243.000000	64.870071  
4242.000000	64.891266  
4241.000000	64.925742  
4240.000000	64.971423  
4239.000000	65.023422  
4238.000000	65.074896  
4237.000000	65.118932  
4236.000000	65.150141  
4235.000000	65.166401  
4234.000000	65.168714  
4233.000000	65.160822  
4232.000000	65.147900  
4231.000000	65.135002  
4230.000000	65.125560  
4229.000000	65.120530  
4228.000000	65.118598  
4227.000000	65.117096  
4226.000000	65.113139  
4225.000000	65.104722  
4224.000000	65.091824  
4223.000000	65.076160  
4222.000000	65.060567  
4221.000000	65.048050  
4220.000000	65.040421  
4219.000000	65.037727  
4218.000000	65.038299  
4217.000000	65.039134  
4216.000000	65.037059  
4215.000000	65.029549  
4214.000000	65.015983  
4213.000000	64.997482  
4212.000000	64.976024  
4211.000000	64.954423  
4210.000000	64.934945  
4209.000000	64.919352  
4208.000000	64.908289  
4207.000000	64.901590  
4206.000000	64.898729  
4205.000000	64.898610  
4204.000000	64.900112  
4203.000000	64.901399  
4202.000000	64.900302  
4201.000000	64.894080  
4200.000000	64.879918  
4199.000000	64.855551  
4198.000000	64.820170  
4197.000000	64.775109  
4196.000000	64.724469  
4195.000000	64.674687  
4194.000000	64.633774  
