PE IR       SPECTRUM    SPECTRUM    ASCII       PEDS        1.60        
  -1
BZ6B24~1.ASC
17/04/07
16:42:51.00
17/04/07
16:42:51.00
tln
$BZ1503107-1_t0043$<tbV0>[-10.4,-5.2,8.0,0.0,27,1,0]
370.000000
64









2002,4.07    
MIRTGS : RIGHTBACK : INTERNAL 2
MIR : ON : INTERNAL 2
OPTKBR

0.200000
8
8.000000
FILLER
RATIO
SPECTRUM
UNLOCKED 256

DOUBLE
64
COMBINED
1
0
0


1.000000
RATIO


1
0
TRUE
51149
0
LEFT NOT FITTED RIGHT NOT FITTED 0
NONE
NONE
15600
12.000000
4.427000
51148
TRUE
1 0 8 72 0 0 0 0 

15798.010000






#HDR
-1
-1
#GR
CM-1
%T
0.00002384185791015625
0.0
5000.000000
-1.000000
4631
8
85.649418
59.595251
#DATA
5000.000000	65.268206 
4999.000000	65.116453 
4998.000000	64.967513 
4997.000000	64.838933 
4996.000000	64.741468 
4995.000000	64.679288 
4994.000000	64.649748 
4993.000000	64.646434 
4992.000000	64.661049 
4991.000000	64.686012 
4990.000000	64.715671 
4989.000000	64.746332 
4988.000000	64.775800 
4987.000000	64.801907 
4986.000000	64.822173 
4985.000000	64.832901 
4984.000000	64.831304 
4983.000000	64.815902 
4982.000000	64.787936 
4981.000000	64.751029 
4980.000000	64.710998 
4979.000000	64.673829 
4978.000000	64.643812 
4977.000000	64.622020 
4976.000000	64.606022 
4975.000000	64.590597 
4974.000000	64.568901 
4973.000000	64.535450 
4972.000000	64.487814 
4971.000000	64.428424 
4970.000000	64.363861 
4969.000000	64.304351 
4968.000000	64.260435 
4967.000000	64.241123 
4966.000000	64.250946 
4965.000000	64.288973 
4964.000000	64.348363 
4963.000000	64.418578 
4962.000000	64.487576 
4961.000000	64.544820 
4960.000000	64.583396 
4959.000000	64.601802 
4958.000000	64.603567 
4957.000000	64.596366 
4956.000000	64.589405 
4955.000000	64.591193 
4954.000000	64.607167 
4953.000000	64.638066 
4952.000000	64.679837 
4951.000000	64.725494 
4950.000000	64.766788 
4949.000000	64.797115 
4948.000000	64.812874 
4947.000000	64.814972 
4946.000000	64.807415 
4945.000000	64.796161 
4944.000000	64.786052 
4943.000000	64.779496 
4942.000000	64.774513 
4941.000000	64.765572 
4940.000000	64.745211 
4939.000000	64.706873 
4938.000000	64.647793 
4937.000000	64.570808 
4936.000000	64.485025 
4935.000000	64.404225 
4934.000000	64.343929 
4933.000000	64.317274 
4932.000000	64.331841 
4931.000000	64.387297 
4930.000000	64.476156 
4929.000000	64.585590 
4928.000000	64.700222 
4927.000000	64.805769 
4926.000000	64.892244 
4925.000000	64.955139 
4924.000000	64.995145 
4923.000000	65.016102 
4922.000000	65.022611 
4921.000000	65.017962 
4920.000000	65.002942 
4919.000000	64.976167 
4918.000000	64.935994 
4917.000000	64.881563 
4916.000000	64.815807 
4915.000000	64.744400 
4914.000000	64.675617 
4913.000000	64.618730 
4912.000000	64.581632 
4911.000000	64.569616 
4910.000000	64.583587 
4909.000000	64.620494 
4908.000000	64.674019 
4907.000000	64.735746 
4906.000000	64.796853 
4905.000000	64.849114 
4904.000000	64.886021 
4903.000000	64.903140 
4902.000000	64.898395 
4901.000000	64.872193 
4900.000000	64.827394 
4899.000000	64.769530 
4898.000000	64.706158 
4897.000000	64.645934 
4896.000000	64.597153 
4895.000000	64.566659 
4894.000000	64.558577 
4893.000000	64.572620 
4892.000000	64.605808 
4891.000000	64.653158 
4890.000000	64.709806 
4889.000000	64.771699 
4888.000000	64.836406 
4887.000000	64.902400 
4886.000000	64.968371 
4885.000000	65.032553 
4884.000000	65.091490 
4883.000000	65.140128 
4882.000000	65.172481 
4881.000000	65.183687 
4880.000000	65.170502 
4879.000000	65.133023 
4878.000000	65.074753 
4877.000000	65.002703 
4876.000000	64.925432 
4875.000000	64.851832 
4874.000000	64.789056 
4873.000000	64.741444 
4872.000000	64.710593 
4871.000000	64.695119 
4870.000000	64.691853 
4869.000000	64.696288 
4868.000000	64.703464 
4867.000000	64.709067 
4866.000000	64.709186 
4865.000000	64.702296 
4864.000000	64.688229 
4863.000000	64.669895 
4862.000000	64.652037 
4861.000000	64.640974 
4860.000000	64.643096 
4859.000000	64.663338 
4858.000000	64.703702 
4857.000000	64.762282 
4856.000000	64.833140 
4855.000000	64.907336 
4854.000000	64.974737 
4853.000000	65.026712 
4852.000000	65.058040 
4851.000000	65.068221 
4850.000000	65.061259 
4849.000000	65.044450 
4848.000000	65.025973 
4847.000000	65.012454 
4846.000000	65.007090 
4845.000000	65.008831 
4844.000000	65.012931 
4843.000000	65.013289 
4842.000000	65.004634 
4841.000000	64.984250 
4840.000000	64.953422 
4839.000000	64.917135 
4838.000000	64.883279 
4837.000000	64.860296 
4836.000000	64.855456 
4835.000000	64.872241 
4834.000000	64.910602 
4833.000000	64.967036 
4832.000000	65.035533 
4831.000000	65.109324 
4830.000000	65.181612 
4829.000000	65.247201 
4828.000000	65.301775 
4827.000000	65.342307 
4826.000000	65.366363 
4825.000000	65.371894 
4824.000000	65.357589 
4823.000000	65.323281 
4822.000000	65.271043 
4821.000000	65.205645 
4820.000000	65.134453 
4819.000000	65.066647 
4818.000000	65.011739 
4817.000000	64.977526 
4816.000000	64.968633 
4815.000000	64.985036 
4814.000000	65.022277 
4813.000000	65.072107 
4812.000000	65.124487 
4811.000000	65.169525 
4810.000000	65.199518 
4809.000000	65.210294 
4808.000000	65.201282 
4807.000000	65.175580 
4806.000000	65.138149 
4805.000000	65.095067 
4804.000000	65.051937 
4803.000000	65.013384 
4802.000000	64.982438 
4801.000000	64.960789 
4800.000000	64.949274 
4799.000000	64.948058 
4798.000000	64.956998 
4797.000000	64.975452 
4796.000000	65.001988 
4795.000000	65.034317 
4794.000000	65.069413 
4793.000000	65.103602 
4792.000000	65.133142 
4791.000000	65.154647 
4790.000000	65.165805 
4789.000000	65.165925 
4788.000000	65.156030 
4787.000000	65.138077 
4786.000000	65.114855 
4785.000000	65.089583 
4784.000000	65.065383 
4783.000000	65.045070 
4782.000000	65.030837 
4781.000000	65.024018 
4780.000000	65.025448 
4779.000000	65.035438 
4778.000000	65.053725 
4777.000000	65.078997 
4776.000000	65.109467 
4775.000000	65.142726 
4774.000000	65.176391 
4773.000000	65.208268 
4772.000000	65.236902 
4771.000000	65.261363 
4770.000000	65.281724 
4769.000000	65.298628 
4768.000000	65.312838 
4767.000000	65.324974 
4766.000000	65.335321 
4765.000000	65.344071 
4764.000000	65.351843 
4763.000000	65.360069 
4762.000000	65.371203 
4761.000000	65.387701 
4760.000000	65.411782 
4759.000000	65.443873 
4758.000000	65.482401 
4757.000000	65.522837 
4756.000000	65.558886 
4755.000000	65.583252 
4754.000000	65.589499 
4753.000000	65.573740 
4752.000000	65.535616 
4751.000000	65.478801 
4750.000000	65.410709 
4749.000000	65.340876 
4748.000000	65.279054 
4747.000000	65.232992 
4746.000000	65.207505 
4745.000000	65.203261 
4744.000000	65.217161 
4743.000000	65.243315 
4742.000000	65.274930 
4741.000000	65.304827 
4740.000000	65.327286 
4739.000000	65.338635 
4738.000000	65.337920 
4737.000000	65.326881 
4736.000000	65.309429 
4735.000000	65.290427 
4734.000000	65.274548 
4733.000000	65.265369 
4732.000000	65.264511 
4731.000000	65.270972 
4730.000000	65.281963 
4729.000000	65.294170 
4728.000000	65.304756 
4727.000000	65.312027 
4726.000000	65.316295 
4725.000000	65.319156 
4724.000000	65.323567 
4723.000000	65.332055 
4722.000000	65.347266 
4721.000000	65.370297 
4720.000000	65.401959 
4719.000000	65.442037 
4718.000000	65.490841 
4717.000000	65.548872 
4716.000000	65.617251 
4715.000000	65.696907 
4714.000000	65.787672 
4713.000000	65.887260 
4712.000000	65.990400 
4711.000000	66.088676 
4710.000000	66.171741 
4709.000000	66.228508 
4708.000000	66.249704 
4707.000000	66.229176 
4706.000000	66.165852 
4705.000000	66.064143 
4704.000000	65.933609 
4703.000000	65.787768 
4702.000000	65.642428 
4701.000000	65.512919 
4700.000000	65.412211 
4699.000000	65.348458 
4698.000000	65.324783 
4697.000000	65.338444 
4696.000000	65.381503 
4695.000000	65.442848 
4694.000000	65.510034 
4693.000000	65.571308 
4692.000000	65.616989 
4691.000000	65.641188 
4690.000000	65.641736 
4689.000000	65.620088 
4688.000000	65.579915 
4687.000000	65.526604 
4686.000000	65.465855 
4685.000000	65.403056 
4684.000000	65.342593 
4683.000000	65.288090 
4682.000000	65.242195 
4681.000000	65.206766 
4680.000000	65.182542 
4679.000000	65.169429 
4678.000000	65.166068 
4677.000000	65.169477 
4676.000000	65.175819 
4675.000000	65.180325 
4674.000000	65.179014 
4673.000000	65.168738 
4672.000000	65.148925 
4671.000000	65.121150 
4670.000000	65.089368 
4669.000000	65.058994 
4668.000000	65.035367 
4667.000000	65.021967 
4666.000000	65.019750 
4665.000000	65.026879 
4664.000000	65.039420 
4663.000000	65.052819 
4662.000000	65.063190 
4661.000000	65.068292 
4660.000000	65.068697 
4659.000000	65.067315 
4658.000000	65.068292 
4657.000000	65.075635 
4656.000000	65.091657 
4655.000000	65.116143 
4654.000000	65.146923 
4653.000000	65.180158 
4652.000000	65.211510 
4651.000000	65.236711 
4650.000000	65.253639 
4649.000000	65.261387 
4648.000000	65.259575 
4647.000000	65.248084 
4646.000000	65.226340 
4645.000000	65.193557 
4644.000000	65.149641 
4643.000000	65.095520 
4642.000000	65.034389 
4641.000000	64.970755 
4640.000000	64.910793 
4639.000000	64.860081 
4638.000000	64.822769 
4637.000000	64.800095 
4636.000000	64.790105 
4635.000000	64.788150 
4634.000000	64.787936 
4633.000000	64.783763 
4632.000000	64.772439 
4631.000000	64.754033 
4630.000000	64.732217 
4629.000000	64.713573 
4628.000000	64.706039 
4627.000000	64.716577 
4626.000000	64.749336 
4625.000000	64.804601 
4624.000000	64.878273 
4623.000000	64.963102 
4622.000000	65.049076 
4621.000000	65.125918 
4620.000000	65.184187 
4619.000000	65.216970 
4618.000000	65.220880 
4617.000000	65.196442 
4616.000000	65.147614 
4615.000000	65.081357 
4614.000000	65.005350 
4613.000000	64.927172 
4612.000000	64.852190 
4611.000000	64.784216 
4610.000000	64.723825 
4609.000000	64.669442 
4608.000000	64.618182 
4607.000000	64.567565 
4606.000000	64.516139 
4605.000000	64.464402 
4604.000000	64.414978 
4603.000000	64.372086 
4602.000000	64.340591 
4601.000000	64.325070 
4600.000000	64.328169 
4599.000000	64.350104 
4598.000000	64.388108 
4597.000000	64.436936 
4596.000000	64.489746 
4595.000000	64.539098 
4594.000000	64.578485 
4593.000000	64.602994 
4592.000000	64.609861 
4591.000000	64.598917 
4590.000000	64.572167 
4589.000000	64.533424 
4588.000000	64.487075 
4587.000000	64.438438 
4586.000000	64.393305 
4585.000000	64.357066 
4584.000000	64.334464 
4583.000000	64.328002 
4582.000000	64.337682 
4581.000000	64.360499 
4580.000000	64.391255 
4579.000000	64.423274 
4578.000000	64.450120 
4577.000000	64.467000 
4576.000000	64.471960 
4575.000000	64.465928 
4574.000000	64.452552 
4573.000000	64.437150 
4572.000000	64.425730 
4571.000000	64.423274 
4570.000000	64.432859 
4569.000000	64.455318 
4568.000000	64.488625 
4567.000000	64.528965 
4566.000000	64.570236 
4565.000000	64.606022 
4564.000000	64.629864 
4563.000000	64.636635 
4562.000000	64.623212 
4561.000000	64.588952 
4560.000000	64.536094 
4559.000000	64.469766 
4558.000000	64.396762 
4557.000000	64.324760 
4556.000000	64.260196 
4555.000000	64.207291 
4554.000000	64.166951 
4553.000000	64.137196 
4552.000000	64.114356 
4551.000000	64.094901 
4550.000000	64.076733 
4549.000000	64.060354 
4548.000000	64.048719 
4547.000000	64.046430 
4546.000000	64.057826 
4545.000000	64.085483 
4544.000000	64.128422 
4543.000000	64.182233 
4542.000000	64.239454 
4541.000000	64.291596 
4540.000000	64.330959 
4539.000000	64.352941 
4538.000000	64.356946 
4537.000000	64.346504 
4536.000000	64.328336 
4535.000000	64.309716 
4534.000000	64.296722 
4533.000000	64.291930 
4532.000000	64.294505 
4531.000000	64.299392 
4530.000000	64.299845 
4529.000000	64.288306 
4528.000000	64.259099 
4527.000000	64.210295 
4526.000000	64.144515 
4525.000000	64.068913 
4524.000000	63.993668 
4523.000000	63.930559 
4522.000000	63.890433 
4521.000000	63.881087 
4520.000000	63.905668 
4519.000000	63.962316 
4518.000000	64.044356 
4517.000000	64.141678 
4516.000000	64.242601 
4515.000000	64.335680 
4514.000000	64.411592 
4513.000000	64.464426 
4512.000000	64.491796 
4511.000000	64.494299 
4510.000000	64.474534 
4509.000000	64.436650 
4508.000000	64.384794 
4507.000000	64.322876 
4506.000000	64.254260 
4505.000000	64.182877 
4504.000000	64.112782 
4503.000000	64.049100 
4502.000000	63.996863 
4501.000000	63.960695 
4500.000000	63.943552 
4499.000000	63.946008 
4498.000000	63.966035 
4497.000000	63.999104 
4496.000000	64.039206 
4495.000000	64.080190 
4494.000000	64.117121 
4493.000000	64.147067 
4492.000000	64.170026 
4491.000000	64.187979 
4490.000000	64.203381 
4489.000000	64.217591 
4488.000000	64.230370 
4487.000000	64.238858 
4486.000000	64.239025 
4485.000000	64.225888 
4484.000000	64.195251 
4483.000000	64.144778 
4482.000000	64.075994 
4481.000000	63.993740 
4480.000000	63.905405 
4479.000000	63.819599 
4478.000000	63.744211 
4477.000000	63.685297 
4476.000000	63.645887 
4475.000000	63.625931 
4474.000000	63.622736 
4473.000000	63.631916 
4472.000000	63.648939 
4471.000000	63.669061 
4470.000000	63.687944 
4469.000000	63.704442 
4468.000000	63.720655 
4467.000000	63.740086 
4466.000000	63.766551 
4465.000000	63.804626 
4464.000000	63.856697 
4463.000000	63.920879 
4462.000000	63.989424 
4461.000000	64.055109 
4460.000000	64.108252 
4459.000000	64.129829 
4458.000000	64.103031 
4457.000000	64.026045 
4456.000000	63.907551 
4455.000000	63.760852 
4454.000000	63.605976 
4453.000000	63.469433 
4452.000000	63.372278 
4451.000000	63.324284 
4450.000000	63.322567 
4449.000000	63.351011 
4448.000000	63.389563 
4447.000000	63.419508 
4446.000000	63.435816 
4445.000000	63.447785 
4444.000000	63.486671 
4443.000000	63.597726 
4442.000000	63.814926 
4441.000000	64.149475 
4440.000000	64.582490 
4439.000000	65.074586 
4438.000000	65.560531 
4437.000000	65.989947 
4436.000000	66.342854 
4435.000000	66.664123 
4434.000000	67.049694 
4433.000000	67.643713 
4432.000000	68.609666 
4431.000000	70.073008 
4430.000000	72.086262 
4429.000000	74.579977 
4428.000000	77.360415 
4427.000000	80.137681 
4426.000000	82.578325 
4425.000000	84.393334 
4424.000000	85.422086 
4423.000000	85.649418 
4422.000000	85.231280 
4421.000000	84.392595 
4420.000000	83.370900 
4419.000000	82.322502 
4418.000000	81.289553 
4417.000000	80.208563 
4416.000000	78.956580 
4415.000000	77.424144 
4414.000000	75.575685 
4413.000000	73.465728 
4412.000000	71.245050 
4411.000000	69.104719 
4410.000000	67.246103 
4409.000000	65.828299 
4408.000000	64.942574 
4407.000000	64.591336 
4406.000000	64.696288 
4405.000000	65.121817 
4404.000000	65.705561 
4403.000000	66.278529 
4402.000000	66.709184 
4401.000000	66.912293 
4400.000000	66.866040 
4399.000000	66.583108 
4398.000000	66.119813 
4397.000000	65.548348 
4396.000000	64.945983 
4395.000000	64.374041 
4394.000000	63.879847 
4393.000000	63.499164 
4392.000000	63.246464 
4391.000000	63.120889 
4390.000000	63.105726 
4389.000000	63.174891 
4388.000000	63.300323 
4387.000000	63.458466 
4386.000000	63.625621 
4385.000000	63.782787 
4384.000000	63.921523 
4383.000000	64.042806 
4382.000000	64.147281 
4381.000000	64.236426 
4380.000000	64.315533 
4379.000000	64.389300 
4378.000000	64.455890 
4377.000000	64.510822 
4376.000000	64.555788 
4375.000000	64.591670 
4374.000000	64.619517 
4373.000000	64.638352 
4372.000000	64.645671 
4371.000000	64.637327 
4370.000000	64.610433 
4369.000000	64.562726 
4368.000000	64.494681 
4367.000000	64.408922 
4366.000000	64.310288 
4365.000000	64.206528 
4364.000000	64.108014 
4363.000000	64.024925 
4362.000000	63.965272 
4361.000000	63.935589 
4360.000000	63.939261 
4359.000000	63.975191 
4358.000000	64.037299 
4357.000000	64.115285 
4356.000000	64.195990 
4355.000000	64.265489 
4354.000000	64.311671 
4353.000000	64.325165 
4352.000000	64.301967 
4351.000000	64.243888 
4350.000000	64.158773 
4349.000000	64.057755 
4348.000000	63.954472 
4347.000000	63.862490 
4346.000000	63.793110 
4345.000000	63.753747 
4344.000000	63.747072 
4343.000000	63.771581 
4342.000000	63.821935 
4341.000000	63.890576 
4340.000000	63.968205 
4339.000000	64.045214 
4338.000000	64.112687 
4337.000000	64.163208 
4336.000000	64.191532 
4335.000000	64.194822 
4334.000000	64.173889 
4333.000000	64.133119 
4332.000000	64.079999 
4331.000000	64.023947 
4330.000000	63.975524 
4329.000000	63.943934 
4328.000000	63.935303 
4327.000000	63.950634 
4326.000000	63.986301 
4325.000000	64.033913 
4324.000000	64.082503 
4323.000000	64.120793 
4322.000000	64.139628 
4321.000000	64.134287 
4320.000000	64.104771 
4319.000000	64.056372 
4318.000000	63.997769 
4317.000000	63.939261 
4316.000000	63.889884 
4315.000000	63.856482 
4314.000000	63.842558 
4313.000000	63.848304 
4312.000000	63.871383 
4311.000000	63.907790 
4310.000000	63.953137 
4309.000000	64.003324 
4308.000000	64.055156 
4307.000000	64.105463 
4306.000000	64.151310 
4305.000000	64.190125 
4304.000000	64.220237 
4303.000000	64.240980 
4302.000000	64.253473 
4301.000000	64.260530 
4300.000000	64.266300 
4299.000000	64.276003 
4298.000000	64.294147 
4297.000000	64.323544 
4296.000000	64.364027 
4295.000000	64.412879 
4294.000000	64.464831 
4293.000000	64.513540 
4292.000000	64.552688 
4291.000000	64.577984 
4290.000000	64.587616 
4289.000000	64.583158 
4288.000000	64.568066 
4287.000000	64.546918 
4286.000000	64.523553 
4285.000000	64.499998 
4284.000000	64.476156 
4283.000000	64.450526 
4282.000000	64.421153 
4281.000000	64.387202 
4280.000000	64.349794 
4279.000000	64.312553 
4278.000000	64.280891 
4277.000000	64.260935 
4276.000000	64.257311 
4275.000000	64.271998 
4274.000000	64.303231 
4273.000000	64.346361 
4272.000000	64.394593 
4271.000000	64.441108 
4270.000000	64.480781 
4269.000000	64.511108 
4268.000000	64.532709 
4267.000000	64.548063 
4266.000000	64.560317 
4265.000000	64.571523 
4264.000000	64.581775 
4263.000000	64.588761 
4262.000000	64.588809 
4261.000000	64.577937 
4260.000000	64.554238 
4259.000000	64.518070 
4258.000000	64.472889 
4257.000000	64.424252 
4256.000000	64.378666 
4255.000000	64.341330 
4254.000000	64.314961 
4253.000000	64.299535 
4252.000000	64.292860 
4251.000000	64.291977 
4250.000000	64.294767 
4249.000000	64.301276 
4248.000000	64.313745 
4247.000000	64.335680 
4246.000000	64.370632 
4245.000000	64.419651 
4244.000000	64.481019 
4243.000000	64.549612 
4242.000000	64.618229 
4241.000000	64.678931 
4240.000000	64.725327 
4239.000000	64.754366 
4238.000000	64.767074 
4237.000000	64.768290 
4236.000000	64.765429 
4235.000000	64.766359 
4234.000000	64.777541 
4233.000000	64.802789 
4232.000000	64.842152 
4231.000000	64.892506 
4230.000000	64.948487 
4229.000000	65.004277 
4228.000000	65.054750 
4227.000000	65.096426 
4226.000000	65.127897 
4225.000000	65.149664 
4224.000000	65.163636 
4223.000000	65.171933 
4222.000000	65.176510 
4221.000000	65.178155 
4220.000000	65.176415 
4219.000000	65.169501 
4218.000000	65.155220 
4217.000000	65.131878 
4216.000000	65.099239 
4215.000000	65.059113 
4214.000000	65.015387 
4213.000000	64.973926 
4212.000000	64.941048 
4211.000000	64.922690 
4210.000000	64.922547 
4209.000000	64.941620 
4208.000000	64.977836 
4207.000000	65.026426 
4206.000000	65.080714 
4205.000000	65.133690 
4204.000000	65.179300 
4203.000000	65.213632 
4202.000000	65.235137 
4201.000000	65.244603 
4200.000000	65.244460 
4199.000000	65.237712 
4198.000000	65.227007 
4197.000000	65.214252 
4196.000000	65.200114 
4195.000000	65.184617 
4194.000000	65.167498 
4193.000000	65.148782 
4192.000000	65.129137 
4191.000000	65.109992 
4190.000000	65.093493 
4189.000000	65.081810 
4188.000000	65.076947 
4187.000000	65.079998 
4186.000000	65.091085 
4185.000000	65.109348 
4184.000000	65.133380 
4183.000000	65.161299 
4182.000000	65.191292 
4181.000000	65.221786 
4180.000000	65.251231 
4179.000000	65.278291 
4178.000000	65.301442 
4177.000000	65.319061 
4176.000000	65.329623 
4175.000000	65.331935 
4174.000000	65.326023 
4173.000000	65.313315 
4172.000000	65.297007 
4171.000000	65.281295 
4170.000000	65.270829 
4169.000000	65.269708 
4168.000000	65.280246 
4167.000000	65.302515 
4166.000000	65.333986 
4165.000000	65.370202 
4164.000000	65.405654 
4163.000000	65.434980 
4162.000000	65.454030 
4161.000000	65.460753 
4160.000000	65.455508 
4159.000000	65.440940 
