PE IR       SPECTRUM    SPECTRUM    ASCII       PEDS        1.60        
  -1
BZ6133~1.ASC
17/04/07
15:37:34.00
17/04/07
15:37:34.00
tln
$BZ1503107-1_t0029$<tbV0>[-2.6,-7.8,8.0,0.0,27,1,0]
370.000000
64









2002,4.07    
MIRTGS : RIGHTBACK : INTERNAL 2
MIR : ON : INTERNAL 2
OPTKBR

0.200000
8
8.000000
FILLER
RATIO
SPECTRUM
UNLOCKED 256

DOUBLE
64
COMBINED
1
0
0


1.000000
RATIO


1
0
TRUE
51149
0
LEFT NOT FITTED RIGHT NOT FITTED 0
NONE
NONE
15600
12.000000
4.427000
51148
TRUE
1 0 8 72 0 0 0 0 

15798.010000






#HDR
-1
-1
#GR
CM-1
%T
0.00002384185791015625
0.0
5000.000000
-1.000000
4631
8
77.146792
49.019885
#DATA
5000.000000	65.952181 
4999.000000	65.882205 
4998.000000	65.783786 
4997.000000	65.667057 
4996.000000	65.538978 
4995.000000	65.405344 
4994.000000	65.268921 
4993.000000	65.132737 
4992.000000	64.999628 
4991.000000	64.874267 
4990.000000	64.762425 
4989.000000	64.670062 
4988.000000	64.602684 
4987.000000	64.563417 
4986.000000	64.552378 
4985.000000	64.566087 
4984.000000	64.598178 
4983.000000	64.640092 
4982.000000	64.682865 
4981.000000	64.718770 
4980.000000	64.742136 
4979.000000	64.750361 
4978.000000	64.743995 
4977.000000	64.726138 
4976.000000	64.701104 
4975.000000	64.673447 
4974.000000	64.646840 
4973.000000	64.623188 
4972.000000	64.603829 
4971.000000	64.588594 
4970.000000	64.577126 
4969.000000	64.567971 
4968.000000	64.559674 
4967.000000	64.550018 
4966.000000	64.536809 
4965.000000	64.517784 
4964.000000	64.490461 
4963.000000	64.453697 
4962.000000	64.408040 
4961.000000	64.356446 
4960.000000	64.303588 
4959.000000	64.256954 
4958.000000	64.225435 
4957.000000	64.218544 
4956.000000	64.244174 
4955.000000	64.307498 
4954.000000	64.409017 
4953.000000	64.543533 
4952.000000	64.700269 
4951.000000	64.863896 
4950.000000	65.017342 
4949.000000	65.144681 
4948.000000	65.234231 
4947.000000	65.280318 
4946.000000	65.284466 
4945.000000	65.254998 
4944.000000	65.204119 
4943.000000	65.146040 
4942.000000	65.092396 
4941.000000	65.051174 
4940.000000	65.024542 
4939.000000	65.010452 
4938.000000	65.003776 
4937.000000	64.999580 
4936.000000	64.994549 
4935.000000	64.988470 
4934.000000	64.984035 
4933.000000	64.985585 
4932.000000	64.997386 
4931.000000	65.021324 
4930.000000	65.057182 
4929.000000	65.101981 
4928.000000	65.151739 
4927.000000	65.201926 
4926.000000	65.248942 
4925.000000	65.289759 
4924.000000	65.322446 
4923.000000	65.344905 
4922.000000	65.354490 
4921.000000	65.347695 
4920.000000	65.320420 
4919.000000	65.269398 
4918.000000	65.194582 
4917.000000	65.099358 
4916.000000	64.991688 
4915.000000	64.882135 
4914.000000	64.782452 
4913.000000	64.702558 
4912.000000	64.648365 
4911.000000	64.620208 
4910.000000	64.612793 
4909.000000	64.617085 
4908.000000	64.622616 
4907.000000	64.620637 
4906.000000	64.606285 
4905.000000	64.579868 
4904.000000	64.546036 
4903.000000	64.512991 
4902.000000	64.489650 
4901.000000	64.483237 
4900.000000	64.497184 
4899.000000	64.530825 
4898.000000	64.579463 
4897.000000	64.635992 
4896.000000	64.692640 
4895.000000	64.742493 
4894.000000	64.781284 
4893.000000	64.807319 
4892.000000	64.822220 
4891.000000	64.829778 
4890.000000	64.835095 
4889.000000	64.843440 
4888.000000	64.858460 
4887.000000	64.881515 
4886.000000	64.910960 
4885.000000	64.943480 
4884.000000	64.973855 
4883.000000	64.996981 
4882.000000	65.008449 
4881.000000	65.006160 
4880.000000	64.990139 
4879.000000	64.962410 
4878.000000	64.926648 
4877.000000	64.887261 
4876.000000	64.848613 
4875.000000	64.814400 
4874.000000	64.787554 
4873.000000	64.770126 
4872.000000	64.763307 
4871.000000	64.767336 
4870.000000	64.781832 
4869.000000	64.805722 
4868.000000	64.836668 
4867.000000	64.871764 
4866.000000	64.907121 
4865.000000	64.939141 
4864.000000	64.965415 
4863.000000	64.984846 
4862.000000	64.998221 
4861.000000	65.007042 
4860.000000	65.013337 
4859.000000	65.017914 
4858.000000	65.020322 
4857.000000	65.017843 
4856.000000	65.006470 
4855.000000	64.982056 
4854.000000	64.941787 
4853.000000	64.885973 
4852.000000	64.818739 
4851.000000	64.747762 
4850.000000	64.682888 
4849.000000	64.634323 
4848.000000	64.610600 
4847.000000	64.616203 
4846.000000	64.650487 
4845.000000	64.708065 
4844.000000	64.779996 
4843.000000	64.855384 
4842.000000	64.924120 
4841.000000	64.978647 
4840.000000	65.015435 
4839.000000	65.034437 
4838.000000	65.039229 
4837.000000	65.035271 
4836.000000	65.028953 
4835.000000	65.026068 
4834.000000	65.030384 
4833.000000	65.044116 
4832.000000	65.066695 
4831.000000	65.096449 
4830.000000	65.129756 
4829.000000	65.162634 
4828.000000	65.190291 
4827.000000	65.208458 
4826.000000	65.213394 
4825.000000	65.202403 
4824.000000	65.174698 
4823.000000	65.131568 
4822.000000	65.075826 
4821.000000	65.011382 
4820.000000	64.942955 
4819.000000	64.875078 
4818.000000	64.810752 
4817.000000	64.751148 
4816.000000	64.695549 
4815.000000	64.642453 
4814.000000	64.590191 
4813.000000	64.538407 
4812.000000	64.488172 
4811.000000	64.442825 
4810.000000	64.407205 
4809.000000	64.386701 
4808.000000	64.385032 
4807.000000	64.403295 
4806.000000	64.438891 
4805.000000	64.485621 
4804.000000	64.534425 
4803.000000	64.575815 
4802.000000	64.601540 
4801.000000	64.607143 
4800.000000	64.592432 
4799.000000	64.562916 
4798.000000	64.527964 
4797.000000	64.499425 
4796.000000	64.488482 
4795.000000	64.503598 
4794.000000	64.548277 
4793.000000	64.620685 
4792.000000	64.713954 
4791.000000	64.816999 
4790.000000	64.916968 
4789.000000	65.001845 
4788.000000	65.063142 
4787.000000	65.096259 
4786.000000	65.101814 
4785.000000	65.085053 
4784.000000	65.054893 
4783.000000	65.021920 
4782.000000	64.995861 
4781.000000	64.984726 
4780.000000	64.991760 
4779.000000	65.016627 
4778.000000	65.053749 
4777.000000	65.094971 
4776.000000	65.129971 
4775.000000	65.149068 
4774.000000	65.144824 
4773.000000	65.113377 
4772.000000	65.056014 
4771.000000	64.978456 
4770.000000	64.890432 
4769.000000	64.803361 
4768.000000	64.729118 
4767.000000	64.677643 
4766.000000	64.655876 
4765.000000	64.666628 
4764.000000	64.709019 
4763.000000	64.778566 
4762.000000	64.868187 
4761.000000	64.968991 
4760.000000	65.071558 
4759.000000	65.166425 
4758.000000	65.244436 
4757.000000	65.297770 
4756.000000	65.321135 
4755.000000	65.312075 
4754.000000	65.271735 
4753.000000	65.204429 
4752.000000	65.117621 
4751.000000	65.020418 
4750.000000	64.923214 
4749.000000	64.835238 
4748.000000	64.763593 
4747.000000	64.712142 
4746.000000	64.681625 
4745.000000	64.669919 
4744.000000	64.673018 
4743.000000	64.686441 
4742.000000	64.706158 
4741.000000	64.729309 
4740.000000	64.754199 
4739.000000	64.780330 
4738.000000	64.807653 
4737.000000	64.835810 
4736.000000	64.863348 
4735.000000	64.887976 
4734.000000	64.906525 
4733.000000	64.915847 
4732.000000	64.913296 
4731.000000	64.897394 
4730.000000	64.868712 
4729.000000	64.830398 
4728.000000	64.787602 
4727.000000	64.746212 
4726.000000	64.712214 
4725.000000	64.690423 
4724.000000	64.683675 
4723.000000	64.692139 
4722.000000	64.713859 
4721.000000	64.744877 
4720.000000	64.781141 
4719.000000	64.819025 
4718.000000	64.856672 
4717.000000	64.893651 
4716.000000	64.931535 
4715.000000	64.972925 
4714.000000	65.020155 
4713.000000	65.074086 
4712.000000	65.133523 
4711.000000	65.194678 
4710.000000	65.252137 
4709.000000	65.299153 
4708.000000	65.329480 
4707.000000	65.338087 
4706.000000	65.322184 
4705.000000	65.281820 
4704.000000	65.220046 
4703.000000	65.142416 
4702.000000	65.056610 
4701.000000	64.970922 
4700.000000	64.893627 
4699.000000	64.831018 
4698.000000	64.787173 
4697.000000	64.763045 
4696.000000	64.756488 
4695.000000	64.763593 
4694.000000	64.779591 
4693.000000	64.800262 
4692.000000	64.822268 
4691.000000	64.844346 
4690.000000	64.866709 
4689.000000	64.890122 
4688.000000	64.914751 
4687.000000	64.939308 
4686.000000	64.960908 
4685.000000	64.975285 
4684.000000	64.977884 
4683.000000	64.965605 
4682.000000	64.938092 
4681.000000	64.898586 
4680.000000	64.853286 
4679.000000	64.810013 
4678.000000	64.776349 
4677.000000	64.757895 
4676.000000	64.756679 
4675.000000	64.771056 
4674.000000	64.795899 
4673.000000	64.824581 
4672.000000	64.850044 
4671.000000	64.866781 
4670.000000	64.871191 
4669.000000	64.862275 
4668.000000	64.841079 
4667.000000	64.809489 
4666.000000	64.770078 
4665.000000	64.725112 
4664.000000	64.677071 
4663.000000	64.628386 
4662.000000	64.581871 
4661.000000	64.540886 
4660.000000	64.508771 
4659.000000	64.488410 
4658.000000	64.481425 
4657.000000	64.488053 
4656.000000	64.507198 
4655.000000	64.537215 
4654.000000	64.576196 
4653.000000	64.622640 
4652.000000	64.675855 
4651.000000	64.735150 
4650.000000	64.799809 
4649.000000	64.867353 
4648.000000	64.933109 
4647.000000	64.990162 
4646.000000	65.030717 
4645.000000	65.047216 
4644.000000	65.034556 
4643.000000	64.991521 
4642.000000	64.922165 
4641.000000	64.835095 
4640.000000	64.742302 
4639.000000	64.656519 
4638.000000	64.588785 
4637.000000	64.546203 
4636.000000	64.530849 
4635.000000	64.539718 
4634.000000	64.566206 
4633.000000	64.601945 
4632.000000	64.638924 
4631.000000	64.671111 
4630.000000	64.695429 
4629.000000	64.711403 
4628.000000	64.721035 
4627.000000	64.727330 
4626.000000	64.733767 
4625.000000	64.743518 
4624.000000	64.759039 
4623.000000	64.782190 
4622.000000	64.813494 
4621.000000	64.852976 
4620.000000	64.898991 
4619.000000	64.948344 
4618.000000	64.996480 
4617.000000	65.038561 
4616.000000	65.070128 
4615.000000	65.087985 
4614.000000	65.091252 
4613.000000	65.081906 
4612.000000	65.064215 
4611.000000	65.044236 
4610.000000	65.027165 
4609.000000	65.016245 
4608.000000	65.011644 
4607.000000	65.011143 
4606.000000	65.010523 
4605.000000	65.005350 
4604.000000	64.993000 
4603.000000	64.973831 
4602.000000	64.951872 
4601.000000	64.933490 
4600.000000	64.925575 
4599.000000	64.932942 
4598.000000	64.956951 
4597.000000	64.993762 
4596.000000	65.035319 
4595.000000	65.070462 
4594.000000	65.087842 
4593.000000	65.078496 
4592.000000	65.038156 
4591.000000	64.968919 
4590.000000	64.878010 
4589.000000	64.777851 
4588.000000	64.682149 
4587.000000	64.604711 
4586.000000	64.556789 
4585.000000	64.545607 
4584.000000	64.573192 
4583.000000	64.636445 
4582.000000	64.727807 
4581.000000	64.836215 
4580.000000	64.949059 
4579.000000	65.053510 
4578.000000	65.138435 
4577.000000	65.196037 
4576.000000	65.222573 
4575.000000	65.218830 
4574.000000	65.189433 
4573.000000	65.142416 
4572.000000	65.087056 
4571.000000	65.032839 
4570.000000	64.986944 
4569.000000	64.954233 
4568.000000	64.936256 
4567.000000	64.931797 
4566.000000	64.937615 
4565.000000	64.949846 
4564.000000	64.964866 
4563.000000	64.979839 
4562.000000	64.993596 
4561.000000	65.005493 
4560.000000	65.016078 
4559.000000	65.025877 
4558.000000	65.035581 
4557.000000	65.045332 
4556.000000	65.055012 
4555.000000	65.064144 
4554.000000	65.072441 
4553.000000	65.079760 
4552.000000	65.086412 
4551.000000	65.093231 
4550.000000	65.100932 
4549.000000	65.109944 
4548.000000	65.120387 
4547.000000	65.131711 
4546.000000	65.142893 
4545.000000	65.152287 
4544.000000	65.158104 
4543.000000	65.158867 
4542.000000	65.154051 
4541.000000	65.144276 
4540.000000	65.131068 
4539.000000	65.116786 
4538.000000	65.104603 
4537.000000	65.097403 
4536.000000	65.097069 
4535.000000	65.103769 
4534.000000	65.115618 
4533.000000	65.128946 
4532.000000	65.139317 
4531.000000	65.141868 
4530.000000	65.132451 
4529.000000	65.108752 
4528.000000	65.071034 
4527.000000	65.022182 
4526.000000	64.966940 
4525.000000	64.911913 
4524.000000	64.864206 
4523.000000	64.830350 
4522.000000	64.815258 
4521.000000	64.821243 
4520.000000	64.848208 
4519.000000	64.893913 
4518.000000	64.954733 
4517.000000	65.026378 
4516.000000	65.104913 
4515.000000	65.186929 
4514.000000	65.269589 
4513.000000	65.350341 
4512.000000	65.425682 
4511.000000	65.491867 
4510.000000	65.543532 
4509.000000	65.575599 
4508.000000	65.582680 
4507.000000	65.561532 
4506.000000	65.510797 
4505.000000	65.433192 
4504.000000	65.333962 
4503.000000	65.221142 
4502.000000	65.103721 
4501.000000	64.990806 
4500.000000	64.890241 
4499.000000	64.807796 
4498.000000	64.747834 
4497.000000	64.713335 
4496.000000	64.706349 
4495.000000	64.727830 
4494.000000	64.777231 
4493.000000	64.852142 
4492.000000	64.947557 
4491.000000	65.056443 
4490.000000	65.169930 
4489.000000	65.278434 
4488.000000	65.373826 
4487.000000	65.449595 
4486.000000	65.502214 
4485.000000	65.530061 
4484.000000	65.533995 
4483.000000	65.515017 
4482.000000	65.474915 
4481.000000	65.414214 
4480.000000	65.333938 
4479.000000	65.234708 
4478.000000	65.118455 
4477.000000	64.988589 
4476.000000	64.851403 
4475.000000	64.715027 
4474.000000	64.588761 
4473.000000	64.481711 
4472.000000	64.401316 
4471.000000	64.351105 
4470.000000	64.329886 
4469.000000	64.334011 
4468.000000	64.358687 
4467.000000	64.398550 
4466.000000	64.449572 
4465.000000	64.509916 
4464.000000	64.580488 
4463.000000	64.662289 
4462.000000	64.755940 
4461.000000	64.861655 
4460.000000	64.976549 
4459.000000	65.091967 
4458.000000	65.196871 
4457.000000	65.276789 
4456.000000	65.321135 
4455.000000	65.335631 
4454.000000	65.330648 
4453.000000	65.311670 
4452.000000	65.285229 
4451.000000	65.261602 
4450.000000	65.246725 
4449.000000	65.240502 
4448.000000	65.240502 
4447.000000	65.241074 
4446.000000	65.245652 
4445.000000	65.268516 
4444.000000	65.330791 
4443.000000	65.453672 
4442.000000	65.653991 
4441.000000	65.937995 
4440.000000	66.281557 
4439.000000	66.642570 
4438.000000	66.970419 
4437.000000	67.229294 
4436.000000	67.428660 
4435.000000	67.608118 
4434.000000	67.857432 
4433.000000	68.238401 
4432.000000	68.771719 
4431.000000	69.370126 
4430.000000	69.855785 
4429.000000	69.970607 
4428.000000	69.439506 
4427.000000	68.053865 
4426.000000	65.738081 
4425.000000	62.613892 
4424.000000	58.992695 
4423.000000	55.339860 
4422.000000	52.172231 
4421.000000	49.960851 
4420.000000	49.019885 
4419.000000	49.449539 
4418.000000	51.112604 
4417.000000	53.695130 
4416.000000	56.782150 
4415.000000	59.951734 
4414.000000	62.857341 
4413.000000	65.262126 
4412.000000	67.063856 
4411.000000	68.252301 
4410.000000	68.894600 
4409.000000	69.100308 
4408.000000	68.988275 
4407.000000	68.691492 
4406.000000	68.310618 
4405.000000	67.935562 
4404.000000	67.607736 
4403.000000	67.353701 
4402.000000	67.163228 
4401.000000	67.018055 
4400.000000	66.888165 
4399.000000	66.753315 
4398.000000	66.599297 
4397.000000	66.418790 
4396.000000	66.215014 
4395.000000	65.996170 
4394.000000	65.776634 
4393.000000	65.568780 
4392.000000	65.389370 
4391.000000	65.257477 
4390.000000	65.183258 
4389.000000	65.165114 
4388.000000	65.195703 
4387.000000	65.262746 
4386.000000	65.353107 
4385.000000	65.454864 
4384.000000	65.549635 
4383.000000	65.618085 
4382.000000	65.652418 
4381.000000	65.653467 
4380.000000	65.620946 
4379.000000	65.558028 
4378.000000	65.474462 
4377.000000	65.381979 
4376.000000	65.293765 
4375.000000	65.219807 
4374.000000	65.165400 
4373.000000	65.130114 
4372.000000	65.110278 
4371.000000	65.098714 
4370.000000	65.086674 
4369.000000	65.067696 
4368.000000	65.039563 
4367.000000	65.004324 
4366.000000	64.966797 
4365.000000	64.933848 
4364.000000	64.911675 
4363.000000	64.903998 
4362.000000	64.910554 
4361.000000	64.928054 
4360.000000	64.950776 
4359.000000	64.971971 
4358.000000	64.985227 
4357.000000	64.986348 
4356.000000	64.973568 
4355.000000	64.947605 
4354.000000	64.911055 
4353.000000	64.866995 
4352.000000	64.818811 
4351.000000	64.769601 
4350.000000	64.722156 
4349.000000	64.679169 
4348.000000	64.643239 
4347.000000	64.616370 
4346.000000	64.600539 
4345.000000	64.597296 
4344.000000	64.607644 
4343.000000	64.631271 
4342.000000	64.666843 
4341.000000	64.712047 
4340.000000	64.763236 
4339.000000	64.815521 
4338.000000	64.863300 
4337.000000	64.901041 
4336.000000	64.923548 
4335.000000	64.927077 
4334.000000	64.910268 
4333.000000	64.874577 
4332.000000	64.824461 
4331.000000	64.766502 
4330.000000	64.708971 
4329.000000	64.659881 
4328.000000	64.625549 
4327.000000	64.609456 
4326.000000	64.611721 
4325.000000	64.629650 
4324.000000	64.659237 
4323.000000	64.696455 
4322.000000	64.738035 
4321.000000	64.782309 
4320.000000	64.828348 
4319.000000	64.875721 
4318.000000	64.923262 
4317.000000	64.969158 
4316.000000	65.010476 
4315.000000	65.044164 
4314.000000	65.067911 
4313.000000	65.080952 
4312.000000	65.084600 
4311.000000	65.081906 
4310.000000	65.077257 
4309.000000	65.075016 
4308.000000	65.078616 
4307.000000	65.089488 
4306.000000	65.106701 
4305.000000	65.127897 
4304.000000	65.149545 
4303.000000	65.168666 
4302.000000	65.182900 
4301.000000	65.191149 
4300.000000	65.193200 
4299.000000	65.189528 
4298.000000	65.180969 
4297.000000	65.167951 
4296.000000	65.151023 
4295.000000	65.130805 
4294.000000	65.107965 
4293.000000	65.083861 
4292.000000	65.060210 
4291.000000	65.038824 
4290.000000	65.021467 
4289.000000	65.009593 
4288.000000	65.003609 
4287.000000	65.002489 
4286.000000	65.004086 
4285.000000	65.005373 
4284.000000	65.003108 
4283.000000	64.994430 
4282.000000	64.977979 
4281.000000	64.954328 
4280.000000	64.926099 
4279.000000	64.897394 
4278.000000	64.873242 
4277.000000	64.858293 
4276.000000	64.855933 
4275.000000	64.867329 
4274.000000	64.890980 
4273.000000	64.923095 
4272.000000	64.958310 
4271.000000	64.990925 
4270.000000	65.016078 
4269.000000	65.030884 
4268.000000	65.034747 
4267.000000	65.029096 
4266.000000	65.016436 
4265.000000	64.999675 
4264.000000	64.981269 
4263.000000	64.962530 
4262.000000	64.943718 
4261.000000	64.924097 
4260.000000	64.903259 
4259.000000	64.880895 
4258.000000	64.857530 
4257.000000	64.834427 
4256.000000	64.813327 
4255.000000	64.795851 
4254.000000	64.783096 
4253.000000	64.775300 
4252.000000	64.771914 
4251.000000	64.771914 
4250.000000	64.774417 
4249.000000	64.778876 
4248.000000	64.785647 
4247.000000	64.795351 
4246.000000	64.809131 
4245.000000	64.827632 
4244.000000	64.851236 
4243.000000	64.879417 
4242.000000	64.910817 
4241.000000	64.943718 
4240.000000	64.975976 
4239.000000	65.005707 
4238.000000	65.031194 
4237.000000	65.051317 
4236.000000	65.065598 
4235.000000	65.074133 
4234.000000	65.077710 
4233.000000	65.077543 
4232.000000	65.074944 
4231.000000	65.071058 
4230.000000	65.066838 
4229.000000	65.062999 
4228.000000	65.059971 
4227.000000	65.057802 
4226.000000	65.056443 
4225.000000	65.055799 
4224.000000	65.055727 
4223.000000	65.056204 
4222.000000	65.057110 
4221.000000	65.058469 
4220.000000	65.060329 
4219.000000	65.062904 
4218.000000	65.066218 
4217.000000	65.070414 
4216.000000	65.075683 
4215.000000	65.082144 
4214.000000	65.089511 
4213.000000	65.097284 
4212.000000	65.104866 
4211.000000	65.111327 
4210.000000	65.115571 
4209.000000	65.116763 
4208.000000	65.114736 
4207.000000	65.109968 
4206.000000	65.103411 
4205.000000	65.096545 
4204.000000	65.090847 
4203.000000	65.087509 
4202.000000	65.087175 
4201.000000	65.089654 
4200.000000	65.093827 
4199.000000	65.098190 
4198.000000	65.101146 
4197.000000	65.101313 
4196.000000	65.097784 
4195.000000	65.090274 
4194.000000	65.079259 
4193.000000	65.065836 
4192.000000	65.051317 
4191.000000	65.037012 
4190.000000	65.023684 
4189.000000	65.011596 
4188.000000	65.000128 
4187.000000	64.988374 
4186.000000	64.975047 
4185.000000	64.958786 
4184.000000	64.938902 
4183.000000	64.915037 
4182.000000	64.888119 
4181.000000	64.859867 
4180.000000	64.833378 
4179.000000	64.811897 
4178.000000	64.799118 
4177.000000	64.798188 
4176.000000	64.811539 
4175.000000	64.840292 
4174.000000	64.884066 
4173.000000	64.940643 
4172.000000	65.006065 
4171.000000	65.074920 
4170.000000	65.140318 
4169.000000	65.194797 
4168.000000	65.231394 
4167.000000	65.245103 
4166.000000	65.233755 
4165.000000	65.198969 
4164.000000	65.146374 
4163.000000	65.084290 
4162.000000	65.022778 
4161.000000	64.970731 
4160.000000	64.934992 
4159.000000	64.918112 
