PE IR       SPECTRUM    SPECTRUM    ASCII       PEDS        1.60        
  -1
BZ6B21~1.ASC
17/04/07
18:22:50.00
17/04/07
18:22:50.00
tln
$BZ1503107-1_t0063$<tbV0>[-5.2,0.0,8.0,0.0,27,1,0]
370.000000
64









2002,4.07    
MIRTGS : RIGHTBACK : INTERNAL 2
MIR : ON : INTERNAL 2
OPTKBR

0.200000
8
8.000000
FILLER
RATIO
SPECTRUM
UNLOCKED 256

DOUBLE
64
COMBINED
1
0
0


1.000000
RATIO


1
0
TRUE
51149
0
LEFT NOT FITTED RIGHT NOT FITTED 0
NONE
NONE
15600
12.000000
4.427000
51148
TRUE
1 0 8 72 0 0 0 0 

15798.010000






#HDR
-1
-1
#GR
CM-1
%T
0.00002384185791015625
0.0
5000.000000
-1.000000
4631
8
75.218796
53.713631
#DATA
5000.000000	64.851593 
4999.000000	65.006971 
4998.000000	65.190124 
4997.000000	65.385007 
4996.000000	65.569734 
4995.000000	65.721940 
4994.000000	65.825104 
4993.000000	65.874266 
4992.000000	65.876078 
4991.000000	65.847992 
4990.000000	65.810847 
4989.000000	65.784549 
4988.000000	65.778303 
4987.000000	65.788865 
4986.000000	65.799736 
4985.000000	65.787076 
4984.000000	65.725874 
4983.000000	65.598630 
4982.000000	65.400576 
4981.000000	65.142869 
4980.000000	64.848947 
4979.000000	64.550995 
4978.000000	64.280891 
4977.000000	64.066362 
4976.000000	63.927149 
4975.000000	63.873291 
4974.000000	63.904666 
4973.000000	64.012169 
4972.000000	64.179301 
4971.000000	64.385890 
4970.000000	64.606618 
4969.000000	64.819335 
4968.000000	65.004920 
4967.000000	65.152764 
4966.000000	65.259122 
4965.000000	65.328526 
4964.000000	65.371227 
4963.000000	65.398907 
4962.000000	65.421700 
4961.000000	65.444064 
4960.000000	65.464663 
4959.000000	65.476918 
4958.000000	65.472459 
4957.000000	65.444588 
4956.000000	65.391397 
4955.000000	65.318059 
4954.000000	65.235900 
4953.000000	65.157771 
4952.000000	65.094709 
4951.000000	65.051770 
4950.000000	65.027570 
4949.000000	65.014934 
4948.000000	65.004086 
4947.000000	64.988231 
4946.000000	64.964056 
4945.000000	64.932632 
4944.000000	64.898300 
4943.000000	64.866280 
4942.000000	64.841079 
4941.000000	64.824008 
4940.000000	64.813542 
4939.000000	64.804553 
4938.000000	64.791917 
4937.000000	64.772582 
4936.000000	64.746713 
4935.000000	64.717888 
4934.000000	64.692425 
4933.000000	64.677429 
4932.000000	64.678335 
4931.000000	64.696741 
4930.000000	64.730334 
4929.000000	64.773082 
4928.000000	64.816999 
4927.000000	64.853930 
4926.000000	64.876866 
4925.000000	64.881706 
4924.000000	64.867472 
4923.000000	64.837193 
4922.000000	64.797663 
4921.000000	64.757966 
4920.000000	64.728617 
4919.000000	64.717912 
4918.000000	64.730048 
4917.000000	64.763474 
4916.000000	64.811062 
4915.000000	64.862179 
4914.000000	64.905357 
4913.000000	64.931726 
4912.000000	64.937448 
4911.000000	64.924860 
4910.000000	64.901351 
4909.000000	64.877319 
4908.000000	64.862871 
4907.000000	64.864444 
4906.000000	64.882588 
4905.000000	64.912247 
4904.000000	64.944314 
4903.000000	64.968633 
4902.000000	64.976906 
4901.000000	64.965724 
4900.000000	64.937162 
4899.000000	64.897155 
4898.000000	64.853692 
4897.000000	64.813351 
4896.000000	64.780306 
4895.000000	64.755725 
4894.000000	64.738178 
4893.000000	64.725661 
4892.000000	64.716172 
4891.000000	64.709305 
4890.000000	64.705753 
4889.000000	64.706754 
4888.000000	64.713382 
4887.000000	64.724969 
4886.000000	64.739966 
4885.000000	64.754843 
4884.000000	64.766597 
4883.000000	64.773464 
4882.000000	64.776301 
4881.000000	64.777922 
4880.000000	64.783406 
4879.000000	64.798498 
4878.000000	64.827847 
4877.000000	64.873027 
4876.000000	64.932441 
4875.000000	65.000987 
4874.000000	65.071606 
4873.000000	65.136623 
4872.000000	65.189194 
4871.000000	65.224528 
4870.000000	65.240645 
4869.000000	65.238332 
4868.000000	65.220618 
4867.000000	65.191793 
4866.000000	65.156960 
4865.000000	65.120387 
4864.000000	65.085291 
4863.000000	65.052580 
4862.000000	65.022706 
4861.000000	64.994239 
4860.000000	64.965486 
4859.000000	64.934086 
4858.000000	64.897942 
4857.000000	64.855122 
4856.000000	64.804601 
4855.000000	64.746284 
4854.000000	64.680671 
4853.000000	64.609861 
4852.000000	64.537262 
4851.000000	64.467525 
4850.000000	64.405989 
4849.000000	64.358210 
4848.000000	64.329123 
4847.000000	64.322018 
4846.000000	64.337778 
4845.000000	64.374470 
4844.000000	64.427757 
4843.000000	64.490962 
4842.000000	64.556622 
4841.000000	64.617657 
4840.000000	64.669060 
4839.000000	64.707946 
4838.000000	64.734482 
4837.000000	64.751338 
4836.000000	64.762473 
4835.000000	64.772248 
4834.000000	64.783191 
4833.000000	64.795613 
4832.000000	64.806675 
4831.000000	64.812374 
4830.000000	64.807844 
4829.000000	64.789414 
4828.000000	64.756107 
4827.000000	64.710712 
4826.000000	64.659404 
4825.000000	64.610266 
4824.000000	64.571619 
4823.000000	64.549922 
4822.000000	64.548420 
4821.000000	64.566516 
4820.000000	64.599823 
4819.000000	64.641618 
4818.000000	64.684581 
4817.000000	64.722609 
4816.000000	64.751863 
4815.000000	64.771127 
4814.000000	64.781165 
4813.000000	64.783930 
4812.000000	64.781022 
4811.000000	64.773559 
4810.000000	64.761447 
4809.000000	64.744448 
4808.000000	64.722752 
4807.000000	64.697861 
4806.000000	64.673066 
4805.000000	64.653038 
4804.000000	64.643263 
4803.000000	64.648103 
4802.000000	64.669990 
4801.000000	64.707565 
4800.000000	64.756011 
4799.000000	64.806509 
4798.000000	64.847946 
4797.000000	64.868974 
4796.000000	64.860701 
4795.000000	64.818334 
4794.000000	64.742612 
4793.000000	64.639997 
4792.000000	64.521479 
4791.000000	64.400386 
4790.000000	64.290261 
4789.000000	64.202117 
4788.000000	64.143633 
4787.000000	64.118432 
4786.000000	64.126777 
4785.000000	64.165496 
4784.000000	64.229750 
4783.000000	64.313697 
4782.000000	64.411234 
4781.000000	64.515185 
4780.000000	64.618372 
4779.000000	64.712810 
4778.000000	64.791607 
4777.000000	64.848852 
4776.000000	64.881777 
4775.000000	64.890909 
4774.000000	64.880728 
4773.000000	64.859557 
4772.000000	64.837050 
4771.000000	64.822125 
4770.000000	64.820814 
4769.000000	64.835023 
4768.000000	64.861941 
4767.000000	64.895296 
4766.000000	64.926862 
4765.000000	64.948749 
4764.000000	64.955759 
4763.000000	64.946317 
4762.000000	64.922499 
4761.000000	64.889144 
4760.000000	64.851546 
4759.000000	64.814090 
4758.000000	64.779376 
4757.000000	64.747691 
4756.000000	64.717483 
4755.000000	64.686775 
4754.000000	64.654707 
4753.000000	64.622712 
4752.000000	64.594697 
4751.000000	64.576649 
4750.000000	64.574384 
4749.000000	64.592719 
4748.000000	64.633703 
4747.000000	64.695525 
4746.000000	64.772439 
4745.000000	64.855647 
4744.000000	64.935278 
4743.000000	65.001463 
4742.000000	65.046525 
4741.000000	65.065121 
4740.000000	65.055155 
4739.000000	65.017580 
4738.000000	64.956378 
4737.000000	64.877939 
4736.000000	64.790487 
4735.000000	64.703202 
4734.000000	64.625191 
4733.000000	64.564752 
4732.000000	64.528059 
4731.000000	64.518189 
4730.000000	64.534950 
4729.000000	64.575028 
4728.000000	64.632916 
4727.000000	64.701437 
4726.000000	64.773702 
4725.000000	64.843630 
4724.000000	64.906954 
4723.000000	64.960885 
4722.000000	65.004205 
4721.000000	65.036177 
4720.000000	65.056777 
4719.000000	65.066123 
4718.000000	65.065407 
4717.000000	65.056920 
4716.000000	65.044212 
4715.000000	65.032100 
4714.000000	65.024709 
4713.000000	65.024638 
4712.000000	65.031862 
4711.000000	65.043449 
4710.000000	65.054011 
4709.000000	65.057039 
4708.000000	65.046954 
4707.000000	65.020489 
4706.000000	64.977717 
4705.000000	64.921879 
4704.000000	64.858818 
4703.000000	64.795088 
4702.000000	64.736008 
4701.000000	64.685106 
4700.000000	64.642953 
4699.000000	64.608788 
4698.000000	64.581227 
4697.000000	64.559459 
4696.000000	64.543962 
4695.000000	64.536309 
4694.000000	64.538478 
4693.000000	64.551830 
4692.000000	64.575386 
4691.000000	64.607238 
4690.000000	64.644169 
4689.000000	64.683604 
4688.000000	64.723849 
4687.000000	64.765453 
4686.000000	64.810371 
4685.000000	64.861059 
4684.000000	64.918923 
4683.000000	64.982438 
4682.000000	65.046882 
4681.000000	65.104722 
4680.000000	65.147233 
4679.000000	65.166926 
4678.000000	65.159511 
4677.000000	65.126252 
4676.000000	65.073156 
4675.000000	65.009975 
4674.000000	64.947557 
4673.000000	64.895367 
4672.000000	64.859461 
4671.000000	64.841318 
4670.000000	64.838290 
4669.000000	64.845705 
4668.000000	64.857816 
4667.000000	64.869856 
4666.000000	64.878916 
4665.000000	64.884305 
4664.000000	64.886808 
4663.000000	64.887285 
4662.000000	64.886045 
4661.000000	64.882016 
4660.000000	64.873385 
4659.000000	64.858150 
4658.000000	64.835429 
4657.000000	64.806127 
4656.000000	64.773654 
4655.000000	64.743208 
4654.000000	64.720344 
4653.000000	64.709639 
4652.000000	64.713263 
4651.000000	64.730381 
4650.000000	64.756822 
4649.000000	64.786243 
4648.000000	64.812207 
4647.000000	64.829659 
4646.000000	64.835882 
4645.000000	64.831805 
4644.000000	64.821290 
4643.000000	64.810395 
4642.000000	64.805650 
4641.000000	64.812612 
4640.000000	64.834141 
4639.000000	64.870333 
4638.000000	64.918565 
4637.000000	64.973855 
4636.000000	65.030121 
4635.000000	65.081262 
4634.000000	65.122413 
4633.000000	65.150165 
4632.000000	65.162825 
4631.000000	65.160536 
4630.000000	65.145015 
4629.000000	65.118885 
4628.000000	65.084958 
4627.000000	65.046405 
4626.000000	65.005755 
4625.000000	64.964985 
4624.000000	64.924907 
4623.000000	64.885759 
4622.000000	64.847040 
4621.000000	64.807844 
4620.000000	64.767408 
4619.000000	64.725494 
4618.000000	64.682936 
4617.000000	64.641451 
4616.000000	64.603900 
4615.000000	64.572906 
4614.000000	64.551711 
4613.000000	64.542818 
4612.000000	64.548611 
4611.000000	64.569735 
4610.000000	64.606618 
4609.000000	64.658784 
4608.000000	64.725255 
4607.000000	64.804244 
4606.000000	64.893460 
4605.000000	64.989686 
4604.000000	65.088510 
4603.000000	65.184140 
4602.000000	65.270185 
4601.000000	65.340137 
4600.000000	65.388274 
4599.000000	65.411019 
4598.000000	65.408110 
4597.000000	65.383028 
4596.000000	65.342926 
4595.000000	65.296721 
4594.000000	65.254187 
4593.000000	65.222716 
4592.000000	65.207099 
4591.000000	65.207409 
4590.000000	65.219688 
4589.000000	65.236639 
4588.000000	65.250158 
4587.000000	65.253257 
4586.000000	65.241527 
4585.000000	65.214657 
4584.000000	65.176129 
4583.000000	65.132522 
4582.000000	65.091562 
4581.000000	65.060138 
4580.000000	65.042543 
4579.000000	65.039348 
4578.000000	65.047383 
4577.000000	65.060210 
4576.000000	65.069651 
4575.000000	65.067839 
4574.000000	65.049004 
4573.000000	65.009951 
4572.000000	64.951252 
4571.000000	64.876770 
4570.000000	64.793300 
4569.000000	64.708375 
4568.000000	64.629840 
4567.000000	64.564514 
4566.000000	64.517545 
4565.000000	64.491963 
4564.000000	64.488387 
4563.000000	64.504909 
4562.000000	64.538025 
4561.000000	64.583039 
4560.000000	64.635133 
4559.000000	64.689135 
4558.000000	64.741015 
4557.000000	64.787697 
4556.000000	64.827179 
4555.000000	64.858126 
4554.000000	64.880084 
4553.000000	64.892911 
4552.000000	64.897036 
4551.000000	64.893102 
4550.000000	64.882636 
4549.000000	64.867568 
4548.000000	64.849615 
4547.000000	64.829993 
4546.000000	64.809322 
4545.000000	64.787697 
4544.000000	64.764738 
4543.000000	64.740133 
4542.000000	64.714002 
4541.000000	64.687943 
4540.000000	64.664483 
4539.000000	64.647912 
4538.000000	64.642715 
4537.000000	64.653730 
4536.000000	64.684343 
4535.000000	64.736294 
4534.000000	64.808583 
4533.000000	64.897298 
4532.000000	64.996075 
4531.000000	65.096449 
4530.000000	65.189242 
4529.000000	65.266060 
4528.000000	65.321016 
4527.000000	65.351247 
4526.000000	65.357136 
4525.000000	65.342855 
4524.000000	65.315532 
4523.000000	65.283942 
4522.000000	65.256834 
4521.000000	65.241527 
4520.000000	65.242123 
4519.000000	65.259385 
4518.000000	65.290355 
4517.000000	65.328907 
4516.000000	65.366959 
4515.000000	65.396666 
4514.000000	65.411543 
4513.000000	65.407299 
4512.000000	65.383219 
4511.000000	65.341711 
4510.000000	65.288352 
4509.000000	65.230751 
4508.000000	65.176582 
4507.000000	65.132808 
4506.000000	65.102434 
4505.000000	65.084576 
4504.000000	65.073680 
4503.000000	65.060973 
4502.000000	65.037465 
4501.000000	64.996862 
4500.000000	64.937400 
4499.000000	64.862680 
4498.000000	64.780449 
4497.000000	64.700818 
4496.000000	64.633154 
4495.000000	64.584398 
4494.000000	64.558982 
4493.000000	64.558553 
4492.000000	64.582443 
4491.000000	64.627909 
4490.000000	64.690041 
4489.000000	64.762973 
4488.000000	64.839363 
4487.000000	64.912533 
4486.000000	64.976954 
4485.000000	65.029096 
4484.000000	65.068006 
4483.000000	65.094280 
4482.000000	65.109658 
4481.000000	65.115427 
4480.000000	65.112328 
4479.000000	65.100002 
4478.000000	65.077948 
4477.000000	65.046548 
4476.000000	65.007185 
4475.000000	64.965486 
4474.000000	64.931726 
4473.000000	64.916968 
4472.000000	64.930796 
4471.000000	64.975500 
4470.000000	65.044808 
4469.000000	65.123057 
4468.000000	65.189361 
4467.000000	65.224719 
4466.000000	65.217518 
4465.000000	65.169715 
4464.000000	65.095114 
4463.000000	65.013456 
4462.000000	64.945507 
4461.000000	64.902639 
4460.000000	64.888024 
4459.000000	64.900016 
4458.000000	64.931988 
4457.000000	64.977240 
4456.000000	65.027761 
4455.000000	65.080022 
4454.000000	65.128087 
4453.000000	65.163755 
4452.000000	65.173697 
4451.000000	65.141248 
4450.000000	65.048432 
4449.000000	64.881682 
4448.000000	64.634776 
4447.000000	64.312386 
4446.000000	63.933491 
4445.000000	63.530874 
4444.000000	63.144207 
4443.000000	62.813568 
4442.000000	62.575650 
4441.000000	62.456679 
4440.000000	62.470507 
4439.000000	62.612271 
4438.000000	62.862801 
4437.000000	63.183164 
4436.000000	63.515281 
4435.000000	63.788151 
4434.000000	63.925433 
4433.000000	63.863563 
4432.000000	63.564610 
4431.000000	63.029766 
4430.000000	62.304139 
4429.000000	61.468648 
4428.000000	60.622668 
4427.000000	59.867835 
4426.000000	59.284234 
4425.000000	58.923482 
4424.000000	58.800220 
4423.000000	58.899521 
4422.000000	59.183716 
4421.000000	59.606981 
4420.000000	60.123419 
4419.000000	60.696315 
4418.000000	61.296963 
4417.000000	61.908149 
4416.000000	62.517070 
4415.000000	63.113403 
4414.000000	63.683390 
4413.000000	64.208793 
4412.000000	64.666652 
4411.000000	65.037584 
4410.000000	65.307307 
4409.000000	65.473437 
4408.000000	65.542912 
4407.000000	65.536665 
4406.000000	65.479636 
4405.000000	65.398526 
4404.000000	65.313816 
4403.000000	65.239739 
4402.000000	65.182018 
4401.000000	65.143537 
4400.000000	65.123152 
4399.000000	65.123581 
4398.000000	65.145421 
4397.000000	65.186858 
4396.000000	65.242600 
4395.000000	65.303587 
4394.000000	65.357995 
4393.000000	65.392112 
4392.000000	65.396595 
4391.000000	65.368890 
4390.000000	65.314769 
4389.000000	65.247559 
4388.000000	65.182542 
4387.000000	65.132594 
4386.000000	65.106987 
4385.000000	65.108633 
4384.000000	65.131163 
4383.000000	65.161490 
4382.000000	65.185880 
4381.000000	65.193295 
4380.000000	65.176773 
4379.000000	65.136194 
4378.000000	65.078854 
4377.000000	65.016698 
4376.000000	64.961361 
4375.000000	64.921998 
4374.000000	64.902901 
4373.000000	64.902734 
4372.000000	64.915847 
4371.000000	64.934349 
4370.000000	64.950513 
4369.000000	64.959883 
4368.000000	64.962172 
4367.000000	64.962196 
4366.000000	64.967751 
4365.000000	64.988112 
4364.000000	65.030479 
4363.000000	65.097999 
4362.000000	65.187811 
4361.000000	65.291118 
4360.000000	65.394616 
4359.000000	65.483117 
4358.000000	65.542888 
4357.000000	65.564942 
4356.000000	65.546727 
4355.000000	65.492653 
4354.000000	65.412878 
4353.000000	65.321421 
4352.000000	65.232229 
4351.000000	65.156984 
4350.000000	65.101742 
4349.000000	65.067172 
4348.000000	65.048527 
4347.000000	65.038013 
4346.000000	65.027618 
4345.000000	65.011644 
4344.000000	64.989280 
4343.000000	64.964222 
4342.000000	64.944529 
4341.000000	64.939212 
4340.000000	64.956140 
4339.000000	64.998650 
4338.000000	65.064239 
4337.000000	65.144324 
4336.000000	65.226674 
4335.000000	65.298271 
4334.000000	65.348458 
4333.000000	65.371394 
4332.000000	65.366792 
4331.000000	65.339398 
4330.000000	65.297293 
4329.000000	65.249419 
4328.000000	65.203452 
4327.000000	65.163874 
4326.000000	65.132021 
4325.000000	65.106296 
4324.000000	65.084075 
4323.000000	65.062785 
4322.000000	65.041708 
4321.000000	65.021729 
4320.000000	65.004897 
4319.000000	64.993762 
4318.000000	64.990234 
4317.000000	64.994692 
4316.000000	65.005421 
4315.000000	65.018987 
4314.000000	65.031123 
4313.000000	65.037274 
4312.000000	65.033626 
4311.000000	65.018224 
4310.000000	64.991474 
4309.000000	64.956712 
4308.000000	64.919567 
4307.000000	64.887595 
4306.000000	64.868426 
4305.000000	64.868640 
4304.000000	64.891672 
4303.000000	64.936923 
4302.000000	64.999270 
4301.000000	65.070033 
4300.000000	65.138459 
4299.000000	65.193676 
4298.000000	65.227484 
4297.000000	65.235567 
4296.000000	65.218830 
4295.000000	65.182995 
4294.000000	65.137004 
4293.000000	65.090847 
4292.000000	65.053415 
4291.000000	65.030622 
4290.000000	65.024733 
4289.000000	65.034604 
4288.000000	65.056657 
4287.000000	65.086507 
4286.000000	65.120196 
4285.000000	65.155100 
4284.000000	65.190029 
4283.000000	65.224575 
4282.000000	65.258598 
4281.000000	65.291452 
4280.000000	65.321683 
4279.000000	65.346789 
4278.000000	65.364217 
4277.000000	65.371918 
4276.000000	65.369391 
4275.000000	65.357613 
4274.000000	65.339040 
4273.000000	65.316557 
4272.000000	65.293121 
4271.000000	65.270853 
4270.000000	65.250778 
4269.000000	65.232610 
4268.000000	65.215492 
4267.000000	65.198111 
4266.000000	65.179824 
4265.000000	65.160202 
4264.000000	65.139818 
4263.000000	65.119171 
4262.000000	65.098571 
4261.000000	65.077781 
4260.000000	65.055894 
4259.000000	65.031552 
4258.000000	65.003204 
4257.000000	64.969706 
4256.000000	64.930891 
4255.000000	64.887928 
4254.000000	64.843153 
4253.000000	64.799594 
4252.000000	64.760708 
4251.000000	64.729714 
4250.000000	64.709281 
4249.000000	64.700913 
4248.000000	64.705133 
4247.000000	64.721417 
4246.000000	64.748477 
4245.000000	64.784240 
4244.000000	64.826154 
4243.000000	64.871287 
4242.000000	64.916896 
4241.000000	64.960050 
4240.000000	64.998459 
4239.000000	65.030193 
4238.000000	65.054059 
4237.000000	65.069913 
4236.000000	65.078282 
4235.000000	65.080428 
4234.000000	65.077924 
4233.000000	65.072917 
4232.000000	65.067386 
4231.000000	65.063142 
4230.000000	65.061664 
4229.000000	65.064239 
4228.000000	65.071678 
4227.000000	65.084266 
4226.000000	65.101528 
4225.000000	65.122413 
4224.000000	65.144634 
4223.000000	65.165209 
4222.000000	65.181016 
4221.000000	65.189337 
4220.000000	65.188527 
4219.000000	65.178227 
4218.000000	65.160107 
4217.000000	65.136837 
4216.000000	65.111923 
4215.000000	65.088415 
4214.000000	65.068078 
4213.000000	65.051507 
4212.000000	65.038251 
4211.000000	65.027499 
4210.000000	65.018153 
4209.000000	65.010309 
4208.000000	65.005660 
4207.000000	65.006780 
4206.000000	65.016222 
4205.000000	65.035438 
4204.000000	65.064024 
4203.000000	65.099072 
4202.000000	65.135574 
4201.000000	65.167999 
4200.000000	65.191698 
4199.000000	65.204334 
4198.000000	65.206670 
4197.000000	65.202426 
4196.000000	65.197134 
4195.000000	65.196442 
4194.000000	65.204405 
4193.000000	65.222549 
4192.000000	65.248918 
4191.000000	65.279269 
4190.000000	65.307188 
4189.000000	65.326786 
4188.000000	65.332722 
4187.000000	65.322494 
4186.000000	65.295457 
4185.000000	65.252995 
4184.000000	65.197706 
4183.000000	65.132808 
4182.000000	65.061616 
4181.000000	64.987277 
4180.000000	64.912891 
4179.000000	64.841794 
4178.000000	64.777278 
4177.000000	64.722537 
4176.000000	64.680218 
4175.000000	64.652037 
4174.000000	64.638662 
4173.000000	64.639592 
4172.000000	64.653229 
4171.000000	64.677047 
4170.000000	64.708185 
4169.000000	64.743804 
4168.000000	64.780950 
4167.000000	64.817047 
4166.000000	64.849519 
4165.000000	64.876317 
4164.000000	64.895725 
4163.000000	64.906954 
4162.000000	64.910340 
4161.000000	64.907240 
4160.000000	64.900279 
4159.000000	64.892315 
