PE IR       SPECTRUM    SPECTRUM    ASCII       PEDS        1.60        
  -1
BZ6EA3~1.ASC
17/04/07
17:50:29.00
17/04/07
17:50:29.00
tln
$BZ1503107-1_t0056$<tbV0>[13.0,0.0,8.0,0.0,27,1,0]
370.000000
64









2002,4.07    
MIRTGS : RIGHTBACK : INTERNAL 2
MIR : ON : INTERNAL 2
OPTKBR

0.200000
8
8.000000
FILLER
RATIO
SPECTRUM
UNLOCKED 256

DOUBLE
64
COMBINED
1
0
0


1.000000
RATIO


1
0
TRUE
51149
0
LEFT NOT FITTED RIGHT NOT FITTED 0
NONE
NONE
15600
12.000000
4.427000
51148
TRUE
1 0 8 72 0 0 0 0 

15798.010000






#HDR
-1
-1
#GR
CM-1
%T
0.00002384185791015625
0.0
5000.000000
-1.000000
4631
8
74.066996
47.312307
#DATA
5000.000000	65.602993 
4999.000000	65.799546 
4998.000000	65.999889 
4997.000000	66.216611 
4996.000000	66.453814 
4995.000000	66.707801 
4994.000000	66.959118 
4993.000000	67.180824 
4992.000000	67.336034 
4991.000000	67.389369 
4990.000000	67.312550 
4989.000000	67.095828 
4988.000000	66.748619 
4987.000000	66.300773 
4986.000000	65.797114 
4985.000000	65.290307 
4984.000000	64.829111 
4983.000000	64.449954 
4982.000000	64.170241 
4981.000000	63.987970 
4980.000000	63.884997 
4979.000000	63.835406 
4978.000000	63.812637 
4977.000000	63.798475 
4976.000000	63.783693 
4975.000000	63.772177 
4974.000000	63.771510 
4973.000000	63.794302 
4972.000000	63.849735 
4971.000000	63.943409 
4970.000000	64.071130 
4969.000000	64.223575 
4968.000000	64.388632 
4967.000000	64.554905 
4966.000000	64.713287 
4965.000000	64.860224 
4964.000000	64.998054 
4963.000000	65.132117 
4962.000000	65.268135 
4961.000000	65.407609 
4960.000000	65.546441 
4959.000000	65.673685 
4958.000000	65.774679 
4957.000000	65.833044 
4956.000000	65.835905 
4955.000000	65.779590 
4954.000000	65.672612 
4953.000000	65.533518 
4952.000000	65.388011 
4951.000000	65.266394 
4950.000000	65.195226 
4949.000000	65.191507 
4948.000000	65.256834 
4947.000000	65.379071 
4946.000000	65.532374 
4945.000000	65.683770 
4944.000000	65.799355 
4943.000000	65.852236 
4942.000000	65.827941 
4941.000000	65.726304 
4940.000000	65.562033 
4939.000000	65.359210 
4938.000000	65.147638 
4937.000000	64.956378 
4936.000000	64.807796 
4935.000000	64.714121 
4934.000000	64.676856 
4933.000000	64.689230 
4932.000000	64.738512 
4931.000000	64.810013 
4930.000000	64.891958 
4929.000000	64.977622 
4928.000000	65.064477 
4927.000000	65.152764 
4926.000000	65.242791 
4925.000000	65.333342 
4924.000000	65.419507 
4923.000000	65.494394 
4922.000000	65.551805 
4921.000000	65.588784 
4920.000000	65.608787 
4919.000000	65.619969 
4918.000000	65.634369 
4917.000000	65.662765 
4916.000000	65.712618 
4915.000000	65.783572 
4914.000000	65.867495 
4913.000000	65.949535 
4912.000000	66.012310 
4911.000000	66.040539 
4910.000000	66.026520 
4909.000000	65.971374 
4908.000000	65.886139 
4907.000000	65.787053 
4906.000000	65.691280 
4905.000000	65.612459 
4904.000000	65.557432 
4903.000000	65.525889 
4902.000000	65.511345 
4901.000000	65.504503 
4900.000000	65.496325 
4899.000000	65.480232 
4898.000000	65.453743 
4897.000000	65.416502 
4896.000000	65.370678 
4895.000000	65.319657 
4894.000000	65.267920 
4893.000000	65.219378 
4892.000000	65.177488 
4891.000000	65.145587 
4890.000000	65.126252 
4889.000000	65.121221 
4888.000000	65.130925 
4887.000000	65.154170 
4886.000000	65.188241 
4885.000000	65.228533 
4884.000000	65.269660 
4883.000000	65.306186 
4882.000000	65.333271 
4881.000000	65.347766 
4880.000000	65.348100 
4879.000000	65.334391 
4878.000000	65.307664 
4877.000000	65.269374 
4876.000000	65.221381 
4875.000000	65.165519 
4874.000000	65.104174 
4873.000000	65.040373 
4872.000000	64.976692 
4871.000000	64.915609 
4870.000000	64.859008 
4869.000000	64.808797 
4868.000000	64.766311 
4867.000000	64.733004 
4866.000000	64.710092 
4865.000000	64.698934 
4864.000000	64.700055 
4863.000000	64.713668 
4862.000000	64.738583 
4861.000000	64.773106 
4860.000000	64.814090 
4859.000000	64.857864 
4858.000000	64.900660 
4857.000000	64.939022 
4856.000000	64.970254 
4855.000000	64.992403 
4854.000000	65.004444 
4853.000000	65.005779 
4852.000000	64.996170 
4851.000000	64.975595 
4850.000000	64.944386 
4849.000000	64.903855 
4848.000000	64.856696 
4847.000000	64.807224 
4846.000000	64.760971 
4845.000000	64.723443 
4844.000000	64.699316 
4843.000000	64.691042 
4842.000000	64.698600 
4841.000000	64.719104 
4840.000000	64.747858 
4839.000000	64.779424 
4838.000000	64.809179 
4837.000000	64.833950 
4836.000000	64.853000 
4835.000000	64.867711 
4834.000000	64.880800 
4833.000000	64.895248 
4832.000000	64.912915 
4831.000000	64.934062 
4830.000000	64.956545 
4829.000000	64.976716 
4828.000000	64.989972 
4827.000000	64.992523 
4826.000000	64.982008 
4825.000000	64.958620 
4824.000000	64.924979 
4823.000000	64.885902 
4822.000000	64.847540 
4821.000000	64.815902 
4820.000000	64.795565 
4819.000000	64.788675 
4818.000000	64.794397 
4817.000000	64.809250 
4816.000000	64.827823 
4815.000000	64.844179 
4814.000000	64.853048 
4813.000000	64.851164 
4812.000000	64.837932 
4811.000000	64.815473 
4810.000000	64.787578 
4809.000000	64.759063 
4808.000000	64.733934 
4807.000000	64.715147 
4806.000000	64.703631 
4805.000000	64.699292 
4804.000000	64.700841 
4803.000000	64.707779 
4802.000000	64.720392 
4801.000000	64.740228 
4800.000000	64.769649 
4799.000000	64.810347 
4798.000000	64.862322 
4797.000000	64.922356 
4796.000000	64.984130 
4795.000000	65.038752 
4794.000000	65.076780 
4793.000000	65.090203 
4792.000000	65.074753 
4791.000000	65.031266 
4790.000000	64.965867 
4789.000000	64.889168 
4788.000000	64.813828 
4787.000000	64.751768 
4786.000000	64.711713 
4785.000000	64.697170 
4784.000000	64.706420 
4783.000000	64.733695 
4782.000000	64.770984 
4781.000000	64.810013 
4780.000000	64.844822 
4779.000000	64.872527 
4778.000000	64.893770 
4777.000000	64.911341 
4776.000000	64.929127 
4775.000000	64.949917 
4774.000000	64.974451 
4773.000000	65.001106 
4772.000000	65.025901 
4771.000000	65.043735 
4770.000000	65.049505 
4769.000000	65.040111 
4768.000000	65.014767 
4767.000000	64.975547 
4766.000000	64.926934 
4765.000000	64.874815 
4764.000000	64.825844 
4763.000000	64.785742 
4762.000000	64.758491 
4761.000000	64.745020 
4760.000000	64.743447 
4759.000000	64.748740 
4758.000000	64.754176 
4757.000000	64.752459 
4756.000000	64.736914 
4755.000000	64.703917 
4754.000000	64.652943 
4753.000000	64.588189 
4752.000000	64.516806 
4751.000000	64.448881 
4750.000000	64.394521 
4749.000000	64.362859 
4748.000000	64.359879 
4747.000000	64.387917 
4746.000000	64.444541 
4745.000000	64.523720 
4744.000000	64.616870 
4743.000000	64.714121 
4742.000000	64.806032 
4741.000000	64.884138 
4740.000000	64.941906 
4739.000000	64.975142 
4738.000000	64.981937 
4737.000000	64.963054 
4736.000000	64.921498 
4735.000000	64.862704 
4734.000000	64.793395 
4733.000000	64.721179 
4732.000000	64.652872 
4731.000000	64.594626 
4730.000000	64.550042 
4729.000000	64.520454 
4728.000000	64.504551 
4727.000000	64.499163 
4726.000000	64.500331 
4725.000000	64.503788 
4724.000000	64.506554 
4723.000000	64.506936 
4722.000000	64.505076 
4721.000000	64.501500 
4720.000000	64.497780 
4719.000000	64.495325 
4718.000000	64.495468 
4717.000000	64.498901 
4716.000000	64.505982 
4715.000000	64.516663 
4714.000000	64.530372 
4713.000000	64.546036 
4712.000000	64.562129 
4711.000000	64.576768 
4710.000000	64.588022 
4709.000000	64.594078 
4708.000000	64.593958 
4707.000000	64.587640 
4706.000000	64.576101 
4705.000000	64.561343 
4704.000000	64.545726 
4703.000000	64.532065 
4702.000000	64.522385 
4701.000000	64.518642 
4700.000000	64.522004 
4699.000000	64.534163 
4698.000000	64.556932 
4697.000000	64.592266 
4696.000000	64.641737 
4695.000000	64.705395 
4694.000000	64.780759 
4693.000000	64.862418 
4692.000000	64.942121 
4691.000000	65.010857 
4690.000000	65.060472 
4689.000000	65.086555 
4688.000000	65.089702 
4687.000000	65.076065 
4686.000000	65.055942 
4685.000000	65.041708 
4684.000000	65.044403 
4683.000000	65.070700 
4682.000000	65.120816 
4681.000000	65.188479 
4680.000000	65.262365 
4679.000000	65.329337 
4678.000000	65.377330 
4677.000000	65.398859 
4676.000000	65.391826 
4675.000000	65.359544 
4674.000000	65.308904 
4673.000000	65.248131 
4672.000000	65.184330 
4671.000000	65.122342 
4670.000000	65.063977 
4669.000000	65.009045 
4668.000000	64.956617 
4667.000000	64.906644 
4666.000000	64.861059 
4665.000000	64.823341 
4664.000000	64.798855 
4663.000000	64.793348 
4662.000000	64.811301 
4661.000000	64.853835 
4660.000000	64.918923 
4659.000000	65.000820 
4658.000000	65.091180 
4657.000000	65.180182 
4656.000000	65.258431 
4655.000000	65.318441 
4654.000000	65.355730 
4653.000000	65.369343 
4652.000000	65.361690 
4651.000000	65.337681 
4650.000000	65.304231 
4649.000000	65.268325 
4648.000000	65.236759 
4647.000000	65.214085 
4646.000000	65.203022 
4645.000000	65.202975 
4644.000000	65.211534 
4643.000000	65.223979 
4642.000000	65.235042 
4641.000000	65.239310 
4640.000000	65.232372 
4639.000000	65.211915 
4638.000000	65.178155 
4637.000000	65.134286 
4636.000000	65.085482 
4635.000000	65.038466 
4634.000000	65.000033 
4633.000000	64.975666 
4632.000000	64.968490 
4631.000000	64.978790 
4630.000000	65.004229 
4629.000000	65.040516 
4628.000000	65.082406 
4627.000000	65.124535 
4626.000000	65.162444 
4625.000000	65.193033 
4624.000000	65.214610 
4623.000000	65.226149 
4622.000000	65.227437 
4621.000000	65.218734 
4620.000000	65.200710 
4619.000000	65.174913 
4618.000000	65.143394 
4617.000000	65.109252 
4616.000000	65.075755 
4615.000000	65.046644 
4614.000000	65.024876 
4613.000000	65.012145 
4612.000000	65.008568 
4611.000000	65.012621 
4610.000000	65.022158 
4609.000000	65.035080 
4608.000000	65.050220 
4607.000000	65.067601 
4606.000000	65.088129 
4605.000000	65.112853 
4604.000000	65.142107 
4603.000000	65.174961 
4602.000000	65.209078 
4601.000000	65.241122 
4600.000000	65.267395 
4599.000000	65.284633 
4598.000000	65.291094 
4597.000000	65.286850 
4596.000000	65.273952 
4595.000000	65.255808 
4594.000000	65.236783 
4593.000000	65.220975 
4592.000000	65.211439 
4591.000000	65.209531 
4590.000000	65.214872 
4589.000000	65.225481 
4588.000000	65.238404 
4587.000000	65.250515 
4586.000000	65.259122 
4585.000000	65.263152 
4584.000000	65.262889 
4583.000000	65.260767 
4582.000000	65.260314 
4581.000000	65.265393 
4580.000000	65.279030 
4579.000000	65.301370 
4578.000000	65.329217 
4577.000000	65.356159 
4576.000000	65.374112 
4575.000000	65.375256 
4574.000000	65.354561 
4573.000000	65.311598 
4572.000000	65.250754 
4571.000000	65.180730 
4570.000000	65.112280 
4569.000000	65.055274 
4568.000000	65.016627 
4567.000000	64.998912 
4566.000000	64.999961 
4565.000000	65.013670 
4564.000000	65.032267 
4563.000000	65.048217 
4562.000000	65.056514 
4561.000000	65.055060 
4560.000000	65.045738 
4559.000000	65.032720 
4558.000000	65.022015 
4557.000000	65.018486 
4556.000000	65.026044 
4555.000000	65.046381 
4554.000000	65.079402 
4553.000000	65.123248 
4552.000000	65.174937 
4551.000000	65.230989 
4550.000000	65.287566 
4549.000000	65.340876 
4548.000000	65.387082 
4547.000000	65.422534 
4546.000000	65.443944 
4545.000000	65.448760 
4544.000000	65.435528 
4543.000000	65.403938 
4542.000000	65.356135 
4541.000000	65.295577 
4540.000000	65.227293 
4539.000000	65.156698 
4538.000000	65.089726 
4537.000000	65.031123 
4536.000000	64.983630 
4535.000000	64.947843 
4534.000000	64.922690 
4533.000000	64.905619 
4532.000000	64.893007 
4531.000000	64.881944 
4530.000000	64.870190 
4529.000000	64.857888 
4528.000000	64.847016 
4527.000000	64.840793 
4526.000000	64.842271 
4525.000000	64.853906 
4524.000000	64.876389 
4523.000000	64.907884 
4522.000000	64.944362 
4521.000000	64.981007 
4520.000000	65.013599 
4519.000000	65.039300 
4518.000000	65.057778 
4517.000000	65.071320 
4516.000000	65.084528 
4515.000000	65.102362 
4514.000000	65.129280 
4513.000000	65.167045 
4512.000000	65.215373 
4511.000000	65.271282 
4510.000000	65.331482 
4509.000000	65.393495 
4508.000000	65.456509 
4507.000000	65.522599 
4506.000000	65.593576 
4505.000000	65.670013 
4504.000000	65.748572 
4503.000000	65.822005 
4502.000000	65.879654 
4501.000000	65.910291 
4500.000000	65.904140 
4499.000000	65.856242 
4498.000000	65.767240 
4497.000000	65.644192 
4496.000000	65.498518 
4495.000000	65.344333 
4494.000000	65.197134 
4493.000000	65.071320 
4492.000000	64.977908 
4491.000000	64.923095 
4490.000000	64.907789 
4489.000000	64.928245 
4488.000000	64.975738 
4487.000000	65.039777 
4486.000000	65.109729 
4485.000000	65.177392 
4484.000000	65.236139 
4483.000000	65.283060 
4482.000000	65.319752 
4481.000000	65.348935 
4480.000000	65.369486 
4479.000000	65.379786 
4478.000000	65.380835 
4477.000000	65.371370 
4476.000000	65.348744 
4475.000000	65.309381 
4474.000000	65.248966 
4473.000000	65.167856 
4472.000000	65.074443 
4471.000000	64.973473 
4470.000000	64.864540 
4469.000000	64.747929 
4468.000000	64.625287 
4467.000000	64.496874 
4466.000000	64.363789 
4465.000000	64.231324 
4464.000000	64.108228 
4463.000000	64.002919 
4462.000000	63.923311 
4461.000000	63.871502 
4460.000000	63.843131 
4459.000000	63.844156 
4458.000000	63.866543 
4457.000000	63.897347 
4456.000000	63.896322 
4455.000000	63.803482 
4454.000000	63.544654 
4453.000000	63.035964 
4452.000000	62.234497 
4451.000000	61.147737 
4450.000000	59.873199 
4449.000000	58.579325 
4448.000000	57.500672 
4447.000000	56.883478 
4446.000000	56.939291 
4445.000000	57.787680 
4444.000000	59.424614 
4443.000000	61.711335 
4442.000000	64.401769 
4441.000000	67.185950 
4440.000000	69.753837 
4439.000000	71.843004 
4438.000000	73.289012 
4437.000000	74.025058 
4436.000000	74.066996 
4435.000000	73.481535 
4434.000000	72.363734 
4433.000000	70.808768 
4432.000000	68.917798 
4431.000000	66.786289 
4430.000000	64.546155 
4429.000000	62.334966 
4428.000000	60.310149 
4427.000000	58.615803 
4426.000000	57.364463 
4425.000000	56.620550 
4424.000000	56.380176 
4423.000000	56.586050 
4422.000000	57.125353 
4421.000000	57.872653 
4420.000000	58.702898 
4419.000000	59.524631 
4418.000000	60.281324 
4417.000000	60.961294 
4416.000000	61.580848 
4415.000000	62.170267 
4414.000000	62.752723 
4413.000000	63.337492 
4412.000000	63.911795 
4411.000000	64.446783 
4410.000000	64.903163 
4409.000000	65.256452 
4408.000000	65.495491 
4407.000000	65.626907 
4406.000000	65.669631 
4405.000000	65.654015 
4404.000000	65.609717 
4403.000000	65.563559 
4402.000000	65.530300 
4401.000000	65.512061 
4400.000000	65.501260 
4399.000000	65.497660 
4398.000000	65.497565 
4397.000000	65.494894 
4396.000000	65.485191 
4395.000000	65.468931 
4394.000000	65.446305 
4393.000000	65.415120 
4392.000000	65.375065 
4391.000000	65.327787 
4390.000000	65.276408 
4389.000000	65.225839 
4388.000000	65.177726 
4387.000000	65.130472 
4386.000000	65.084338 
4385.000000	65.041589 
4384.000000	65.003800 
4383.000000	64.972901 
4382.000000	64.952683 
4381.000000	64.947724 
4380.000000	64.958906 
4379.000000	64.985322 
4378.000000	65.025281 
4377.000000	65.076065 
4376.000000	65.132617 
4375.000000	65.190052 
4374.000000	65.244102 
4373.000000	65.292406 
4372.000000	65.333914 
4371.000000	65.370106 
4370.000000	65.404033 
4369.000000	65.440130 
4368.000000	65.483045 
4367.000000	65.536141 
4366.000000	65.600585 
4365.000000	65.674686 
4364.000000	65.754389 
4363.000000	65.833091 
4362.000000	65.903067 
4361.000000	65.956950 
4360.000000	65.989017 
4359.000000	65.995454 
4358.000000	65.974831 
4357.000000	65.928602 
4356.000000	65.860366 
4355.000000	65.775966 
4354.000000	65.681862 
4353.000000	65.585541 
4352.000000	65.493655 
4351.000000	65.411877 
4350.000000	65.343379 
4349.000000	65.289545 
4348.000000	65.249013 
4347.000000	65.218782 
4346.000000	65.194940 
4345.000000	65.172958 
4344.000000	65.150022 
4343.000000	65.125060 
4342.000000	65.099835 
4341.000000	65.077447 
4340.000000	65.062665 
4339.000000	65.060329 
4338.000000	65.074110 
4337.000000	65.105032 
4336.000000	65.151309 
4335.000000	65.208315 
4334.000000	65.269327 
4333.000000	65.326666 
4332.000000	65.372943 
4331.000000	65.402483 
4330.000000	65.411972 
4329.000000	65.401291 
4328.000000	65.372920 
4327.000000	65.331983 
4326.000000	65.284919 
4325.000000	65.238833 
4324.000000	65.200495 
4323.000000	65.175342 
4322.000000	65.167379 
4321.000000	65.177869 
4320.000000	65.205764 
4319.000000	65.247464 
4318.000000	65.297698 
4317.000000	65.350222 
4316.000000	65.398859 
4315.000000	65.438747 
4314.000000	65.466737 
4313.000000	65.481805 
4312.000000	65.484857 
4311.000000	65.478587 
4310.000000	65.466761 
4309.000000	65.453767 
4308.000000	65.443730 
4307.000000	65.440297 
4306.000000	65.445947 
4305.000000	65.461611 
4304.000000	65.486168 
4303.000000	65.516686 
4302.000000	65.548419 
4301.000000	65.575909 
4300.000000	65.593528 
4299.000000	65.596723 
4298.000000	65.582299 
4297.000000	65.549707 
4296.000000	65.500259 
4295.000000	65.437602 
4294.000000	65.366053 
4293.000000	65.290307 
4292.000000	65.214443 
4291.000000	65.141439 
4290.000000	65.073847 
4289.000000	65.013718 
4288.000000	64.963436 
4287.000000	64.925575 
4286.000000	64.903187 
4285.000000	64.899206 
4284.000000	64.915442 
4283.000000	64.951395 
4282.000000	65.004515 
4281.000000	65.069913 
4280.000000	65.140867 
4279.000000	65.209579 
4278.000000	65.268874 
4277.000000	65.313315 
4276.000000	65.340018 
4275.000000	65.348863 
4274.000000	65.342330 
4273.000000	65.324234 
4272.000000	65.299463 
4271.000000	65.271854 
4270.000000	65.244078 
4269.000000	65.216684 
4268.000000	65.189266 
4267.000000	65.160179 
4266.000000	65.127706 
4265.000000	65.090823 
4264.000000	65.050172 
4263.000000	65.007901 
4262.000000	64.966940 
4261.000000	64.930868 
4260.000000	64.902853 
4259.000000	64.884686 
4258.000000	64.875769 
4257.000000	64.873456 
4256.000000	64.873766 
4255.000000	64.872264 
4254.000000	64.865040 
4253.000000	64.849686 
4252.000000	64.826035 
4251.000000	64.795899 
4250.000000	64.762949 
4249.000000	64.730954 
4248.000000	64.703321 
4247.000000	64.682769 
4246.000000	64.670825 
4245.000000	64.667654 
4244.000000	64.672684 
4243.000000	64.684963 
4242.000000	64.703893 
4241.000000	64.728975 
4240.000000	64.760112 
4239.000000	64.796996 
4238.000000	64.839243 
4237.000000	64.885640 
4236.000000	64.934730 
4235.000000	64.984369 
4234.000000	65.032625 
4233.000000	65.077781 
4232.000000	65.118861 
4231.000000	65.155577 
4230.000000	65.188241 
4229.000000	65.217566 
4228.000000	65.243792 
4227.000000	65.266442 
4226.000000	65.284204 
4225.000000	65.294933 
4224.000000	65.296053 
4223.000000	65.285062 
4222.000000	65.260457 
4221.000000	65.222406 
4220.000000	65.173077 
4219.000000	65.116357 
4218.000000	65.057897 
4217.000000	65.003919 
4216.000000	64.960026 
4215.000000	64.930367 
4214.000000	64.916729 
4213.000000	64.918661 
4212.000000	64.933371 
4211.000000	64.956474 
4210.000000	64.982724 
4209.000000	65.007138 
4208.000000	65.025949 
4207.000000	65.036869 
4206.000000	65.038943 
4205.000000	65.032911 
4204.000000	65.020632 
4203.000000	65.004515 
4202.000000	64.986872 
4201.000000	64.969825 
4200.000000	64.955210 
4199.000000	64.944291 
4198.000000	64.937710 
4197.000000	64.935994 
4196.000000	64.939522 
4195.000000	64.948296 
4194.000000	64.962148 
4193.000000	64.980769 
4192.000000	65.003299 
4191.000000	65.028762 
4190.000000	65.055394 
4189.000000	65.080809 
4188.000000	65.102028 
4187.000000	65.116500 
4186.000000	65.121889 
4185.000000	65.116667 
4184.000000	65.100288 
4183.000000	65.074038 
4182.000000	65.040349 
4181.000000	65.002632 
4180.000000	64.964509 
4179.000000	64.929342 
4178.000000	64.899301 
4177.000000	64.875340 
4176.000000	64.856767 
4175.000000	64.841842 
4174.000000	64.828014 
4173.000000	64.812612 
4172.000000	64.793515 
4171.000000	64.769721 
4170.000000	64.741063 
4169.000000	64.708614 
4168.000000	64.674091 
4167.000000	64.640188 
4166.000000	64.610266 
4165.000000	64.588236 
4164.000000	64.577913 
4163.000000	64.582610 
4162.000000	64.604544 
4161.000000	64.644312 
4160.000000	64.700007 
4159.000000	64.767479 
