PE IR       SPECTRUM    SPECTRUM    ASCII       PEDS        1.60        
  -1
BZ4C7A~1.ASC
17/04/07
22:39:07.00
17/04/07
22:39:07.00
tln
$BZ1503107-1_t0114$<tbV0>[5.2,13.0,8.0,0.0,27,1,0]
370.000000
64









2002,4.07    
MIRTGS : RIGHTBACK : INTERNAL 2
MIR : ON : INTERNAL 2
OPTKBR

0.200000
8
8.000000
FILLER
RATIO
SPECTRUM
UNLOCKED 256

DOUBLE
64
COMBINED
1
0
0


1.000000
RATIO


1
0
TRUE
51149
0
LEFT NOT FITTED RIGHT NOT FITTED 0
NONE
NONE
15600
12.000000
4.427000
51148
TRUE
1 0 8 72 0 0 0 0 

15798.010000






#HDR
-1
-1
#GR
CM-1
%T
0.00002384185791015625
0.0
5000.000000
-1.000000
4631
8
80.765438
51.899600
#DATA
5000.000000	65.793704 
4999.000000	65.730166 
4998.000000	65.570783 
4997.000000	65.342044 
4996.000000	65.081858 
4995.000000	64.834761 
4994.000000	64.642906 
4993.000000	64.539790 
4992.000000	64.542365 
4991.000000	64.650774 
4990.000000	64.845728 
4989.000000	65.095376 
4988.000000	65.357851 
4987.000000	65.590310 
4986.000000	65.755796 
4985.000000	65.829682 
4984.000000	65.802669 
4983.000000	65.680789 
4982.000000	65.484118 
4981.000000	65.241599 
4980.000000	64.985060 
4979.000000	64.743232 
4978.000000	64.537811 
4977.000000	64.380526 
4976.000000	64.275479 
4975.000000	64.219594 
4974.000000	64.204096 
4973.000000	64.219021 
4972.000000	64.254665 
4971.000000	64.305424 
4970.000000	64.365220 
4969.000000	64.433240 
4968.000000	64.509630 
4967.000000	64.598202 
4966.000000	64.702391 
4965.000000	64.825415 
4964.000000	64.967703 
4963.000000	65.126085 
4962.000000	65.294313 
4961.000000	65.461134 
4960.000000	65.611886 
4959.000000	65.730905 
4958.000000	65.805077 
4957.000000	65.827846 
4956.000000	65.801048 
4955.000000	65.735030 
4954.000000	65.645718 
4953.000000	65.550804 
4952.000000	65.464544 
4951.000000	65.394854 
4950.000000	65.341544 
4949.000000	65.297293 
4948.000000	65.251016 
4947.000000	65.193629 
4946.000000	65.120768 
4945.000000	65.034031 
4944.000000	64.942073 
4943.000000	64.856672 
4942.000000	64.791941 
4941.000000	64.758634 
4940.000000	64.763712 
4939.000000	64.806985 
4938.000000	64.883232 
4937.000000	64.983844 
4936.000000	65.097928 
4935.000000	65.214753 
4934.000000	65.323710 
4933.000000	65.415740 
4932.000000	65.482783 
4931.000000	65.517997 
4930.000000	65.518426 
4929.000000	65.485715 
4928.000000	65.426611 
4927.000000	65.351676 
4926.000000	65.273761 
4925.000000	65.205144 
4924.000000	65.154743 
4923.000000	65.126562 
4922.000000	65.119242 
4921.000000	65.127396 
4920.000000	65.143942 
4919.000000	65.162110 
4918.000000	65.176963 
4917.000000	65.186381 
4916.000000	65.190887 
4915.000000	65.193057 
4914.000000	65.195107 
4913.000000	65.198874 
4912.000000	65.204477 
4911.000000	65.210938 
4910.000000	65.217113 
4909.000000	65.221667 
4908.000000	65.224528 
4907.000000	65.225195 
4906.000000	65.223073 
4905.000000	65.216207 
4904.000000	65.201473 
4903.000000	65.176200 
4902.000000	65.139079 
4901.000000	65.091323 
4900.000000	65.036654 
4899.000000	64.980554 
4898.000000	64.928722 
4897.000000	64.885187 
4896.000000	64.851760 
4895.000000	64.827084 
4894.000000	64.808034 
4893.000000	64.791178 
4892.000000	64.774155 
4891.000000	64.756512 
4890.000000	64.740157 
4889.000000	64.728403 
4888.000000	64.724898 
4887.000000	64.731574 
4886.000000	64.747881 
4885.000000	64.769601 
4884.000000	64.790439 
4883.000000	64.803218 
4882.000000	64.802336 
4881.000000	64.785361 
4880.000000	64.753699 
4879.000000	64.712405 
4878.000000	64.668416 
4877.000000	64.628863 
4876.000000	64.599609 
4875.000000	64.583921 
4874.000000	64.582133 
4873.000000	64.591908 
4872.000000	64.608931 
4871.000000	64.628291 
4870.000000	64.646029 
4869.000000	64.660215 
4868.000000	64.671182 
4867.000000	64.681243 
4866.000000	64.693975 
4865.000000	64.712476 
4864.000000	64.737367 
4863.000000	64.766740 
4862.000000	64.796066 
4861.000000	64.819812 
4860.000000	64.832901 
4859.000000	64.832472 
4858.000000	64.819264 
4857.000000	64.796662 
4856.000000	64.770078 
4855.000000	64.744567 
4854.000000	64.723443 
4853.000000	64.706945 
4852.000000	64.692330 
4851.000000	64.674806 
4850.000000	64.649176 
4849.000000	64.612698 
4848.000000	64.566636 
4847.000000	64.516282 
4846.000000	64.470076 
4845.000000	64.437341 
4844.000000	64.425921 
4843.000000	64.439606 
4842.000000	64.477396 
4841.000000	64.534020 
4840.000000	64.601087 
4839.000000	64.669799 
4838.000000	64.732313 
4837.000000	64.783143 
4836.000000	64.819788 
4835.000000	64.842176 
4834.000000	64.852404 
4833.000000	64.853167 
4832.000000	64.847087 
4831.000000	64.837050 
4830.000000	64.824414 
4829.000000	64.809656 
4828.000000	64.791512 
4827.000000	64.768743 
4826.000000	64.739108 
4825.000000	64.700508 
4824.000000	64.651322 
4823.000000	64.591193 
4822.000000	64.521121 
4821.000000	64.443993 
4820.000000	64.364123 
4819.000000	64.286994 
4818.000000	64.218401 
4817.000000	64.163970 
4816.000000	64.127540 
4815.000000	64.111447 
4814.000000	64.115834 
4813.000000	64.139914 
4812.000000	64.181041 
4811.000000	64.237046 
4810.000000	64.305496 
4809.000000	64.385104 
4808.000000	64.473962 
4807.000000	64.570760 
4806.000000	64.673662 
4805.000000	64.780521 
4804.000000	64.887833 
4803.000000	64.991331 
4802.000000	65.086507 
4801.000000	65.168666 
4800.000000	65.234446 
4799.000000	65.281057 
4798.000000	65.307283 
4797.000000	65.313196 
4796.000000	65.300822 
4795.000000	65.272212 
4794.000000	65.229511 
4793.000000	65.175271 
4792.000000	65.112352 
4791.000000	65.043759 
4790.000000	64.972567 
4789.000000	64.902567 
4788.000000	64.837718 
4787.000000	64.781045 
4786.000000	64.734625 
4785.000000	64.698910 
4784.000000	64.673137 
4783.000000	64.655661 
4782.000000	64.644384 
4781.000000	64.637064 
4780.000000	64.631605 
4779.000000	64.626121 
4778.000000	64.619016 
4777.000000	64.607882 
4776.000000	64.591336 
4775.000000	64.568734 
4774.000000	64.541363 
4773.000000	64.511442 
4772.000000	64.483976 
4771.000000	64.465832 
4770.000000	64.464449 
4769.000000	64.485740 
4768.000000	64.532923 
4767.000000	64.605236 
4766.000000	64.697408 
4765.000000	64.800262 
4764.000000	64.902567 
4763.000000	64.992928 
4762.000000	65.062522 
4761.000000	65.106415 
4760.000000	65.123248 
4759.000000	65.115499 
4758.000000	65.088725 
4757.000000	65.050268 
4756.000000	65.007781 
4755.000000	64.967679 
4754.000000	64.936232 
4753.000000	64.916658 
4752.000000	64.910268 
4751.000000	64.914751 
4750.000000	64.926099 
4749.000000	64.938163 
4748.000000	64.943885 
4747.000000	64.937114 
4746.000000	64.913415 
4745.000000	64.871978 
4744.000000	64.815759 
4743.000000	64.751410 
4742.000000	64.687633 
4741.000000	64.633584 
4740.000000	64.596962 
4739.000000	64.582109 
4738.000000	64.589357 
4737.000000	64.615869 
4736.000000	64.656686 
4735.000000	64.706039 
4734.000000	64.758872 
4733.000000	64.812064 
4732.000000	64.864754 
4731.000000	64.916944 
4730.000000	64.969158 
4729.000000	65.021324 
4728.000000	65.072226 
4727.000000	65.119552 
4726.000000	65.160107 
4725.000000	65.191316 
4724.000000	65.210986 
4723.000000	65.219235 
4722.000000	65.216803 
4721.000000	65.205669 
4720.000000	65.187716 
4719.000000	65.164494 
4718.000000	65.136909 
4717.000000	65.105772 
4716.000000	65.071940 
4715.000000	65.036749 
4714.000000	65.001511 
4713.000000	64.967632 
4712.000000	64.936041 
4711.000000	64.907169 
4710.000000	64.880800 
4709.000000	64.856648 
4708.000000	64.834666 
4707.000000	64.815449 
4706.000000	64.800596 
4705.000000	64.792394 
4704.000000	64.793348 
4703.000000	64.804935 
4702.000000	64.826965 
4701.000000	64.856815 
4700.000000	64.889669 
4699.000000	64.919304 
4698.000000	64.939546 
4697.000000	64.945578 
4696.000000	64.935135 
4695.000000	64.908909 
4694.000000	64.869832 
4693.000000	64.822864 
4692.000000	64.773535 
4691.000000	64.727449 
4690.000000	64.689421 
4689.000000	64.663004 
4688.000000	64.650273 
4687.000000	64.650726 
4686.000000	64.661884 
4685.000000	64.678955 
4684.000000	64.696073 
4683.000000	64.707231 
4682.000000	64.708018 
4681.000000	64.696526 
4680.000000	64.674496 
4679.000000	64.646768 
4678.000000	64.620947 
4677.000000	64.605450 
4676.000000	64.607715 
4675.000000	64.632058 
4674.000000	64.678907 
4673.000000	64.744186 
4672.000000	64.820837 
4671.000000	64.900445 
4670.000000	64.974975 
4669.000000	65.038681 
4668.000000	65.088772 
4667.000000	65.125083 
4666.000000	65.149474 
4665.000000	65.164494 
4664.000000	65.172314 
4663.000000	65.174460 
4662.000000	65.171217 
4661.000000	65.162491 
4660.000000	65.147423 
4659.000000	65.125274 
4658.000000	65.095853 
4657.000000	65.060353 
4656.000000	65.020918 
4655.000000	64.980816 
4654.000000	64.944005 
4653.000000	64.914464 
4652.000000	64.895486 
4651.000000	64.888906 
4650.000000	64.894771 
4649.000000	64.911365 
4648.000000	64.935135 
4647.000000	64.961838 
4646.000000	64.986753 
4645.000000	65.006065 
4644.000000	65.017533 
4643.000000	65.020751 
4642.000000	65.016579 
4641.000000	65.007162 
4640.000000	64.995408 
4639.000000	64.983844 
4638.000000	64.973688 
4637.000000	64.965629 
4636.000000	64.960169 
4635.000000	64.957618 
4634.000000	64.958524 
4633.000000	64.963603 
4632.000000	64.973616 
4631.000000	64.988923 
4630.000000	65.009403 
4629.000000	65.034103 
4628.000000	65.061497 
4627.000000	65.089821 
4626.000000	65.117430 
4625.000000	65.143299 
4624.000000	65.166997 
4623.000000	65.189099 
4622.000000	65.210151 
4621.000000	65.230703 
4620.000000	65.249824 
4619.000000	65.266227 
4618.000000	65.276813 
4617.000000	65.277719 
4616.000000	65.264201 
4615.000000	65.232372 
4614.000000	65.179753 
4613.000000	65.106511 
4612.000000	65.015602 
4611.000000	64.912700 
4610.000000	64.805865 
4609.000000	64.704585 
4608.000000	64.618325 
4607.000000	64.555120 
4606.000000	64.520311 
4605.000000	64.515519 
4604.000000	64.538431 
4603.000000	64.583158 
4602.000000	64.640665 
4601.000000	64.700746 
4600.000000	64.753174 
4599.000000	64.790463 
4598.000000	64.808726 
4597.000000	64.809250 
4596.000000	64.797568 
4595.000000	64.782571 
4594.000000	64.774417 
4593.000000	64.781546 
4592.000000	64.809179 
4591.000000	64.856910 
4590.000000	64.919686 
4589.000000	64.987301 
4588.000000	65.047740 
4587.000000	65.089035 
4586.000000	65.102481 
4585.000000	65.084671 
4584.000000	65.037918 
4583.000000	64.970517 
4582.000000	64.894413 
4581.000000	64.823436 
4580.000000	64.770340 
4579.000000	64.744305 
4578.000000	64.749193 
4577.000000	64.783763 
4576.000000	64.842319 
4575.000000	64.915466 
4574.000000	64.992570 
4573.000000	65.063571 
4572.000000	65.121054 
4571.000000	65.161156 
4570.000000	65.183901 
4569.000000	65.192151 
4568.000000	65.190076 
4567.000000	65.182447 
4566.000000	65.172433 
4565.000000	65.161347 
4564.000000	65.147995 
4563.000000	65.130019 
4562.000000	65.104126 
4561.000000	65.068221 
4560.000000	65.021824 
4559.000000	64.966940 
4558.000000	64.907979 
4557.000000	64.850449 
4556.000000	64.800858 
4555.000000	64.765381 
4554.000000	64.748787 
4553.000000	64.753293 
4552.000000	64.779019 
4551.000000	64.823794 
4550.000000	64.883613 
4549.000000	64.952898 
4548.000000	65.025019 
4547.000000	65.093016 
4546.000000	65.150141 
4545.000000	65.190577 
4544.000000	65.210413 
4543.000000	65.208196 
4542.000000	65.185189 
4541.000000	65.145015 
4540.000000	65.093731 
4539.000000	65.038013 
4538.000000	64.984726 
4537.000000	64.938950 
4536.000000	64.904117 
4535.000000	64.880800 
4534.000000	64.867877 
4533.000000	64.862322 
4532.000000	64.860177 
4531.000000	64.857506 
4530.000000	64.851522 
4529.000000	64.840316 
4528.000000	64.823222 
4527.000000	64.800310 
4526.000000	64.771962 
4525.000000	64.738678 
4524.000000	64.700913 
4523.000000	64.659285 
4522.000000	64.614915 
4521.000000	64.569664 
4520.000000	64.526271 
4519.000000	64.488244 
4518.000000	64.459228 
4517.000000	64.442753 
4516.000000	64.440870 
4515.000000	64.453268 
4514.000000	64.477109 
4513.000000	64.506721 
4512.000000	64.535617 
4511.000000	64.556884 
4510.000000	64.566469 
4509.000000	64.563560 
4508.000000	64.551973 
4507.000000	64.539051 
4506.000000	64.533662 
4505.000000	64.543628 
4504.000000	64.573097 
4503.000000	64.621424 
4502.000000	64.682054 
4501.000000	64.743781 
4500.000000	64.793896 
4499.000000	64.821743 
4498.000000	64.821553 
4497.000000	64.794158 
4496.000000	64.746999 
4495.000000	64.692187 
4494.000000	64.641737 
4493.000000	64.604759 
4492.000000	64.585494 
4491.000000	64.582943 
4490.000000	64.592266 
4489.000000	64.606738 
4488.000000	64.622259 
4487.000000	64.636969 
4486.000000	64.651250 
4485.000000	64.666509 
4484.000000	64.682364 
4483.000000	64.697289 
4482.000000	64.707446 
4481.000000	64.709186 
4480.000000	64.699411 
4479.000000	64.678478 
4478.000000	64.651370 
4477.000000	64.626693 
4476.000000	64.614486 
4475.000000	64.624619 
4474.000000	64.665007 
4473.000000	64.737224 
4472.000000	64.834880 
4471.000000	64.948153 
4470.000000	65.066885 
4469.000000	65.179157 
4468.000000	65.274453 
4467.000000	65.352988 
4466.000000	65.424466 
4465.000000	65.499329 
4464.000000	65.586709 
4463.000000	65.694761 
4462.000000	65.824818 
4461.000000	65.972948 
4460.000000	66.126894 
4459.000000	66.263484 
4458.000000	66.356825 
4457.000000	66.395759 
4456.000000	66.376924 
4455.000000	66.299080 
4454.000000	66.168928 
4453.000000	66.009902 
4452.000000	65.842556 
4451.000000	65.678811 
4450.000000	65.519380 
4449.000000	65.357351 
4448.000000	65.176105 
4447.000000	64.959168 
4446.000000	64.685058 
4445.000000	64.334440 
4444.000000	63.883256 
4443.000000	63.307571 
4442.000000	62.576317 
4441.000000	61.660814 
4440.000000	60.538291 
4439.000000	59.213304 
4438.000000	57.714033 
4437.000000	56.121611 
4436.000000	54.558849 
4435.000000	53.207111 
4434.000000	52.253770 
4433.000000	51.899600 
4432.000000	52.302169 
4431.000000	53.569746 
4430.000000	55.709028 
4429.000000	58.635807 
4428.000000	62.173461 
4427.000000	66.066956 
4426.000000	70.015048 
4425.000000	73.696088 
4424.000000	76.811003 
4423.000000	79.114341 
4422.000000	80.449748 
4421.000000	80.765438 
4420.000000	80.122971 
4419.000000	78.687548 
4418.000000	76.710414 
4417.000000	74.473762 
4416.000000	72.251224 
4415.000000	70.268750 
4414.000000	68.677902 
4413.000000	67.537403 
4412.000000	66.820669 
4411.000000	66.440868 
4410.000000	66.283297 
4409.000000	66.229653 
4408.000000	66.192674 
4407.000000	66.115927 
4406.000000	65.990638 
4405.000000	65.826392 
4404.000000	65.655279 
4403.000000	65.497016 
4402.000000	65.365815 
4401.000000	65.260171 
4400.000000	65.168881 
4399.000000	65.075445 
4398.000000	64.966249 
4397.000000	64.843010 
4396.000000	64.713835 
4395.000000	64.583015 
4394.000000	64.464497 
4393.000000	64.380407 
4392.000000	64.348840 
4391.000000	64.376711 
4390.000000	64.465188 
4389.000000	64.608311 
4388.000000	64.792776 
4387.000000	65.000438 
4386.000000	65.207219 
4385.000000	65.387487 
4384.000000	65.526485 
4383.000000	65.619325 
4382.000000	65.662932 
4381.000000	65.658450 
4380.000000	65.614032 
4379.000000	65.541076 
4378.000000	65.451717 
4377.000000	65.357351 
4376.000000	65.269446 
4375.000000	65.196490 
4374.000000	65.144968 
4373.000000	65.117406 
4372.000000	65.114164 
4371.000000	65.131568 
4370.000000	65.162920 
4369.000000	65.199851 
4368.000000	65.233635 
4367.000000	65.257096 
4366.000000	65.265297 
4365.000000	65.256738 
4364.000000	65.233159 
4363.000000	65.198898 
4362.000000	65.159463 
4361.000000	65.120553 
4360.000000	65.086913 
4359.000000	65.062427 
4358.000000	65.049290 
4357.000000	65.048456 
4356.000000	65.059041 
4355.000000	65.079021 
4354.000000	65.105009 
4353.000000	65.131807 
4352.000000	65.153980 
4351.000000	65.166640 
4350.000000	65.166664 
4349.000000	65.153384 
4348.000000	65.128564 
4347.000000	65.095853 
4346.000000	65.059804 
4345.000000	65.025258 
4344.000000	64.995813 
4343.000000	64.973425 
4342.000000	64.958119 
4341.000000	64.948534 
4340.000000	64.941978 
4339.000000	64.935708 
4338.000000	64.927148 
4337.000000	64.914393 
4336.000000	64.896702 
4335.000000	64.874434 
4334.000000	64.848732 
4333.000000	64.821529 
4332.000000	64.795374 
4331.000000	64.773249 
4330.000000	64.758682 
4329.000000	64.755010 
4328.000000	64.764666 
4327.000000	64.788675 
4326.000000	64.826369 
4325.000000	64.875006 
4324.000000	64.930152 
4323.000000	64.985799 
4322.000000	65.035748 
4321.000000	65.073633 
4320.000000	65.094184 
4319.000000	65.093803 
4318.000000	65.071225 
4317.000000	65.027713 
4316.000000	64.966869 
4315.000000	64.894127 
4314.000000	64.816403 
4313.000000	64.740443 
4312.000000	64.672040 
4311.000000	64.614939 
4310.000000	64.570975 
4309.000000	64.539742 
4308.000000	64.519572 
4307.000000	64.508152 
4306.000000	64.503407 
4305.000000	64.504313 
4304.000000	64.511084 
4303.000000	64.524579 
4302.000000	64.545845 
4301.000000	64.574837 
4300.000000	64.610195 
4299.000000	64.648842 
4298.000000	64.686799 
4297.000000	64.720177 
4296.000000	64.746570 
4295.000000	64.765381 
4294.000000	64.778780 
4293.000000	64.790797 
4292.000000	64.806246 
4291.000000	64.829158 
4290.000000	64.861297 
4289.000000	64.901804 
4288.000000	64.946508 
4287.000000	64.989590 
4286.000000	65.024089 
4285.000000	65.044045 
4284.000000	65.045905 
4283.000000	65.029621 
4282.000000	64.998292 
4281.000000	64.957380 
4280.000000	64.913630 
4279.000000	64.873552 
4278.000000	64.842009 
4277.000000	64.821171 
4276.000000	64.810991 
4275.000000	64.809346 
4274.000000	64.813089 
4273.000000	64.818954 
4272.000000	64.824247 
4271.000000	64.827179 
4270.000000	64.827060 
4269.000000	64.823937 
4268.000000	64.817619 
4267.000000	64.808011 
4266.000000	64.794397 
4265.000000	64.776492 
4264.000000	64.753985 
4263.000000	64.727926 
4262.000000	64.700794 
4261.000000	64.676403 
4260.000000	64.659237 
4259.000000	64.653205 
4258.000000	64.660549 
4257.000000	64.680981 
4256.000000	64.711499 
4255.000000	64.746999 
4254.000000	64.781475 
4253.000000	64.809370 
4252.000000	64.826989 
4251.000000	64.832806 
4250.000000	64.827966 
4249.000000	64.815473 
4248.000000	64.799380 
4247.000000	64.783072 
4246.000000	64.768671 
4245.000000	64.756989 
4244.000000	64.747381 
4243.000000	64.738607 
4242.000000	64.729523 
4241.000000	64.719891 
4240.000000	64.710402 
4239.000000	64.702677 
4238.000000	64.698934 
4237.000000	64.700889 
4236.000000	64.709806 
4235.000000	64.725828 
4234.000000	64.748239 
4233.000000	64.775609 
4232.000000	64.806008 
4231.000000	64.837217 
4230.000000	64.867210 
4229.000000	64.894223 
4228.000000	64.917039 
4227.000000	64.935135 
4226.000000	64.948797 
4225.000000	64.959120 
4224.000000	64.968061 
4223.000000	64.978027 
4222.000000	64.991450 
4221.000000	65.009975 
4220.000000	65.034508 
4219.000000	65.064215 
4218.000000	65.096950 
4217.000000	65.129303 
4216.000000	65.157127 
4215.000000	65.176582 
4214.000000	65.185117 
4213.000000	65.181899 
4212.000000	65.168190 
4211.000000	65.146970 
4210.000000	65.122485 
4209.000000	65.099096 
4208.000000	65.080857 
4207.000000	65.070319 
4206.000000	65.068364 
4205.000000	65.073966 
4204.000000	65.084862 
4203.000000	65.097808 
4202.000000	65.109491 
4201.000000	65.117025 
4200.000000	65.118432 
4199.000000	65.112614 
4198.000000	65.099239 
4197.000000	65.079092 
4196.000000	65.053796 
4195.000000	65.025472 
4194.000000	64.996719 
4193.000000	64.970731 
4192.000000	64.950942 
4191.000000	64.940476 
4190.000000	64.941644 
4189.000000	64.955592 
4188.000000	64.981794 
4187.000000	65.017580 
4186.000000	65.058755 
4185.000000	65.099859 
4184.000000	65.135312 
4183.000000	65.160250 
4182.000000	65.171861 
4181.000000	65.170097 
4180.000000	65.157318 
4179.000000	65.138220 
4178.000000	65.118074 
4177.000000	65.101790 
4176.000000	65.092396 
4175.000000	65.090560 
4174.000000	65.094280 
4173.000000	65.099716 
4172.000000	65.102148 
4171.000000	65.097498 
4170.000000	65.083003 
4169.000000	65.058183 
4168.000000	65.024518 
4167.000000	64.985322 
4166.000000	64.944553 
4165.000000	64.906096 
4164.000000	64.873170 
4163.000000	64.847803 
4162.000000	64.830851 
4161.000000	64.822077 
4160.000000	64.820837 
4159.000000	64.826178 
