PE IR       SPECTRUM    SPECTRUM    ASCII       PEDS        1.60        
  -1
BZ4CFB~1.ASC
17/04/07
22:43:44.00
17/04/07
22:43:44.00
tln
$BZ1503107-1_t0115$<tbV0>[2.6,13.0,8.0,0.0,27,1,0]
370.000000
64









2002,4.07    
MIRTGS : RIGHTBACK : INTERNAL 2
MIR : ON : INTERNAL 2
OPTKBR

0.200000
8
8.000000
FILLER
RATIO
SPECTRUM
UNLOCKED 256

DOUBLE
64
COMBINED
1
0
0


1.000000
RATIO


1
0
TRUE
51149
0
LEFT NOT FITTED RIGHT NOT FITTED 0
NONE
NONE
15600
12.000000
4.427000
51148
TRUE
1 0 8 72 0 0 0 0 

15798.010000






#HDR
-1
-1
#GR
CM-1
%T
0.00002384185791015625
0.0
5000.000000
-1.000000
4631
8
68.015837
40.617179
#DATA
5000.000000	65.996241 
4999.000000	65.698933 
4998.000000	65.399932 
4997.000000	65.132212 
4996.000000	64.930486 
4995.000000	64.822196 
4994.000000	64.823007 
4993.000000	64.930438 
4992.000000	65.126490 
4991.000000	65.380716 
4990.000000	65.656304 
4989.000000	65.917134 
4988.000000	66.132974 
4987.000000	66.283273 
4986.000000	66.357922 
4985.000000	66.356039 
4984.000000	66.284942 
4983.000000	66.157078 
4982.000000	65.987110 
4981.000000	65.789628 
4980.000000	65.580177 
4979.000000	65.373778 
4978.000000	65.184783 
4977.000000	65.025568 
4976.000000	64.906835 
4975.000000	64.835643 
4974.000000	64.813399 
4973.000000	64.836120 
4972.000000	64.893078 
4971.000000	64.970803 
4970.000000	65.052652 
4969.000000	65.126276 
4968.000000	65.181708 
4967.000000	65.218949 
4966.000000	65.244865 
4965.000000	65.274477 
4964.000000	65.325307 
4963.000000	65.413498 
4962.000000	65.549826 
4961.000000	65.733051 
4960.000000	65.949392 
4959.000000	66.172695 
4958.000000	66.370081 
4957.000000	66.509747 
4956.000000	66.568779 
4955.000000	66.538238 
4954.000000	66.425180 
4953.000000	66.249966 
4952.000000	66.040706 
4951.000000	65.827107 
4950.000000	65.633201 
4949.000000	65.473294 
4948.000000	65.350055 
4947.000000	65.258526 
4946.000000	65.189003 
4945.000000	65.131473 
4944.000000	65.080499 
4943.000000	65.035605 
4942.000000	65.003514 
4941.000000	64.992809 
4940.000000	65.013742 
4939.000000	65.071177 
4938.000000	65.165495 
4937.000000	65.290904 
4936.000000	65.435910 
4935.000000	65.585446 
4934.000000	65.722703 
4933.000000	65.832662 
4932.000000	65.903687 
4931.000000	65.929150 
4930.000000	65.910077 
4929.000000	65.854692 
4928.000000	65.777087 
4927.000000	65.694022 
4926.000000	65.621829 
4925.000000	65.572500 
4924.000000	65.551328 
4923.000000	65.555882 
4922.000000	65.577507 
4921.000000	65.604281 
4920.000000	65.625190 
4919.000000	65.633058 
4918.000000	65.625691 
4917.000000	65.606713 
4916.000000	65.584063 
4915.000000	65.567183 
4914.000000	65.562772 
4913.000000	65.573334 
4912.000000	65.595912 
4911.000000	65.623211 
4910.000000	65.646553 
4909.000000	65.657329 
4908.000000	65.650534 
4907.000000	65.624213 
4906.000000	65.580248 
4905.000000	65.522217 
4904.000000	65.454101 
4903.000000	65.380644 
4902.000000	65.306735 
4901.000000	65.237164 
4900.000000	65.176153 
4899.000000	65.127372 
4898.000000	65.093541 
4897.000000	65.075230 
4896.000000	65.071439 
4895.000000	65.078306 
4894.000000	65.091419 
4893.000000	65.106248 
4892.000000	65.120244 
4891.000000	65.132832 
4890.000000	65.146040 
4889.000000	65.163612 
4888.000000	65.189170 
4887.000000	65.224385 
4886.000000	65.267491 
4885.000000	65.313100 
4884.000000	65.353107 
4883.000000	65.378785 
4882.000000	65.382909 
4881.000000	65.362620 
4880.000000	65.318679 
4879.000000	65.255594 
4878.000000	65.179848 
4877.000000	65.098237 
4876.000000	65.016317 
4875.000000	64.937639 
4874.000000	64.864230 
4873.000000	64.797329 
4872.000000	64.738154 
4871.000000	64.689064 
4870.000000	64.653706 
4869.000000	64.637017 
4868.000000	64.643859 
4867.000000	64.678001 
4866.000000	64.740109 
4865.000000	64.827489 
4864.000000	64.933562 
4863.000000	65.049290 
4862.000000	65.164303 
4861.000000	65.268778 
4860.000000	65.355348 
4859.000000	65.419840 
4858.000000	65.461611 
4857.000000	65.482878 
4856.000000	65.488171 
4855.000000	65.482187 
4854.000000	65.469217 
4853.000000	65.452218 
4852.000000	65.433287 
4851.000000	65.413546 
4850.000000	65.394043 
4849.000000	65.375995 
4848.000000	65.361285 
4847.000000	65.351939 
4846.000000	65.349555 
4845.000000	65.353965 
4844.000000	65.363216 
4843.000000	65.373086 
4842.000000	65.378522 
4841.000000	65.374350 
4840.000000	65.357422 
4839.000000	65.327596 
4838.000000	65.288472 
4837.000000	65.246438 
4836.000000	65.209579 
4835.000000	65.185379 
4834.000000	65.178489 
4833.000000	65.189766 
4832.000000	65.214896 
4831.000000	65.245747 
4830.000000	65.271258 
4829.000000	65.280580 
4828.000000	65.265154 
4827.000000	65.220880 
4826.000000	65.149307 
4825.000000	65.057325 
4824.000000	64.955711 
4823.000000	64.856529 
4822.000000	64.770197 
4821.000000	64.703321 
4820.000000	64.657473 
4819.000000	64.629769 
4818.000000	64.614081 
4817.000000	64.603495 
4816.000000	64.592432 
4815.000000	64.578509 
4814.000000	64.562749 
4813.000000	64.549660 
4812.000000	64.544153 
4811.000000	64.551162 
4810.000000	64.572548 
4809.000000	64.607834 
4808.000000	64.652943 
4807.000000	64.702820 
4806.000000	64.752984 
4805.000000	64.800786 
4804.000000	64.846277 
4803.000000	64.891767 
4802.000000	64.940142 
4801.000000	64.993691 
4800.000000	65.052390 
4799.000000	65.113830 
4798.000000	65.173482 
4797.000000	65.226125 
4796.000000	65.267515 
4795.000000	65.294909 
4794.000000	65.307736 
4793.000000	65.307569 
4792.000000	65.297532 
4791.000000	65.280604 
4790.000000	65.258717 
4789.000000	65.233016 
4788.000000	65.203595 
4787.000000	65.170240 
4786.000000	65.132570 
4785.000000	65.091490 
4784.000000	65.048670 
4783.000000	65.006709 
4782.000000	64.968109 
4781.000000	64.934420 
4780.000000	64.906167 
4779.000000	64.882516 
4778.000000	64.862036 
4777.000000	64.842629 
4776.000000	64.823246 
4775.000000	64.804100 
4774.000000	64.787054 
4773.000000	64.774346 
4772.000000	64.769172 
4771.000000	64.774441 
4770.000000	64.792156 
4769.000000	64.822411 
4768.000000	64.863586 
4767.000000	64.912605 
4766.000000	64.965343 
4765.000000	65.017437 
4764.000000	65.065288 
4763.000000	65.106463 
4762.000000	65.140223 
4761.000000	65.166974 
4760.000000	65.187692 
4759.000000	65.203547 
4758.000000	65.215706 
4757.000000	65.224814 
4756.000000	65.231299 
4755.000000	65.234661 
4754.000000	65.235042 
4753.000000	65.231513 
4752.000000	65.222787 
4751.000000	65.207123 
4750.000000	65.182924 
4749.000000	65.149378 
4748.000000	65.106725 
4747.000000	65.057063 
4746.000000	65.004253 
4745.000000	64.953684 
4744.000000	64.911317 
4743.000000	64.882063 
4742.000000	64.868617 
4741.000000	64.870929 
4740.000000	64.886379 
4739.000000	64.910244 
4738.000000	64.937019 
4737.000000	64.962649 
4736.000000	64.985442 
4735.000000	65.006184 
4734.000000	65.027427 
4733.000000	65.052056 
4732.000000	65.081834 
4731.000000	65.115666 
4730.000000	65.150189 
4729.000000	65.180611 
4728.000000	65.202403 
4727.000000	65.213179 
4726.000000	65.213251 
4725.000000	65.206170 
4724.000000	65.196919 
4723.000000	65.191221 
4722.000000	65.192294 
4721.000000	65.200161 
4720.000000	65.210652 
4719.000000	65.217113 
4718.000000	65.211272 
4717.000000	65.186142 
4716.000000	65.137934 
4715.000000	65.067863 
4714.000000	64.981722 
4713.000000	64.888834 
4712.000000	64.800071 
4711.000000	64.725518 
4710.000000	64.672589 
4709.000000	64.644646 
4708.000000	64.640831 
4707.000000	64.656639 
4706.000000	64.685297 
4705.000000	64.719462 
4704.000000	64.751958 
4703.000000	64.777708 
4702.000000	64.793682 
4701.000000	64.799952 
4700.000000	64.798021 
4699.000000	64.791202 
4698.000000	64.783000 
4697.000000	64.777040 
4696.000000	64.775991 
4695.000000	64.781451 
4694.000000	64.793777 
4693.000000	64.812254 
4692.000000	64.835548 
4691.000000	64.861893 
4690.000000	64.889550 
4689.000000	64.917135 
4688.000000	64.943766 
4687.000000	64.969134 
4686.000000	64.993071 
4685.000000	65.015673 
4684.000000	65.036845 
4683.000000	65.055799 
4682.000000	65.071082 
4681.000000	65.081167 
4680.000000	65.084767 
4679.000000	65.080881 
4678.000000	65.069293 
4677.000000	65.051102 
4676.000000	65.028524 
4675.000000	65.004444 
4674.000000	64.982175 
4673.000000	64.964771 
4672.000000	64.954495 
4671.000000	64.952683 
4670.000000	64.959335 
4669.000000	64.973545 
4668.000000	64.993500 
4667.000000	65.016698 
4666.000000	65.040349 
4665.000000	65.061569 
4664.000000	65.077877 
4663.000000	65.087342 
4662.000000	65.089297 
4661.000000	65.084028 
4660.000000	65.074014 
4659.000000	65.063428 
4658.000000	65.057516 
4657.000000	65.061259 
4656.000000	65.078258 
4655.000000	65.109467 
4654.000000	65.152239 
4653.000000	65.200948 
4652.000000	65.247726 
4651.000000	65.284895 
4650.000000	65.306353 
4649.000000	65.310144 
4648.000000	65.298509 
4647.000000	65.277981 
4646.000000	65.257787 
4645.000000	65.247488 
4644.000000	65.254521 
4643.000000	65.281844 
4642.000000	65.327906 
4641.000000	65.385937 
4640.000000	65.446305 
4639.000000	65.498042 
4638.000000	65.531945 
4637.000000	65.541720 
4636.000000	65.525293 
4635.000000	65.484690 
4634.000000	65.425372 
4633.000000	65.354776 
4632.000000	65.281128 
4631.000000	65.211987 
4630.000000	65.153312 
4629.000000	65.109348 
4628.000000	65.082502 
4627.000000	65.073227 
4626.000000	65.080738 
4625.000000	65.103077 
4624.000000	65.137982 
4623.000000	65.182423 
4622.000000	65.233540 
4621.000000	65.288329 
4620.000000	65.344285 
4619.000000	65.398979 
4618.000000	65.450334 
4617.000000	65.496492 
4616.000000	65.535640 
4615.000000	65.566253 
4614.000000	65.587043 
4613.000000	65.597414 
4612.000000	65.597724 
4611.000000	65.589761 
4610.000000	65.576386 
4609.000000	65.561556 
4608.000000	65.549325 
4607.000000	65.543222 
4606.000000	65.544867 
4605.000000	65.553593 
4604.000000	65.566468 
4603.000000	65.578985 
4602.000000	65.585780 
4601.000000	65.582418 
4600.000000	65.566778 
4599.000000	65.540027 
4598.000000	65.506052 
4597.000000	65.471220 
4596.000000	65.442967 
4595.000000	65.427923 
4594.000000	65.430068 
4593.000000	65.449810 
4592.000000	65.483951 
4591.000000	65.526342 
4590.000000	65.569400 
4589.000000	65.605401 
4588.000000	65.628075 
4587.000000	65.633869 
4586.000000	65.622091 
4585.000000	65.595197 
4584.000000	65.557479 
4583.000000	65.515351 
4582.000000	65.475726 
4581.000000	65.445446 
4580.000000	65.429854 
4579.000000	65.432095 
4578.000000	65.452718 
4577.000000	65.489149 
4576.000000	65.536594 
4575.000000	65.588450 
4574.000000	65.638375 
4573.000000	65.681242 
4572.000000	65.715217 
4571.000000	65.742206 
4570.000000	65.767502 
4569.000000	65.798330 
4568.000000	65.841531 
4567.000000	65.901374 
4566.000000	65.977787 
4565.000000	66.066002 
4564.000000	66.157507 
4563.000000	66.242194 
4562.000000	66.310620 
4561.000000	66.357374 
4560.000000	66.380691 
4559.000000	66.383242 
4558.000000	66.369843 
4557.000000	66.346168 
4556.000000	66.316723 
4555.000000	66.284084 
4554.000000	66.248774 
4553.000000	66.210198 
4552.000000	66.168093 
4551.000000	66.123795 
4550.000000	66.080856 
4549.000000	66.044616 
4548.000000	66.020631 
4547.000000	66.013097 
4546.000000	66.022610 
4545.000000	66.045713 
4544.000000	66.074776 
4543.000000	66.100192 
4542.000000	66.112041 
4541.000000	66.103839 
4540.000000	66.073846 
4539.000000	66.026639 
4538.000000	65.971589 
4537.000000	65.921139 
4536.000000	65.887641 
4535.000000	65.880346 
4534.000000	65.903186 
4533.000000	65.953302 
4532.000000	66.022491 
4531.000000	66.098237 
4530.000000	66.167426 
4529.000000	66.218662 
4528.000000	66.244792 
4527.000000	66.244006 
4526.000000	66.219377 
4525.000000	66.177463 
4524.000000	66.126132 
4523.000000	66.073179 
4522.000000	66.024661 
4521.000000	65.984845 
4520.000000	65.955901 
4519.000000	65.938997 
4518.000000	65.934514 
4517.000000	65.942215 
4516.000000	65.961575 
4515.000000	65.990853 
4514.000000	66.027951 
4513.000000	66.069483 
4512.000000	66.112351 
4511.000000	66.153573 
4510.000000	66.191267 
4509.000000	66.224336 
4508.000000	66.252875 
4507.000000	66.277623 
4506.000000	66.300058 
4505.000000	66.322064 
4504.000000	66.345119 
4503.000000	66.370558 
4502.000000	66.397833 
4501.000000	66.424608 
4500.000000	66.447186 
4499.000000	66.461658 
4498.000000	66.465258 
4497.000000	66.457247 
4496.000000	66.439318 
4495.000000	66.415095 
4494.000000	66.387128 
4493.000000	66.356611 
4492.000000	66.323018 
4491.000000	66.285395 
4490.000000	66.243124 
4489.000000	66.198015 
4488.000000	66.155552 
4487.000000	66.124081 
4486.000000	66.113543 
4485.000000	66.131830 
4484.000000	66.181015 
4483.000000	66.256570 
4482.000000	66.347622 
4481.000000	66.439580 
4480.000000	66.515779 
4479.000000	66.564178 
4478.000000	66.580748 
4477.000000	66.570281 
4476.000000	66.545128 
4475.000000	66.521072 
4474.000000	66.512870 
4473.000000	66.528868 
4472.000000	66.567444 
4471.000000	66.624498 
4470.000000	66.696524 
4469.000000	66.779804 
4468.000000	66.871643 
4467.000000	66.977071 
4466.000000	67.105317 
4465.000000	67.257499 
4464.000000	67.425727 
4463.000000	67.601132 
4462.000000	67.768716 
4461.000000	67.908525 
4460.000000	67.997264 
4459.000000	68.015837 
4458.000000	67.950868 
4457.000000	67.797732 
4456.000000	67.563605 
4455.000000	67.268252 
4454.000000	66.941618 
4453.000000	66.622233 
4452.000000	66.346096 
4451.000000	66.141510 
4450.000000	66.019535 
4449.000000	65.978693 
4448.000000	65.990352 
4447.000000	66.005158 
4446.000000	65.960264 
4445.000000	65.795707 
4444.000000	65.451264 
4443.000000	64.876794 
4442.000000	64.042377 
4441.000000	62.942671 
4440.000000	61.585903 
4439.000000	59.997272 
4438.000000	58.218955 
4437.000000	56.314921 
4436.000000	54.367399 
4435.000000	52.478456 
4434.000000	50.760340 
4433.000000	49.325633 
4432.000000	48.262381 
4431.000000	47.628259 
4430.000000	47.421073 
4429.000000	47.601151 
4428.000000	48.077178 
4427.000000	48.752951 
4426.000000	49.518036 
4425.000000	50.304722 
4424.000000	51.075100 
4423.000000	51.848602 
4422.000000	52.668595 
4421.000000	53.602600 
4420.000000	54.703617 
4419.000000	56.001329 
4418.000000	57.482504 
4417.000000	59.094429 
4416.000000	60.751056 
4415.000000	62.356400 
4414.000000	63.821601 
4413.000000	65.076828 
4412.000000	66.078948 
4411.000000	66.819310 
4410.000000	67.315554 
4409.000000	67.601609 
4408.000000	67.715525 
4407.000000	67.709445 
4406.000000	67.627596 
4405.000000	67.509651 
4404.000000	67.378282 
4403.000000	67.261648 
4402.000000	67.171669 
4401.000000	67.112088 
4400.000000	67.073488 
4399.000000	67.043209 
4398.000000	67.004156 
4397.000000	66.941070 
4396.000000	66.844820 
4395.000000	66.712427 
4394.000000	66.554355 
4393.000000	66.393804 
4392.000000	66.256713 
4391.000000	66.162967 
4390.000000	66.126799 
4389.000000	66.153383 
4388.000000	66.231989 
4387.000000	66.338968 
4386.000000	66.449761 
4385.000000	66.544604 
4384.000000	66.607189 
4383.000000	66.630077 
4382.000000	66.619896 
4381.000000	66.592669 
4380.000000	66.562819 
4379.000000	66.542220 
4378.000000	66.538476 
4377.000000	66.552925 
4376.000000	66.581344 
4375.000000	66.616106 
4374.000000	66.650319 
4373.000000	66.678619 
4372.000000	66.700482 
4371.000000	66.717553 
4370.000000	66.732573 
4369.000000	66.746973 
4368.000000	66.759824 
4367.000000	66.766357 
4366.000000	66.758894 
4365.000000	66.729092 
4364.000000	66.671109 
4363.000000	66.582894 
4362.000000	66.467809 
4361.000000	66.334772 
4360.000000	66.197037 
4359.000000	66.069316 
4358.000000	65.964794 
4357.000000	65.892887 
4356.000000	65.857386 
4355.000000	65.856146 
4354.000000	65.881872 
4353.000000	65.923380 
4352.000000	65.968585 
4351.000000	66.007113 
4350.000000	66.032338 
4349.000000	66.041040 
4348.000000	66.034412 
4347.000000	66.015839 
4346.000000	65.990638 
4345.000000	65.963435 
4344.000000	65.938305 
4343.000000	65.918040 
4342.000000	65.904545 
4341.000000	65.898990 
4340.000000	65.902400 
4339.000000	65.916061 
4338.000000	65.940904 
4337.000000	65.977120 
4336.000000	66.023564 
4335.000000	66.077470 
4334.000000	66.134524 
4333.000000	66.189479 
4332.000000	66.237115 
4331.000000	66.273236 
4330.000000	66.295957 
4329.000000	66.305565 
4328.000000	66.304230 
4327.000000	66.294693 
4326.000000	66.280293 
4325.000000	66.262936 
4324.000000	66.243028 
4323.000000	66.219115 
4322.000000	66.189312 
4321.000000	66.151762 
4320.000000	66.106414 
4319.000000	66.055130 
4318.000000	66.001939 
4317.000000	65.952062 
4316.000000	65.910720 
4315.000000	65.881705 
4314.000000	65.866422 
4313.000000	65.863251 
4312.000000	65.867805 
4311.000000	65.874338 
4310.000000	65.877008 
4309.000000	65.871524 
4308.000000	65.855956 
4307.000000	65.830969 
4306.000000	65.799522 
4305.000000	65.765762 
4304.000000	65.733933 
4303.000000	65.706992 
4302.000000	65.685987 
4301.000000	65.670371 
4300.000000	65.658211 
4299.000000	65.647006 
4298.000000	65.634608 
4297.000000	65.619754 
4296.000000	65.602755 
4295.000000	65.584850 
4294.000000	65.568494 
4293.000000	65.556335 
4292.000000	65.551161 
4291.000000	65.554785 
4290.000000	65.568304 
4289.000000	65.591597 
4288.000000	65.623497 
4287.000000	65.661859 
4286.000000	65.703701 
4285.000000	65.745425 
4284.000000	65.783429 
4283.000000	65.814661 
4282.000000	65.836882 
4281.000000	65.848970 
4280.000000	65.851116 
4279.000000	65.844607 
4278.000000	65.831542 
4277.000000	65.814065 
4276.000000	65.794253 
4275.000000	65.773510 
4274.000000	65.752649 
4273.000000	65.731906 
4272.000000	65.711426 
4271.000000	65.691280 
4270.000000	65.671491 
4269.000000	65.652108 
4268.000000	65.632939 
4267.000000	65.613746 
4266.000000	65.593695 
4265.000000	65.572142 
4264.000000	65.548229 
4263.000000	65.522265 
4262.000000	65.495491 
4261.000000	65.470409 
4260.000000	65.450048 
4259.000000	65.437626 
4258.000000	65.435481 
4257.000000	65.444231 
4256.000000	65.462088 
4255.000000	65.485358 
4254.000000	65.509414 
4253.000000	65.529274 
4252.000000	65.541005 
4251.000000	65.542674 
4250.000000	65.534830 
4249.000000	65.520000 
4248.000000	65.501976 
4247.000000	65.484738 
4246.000000	65.471458 
4245.000000	65.464067 
4244.000000	65.463018 
4243.000000	65.467309 
4242.000000	65.475010 
4241.000000	65.484690 
4240.000000	65.494990 
4239.000000	65.505099 
4238.000000	65.514206 
4237.000000	65.521550 
4236.000000	65.525841 
4235.000000	65.525197 
4234.000000	65.517449 
4233.000000	65.500712 
4232.000000	65.473651 
4231.000000	65.436124 
4230.000000	65.389418 
4229.000000	65.336322 
4228.000000	65.280818 
4227.000000	65.227389 
4226.000000	65.180087 
4225.000000	65.142107 
4224.000000	65.115404 
4223.000000	65.100693 
4222.000000	65.097403 
4221.000000	65.104579 
4220.000000	65.121316 
4219.000000	65.147495 
4218.000000	65.182924 
4217.000000	65.227484 
4216.000000	65.280532 
4215.000000	65.340328 
4214.000000	65.403509 
4213.000000	65.465235 
4212.000000	65.519714 
4211.000000	65.561318 
4210.000000	65.585756 
4209.000000	65.591192 
4208.000000	65.579175 
4207.000000	65.553975 
4206.000000	65.522241 
4205.000000	65.490651 
4204.000000	65.464663 
4203.000000	65.446996 
4202.000000	65.437626 
4201.000000	65.433716 
4200.000000	65.430903 
4199.000000	65.424776 
4198.000000	65.412187 
4197.000000	65.391635 
4196.000000	65.363430 
4195.000000	65.328931 
4194.000000	65.290164 
4193.000000	65.248584 
4192.000000	65.205311 
4191.000000	65.160870 
4190.000000	65.115976 
4189.000000	65.072345 
4188.000000	65.032529 
4187.000000	65.000152 
4186.000000	64.978647 
4185.000000	64.970254 
4184.000000	64.975428 
4183.000000	64.991450 
4182.000000	65.014195 
4181.000000	65.038442 
4180.000000	65.059757 
4179.000000	65.075254 
4178.000000	65.084624 
4177.000000	65.089774 
4176.000000	65.093636 
4175.000000	65.099024 
4174.000000	65.107369 
4173.000000	65.118002 
4172.000000	65.128302 
4171.000000	65.134286 
4170.000000	65.131807 
4169.000000	65.117835 
4168.000000	65.091729 
4167.000000	65.055465 
4166.000000	65.012645 
4165.000000	64.968299 
4164.000000	64.927363 
4163.000000	64.894247 
4162.000000	64.871668 
4161.000000	64.860939 
4160.000000	64.862322 
4159.000000	64.875030 
