PE IR       SPECTRUM    SPECTRUM    ASCII       PEDS        1.60        
  -1
BZ4CF9~1.ASC
17/04/07
23:02:13.00
17/04/07
23:02:13.00
tln
$BZ1503107-1_t0119$<tbV0>[-7.8,13.0,8.0,0.0,27,1,0]
370.000000
64









2002,4.07    
MIRTGS : RIGHTBACK : INTERNAL 2
MIR : ON : INTERNAL 2
OPTKBR

0.200000
8
8.000000
FILLER
RATIO
SPECTRUM
UNLOCKED 256

DOUBLE
64
COMBINED
1
0
0


1.000000
RATIO


1
0
TRUE
51149
0
LEFT NOT FITTED RIGHT NOT FITTED 0
NONE
NONE
15600
12.000000
4.427000
51148
TRUE
1 0 8 72 0 0 0 0 

15798.010000






#HDR
-1
-1
#GR
CM-1
%T
0.00002384185791015625
0.0
5000.000000
-1.000000
4631
8
75.443124
58.816790
#DATA
5000.000000	64.411234 
4999.000000	64.249777 
4998.000000	64.070653 
4997.000000	63.908219 
4996.000000	63.794660 
4995.000000	63.754963 
4994.000000	63.800644 
4993.000000	63.928818 
4992.000000	64.121818 
4991.000000	64.352345 
4990.000000	64.587450 
4989.000000	64.795827 
4988.000000	64.951252 
4987.000000	65.036201 
4986.000000	65.042829 
4985.000000	64.972805 
4984.000000	64.835023 
4983.000000	64.643359 
4982.000000	64.415550 
4981.000000	64.171361 
4980.000000	63.931083 
4979.000000	63.714528 
4978.000000	63.540697 
4977.000000	63.425970 
4976.000000	63.382101 
4975.000000	63.414525 
4974.000000	63.518905 
4973.000000	63.683390 
4972.000000	63.888192 
4971.000000	64.111256 
4970.000000	64.328074 
4969.000000	64.519882 
4968.000000	64.673805 
4967.000000	64.787316 
4966.000000	64.866352 
4965.000000	64.922904 
4964.000000	64.970946 
4963.000000	65.021204 
4962.000000	65.079927 
4961.000000	65.143871 
4960.000000	65.202736 
4959.000000	65.241026 
4958.000000	65.243816 
4957.000000	65.202021 
4956.000000	65.116715 
4955.000000	64.999985 
4954.000000	64.872694 
4953.000000	64.759588 
4952.000000	64.682626 
4951.000000	64.655685 
4950.000000	64.680671 
4949.000000	64.747500 
4948.000000	64.836645 
4947.000000	64.925432 
4946.000000	64.993715 
4945.000000	65.028047 
4944.000000	65.025997 
4943.000000	64.994025 
4942.000000	64.947342 
4941.000000	64.904236 
4940.000000	64.882111 
4939.000000	64.891910 
4938.000000	64.936971 
4937.000000	65.013670 
4936.000000	65.111708 
4935.000000	65.217590 
4934.000000	65.317678 
4933.000000	65.401840 
4932.000000	65.464115 
4931.000000	65.503096 
4930.000000	65.521955 
4929.000000	65.526223 
4928.000000	65.522122 
4927.000000	65.513992 
4926.000000	65.503144 
4925.000000	65.487217 
4924.000000	65.461874 
4923.000000	65.422415 
4922.000000	65.366268 
4921.000000	65.294361 
4920.000000	65.212774 
4919.000000	65.131187 
4918.000000	65.060877 
4917.000000	65.011811 
4916.000000	64.989566 
4915.000000	64.994239 
4914.000000	65.020632 
4913.000000	65.059018 
4912.000000	65.097665 
4911.000000	65.125322 
4910.000000	65.134143 
4909.000000	65.120410 
4908.000000	65.084743 
4907.000000	65.030765 
4906.000000	64.963436 
4905.000000	64.887857 
4904.000000	64.808058 
4903.000000	64.728283 
4902.000000	64.653158 
4901.000000	64.588475 
4900.000000	64.540886 
4899.000000	64.516711 
4898.000000	64.520502 
4897.000000	64.552760 
4896.000000	64.609527 
4895.000000	64.682078 
4894.000000	64.758682 
4893.000000	64.827060 
4892.000000	64.877152 
4891.000000	64.902806 
4890.000000	64.903116 
4889.000000	64.882373 
4888.000000	64.848375 
4887.000000	64.809966 
4886.000000	64.774680 
4885.000000	64.747333 
4884.000000	64.728856 
4883.000000	64.716792 
4882.000000	64.706969 
4881.000000	64.695739 
4880.000000	64.681172 
4879.000000	64.664363 
4878.000000	64.649081 
4877.000000	64.640498 
4876.000000	64.643740 
4875.000000	64.661931 
4874.000000	64.695167 
4873.000000	64.740252 
4872.000000	64.790987 
4871.000000	64.840221 
4870.000000	64.881443 
4869.000000	64.910960 
4868.000000	64.928627 
4867.000000	64.937520 
4866.000000	64.943575 
4865.000000	64.952588 
4864.000000	64.968800 
4863.000000	64.992690 
4862.000000	65.020871 
4861.000000	65.046930 
4860.000000	65.063953 
4859.000000	65.066099 
4858.000000	65.051054 
4857.000000	65.020465 
4856.000000	64.980053 
4855.000000	64.937853 
4854.000000	64.902114 
4853.000000	64.879322 
4852.000000	64.872646 
4851.000000	64.881181 
4850.000000	64.900469 
4849.000000	64.923453 
4848.000000	64.942717 
4847.000000	64.951968 
4846.000000	64.947891 
4845.000000	64.930963 
4844.000000	64.905381 
4843.000000	64.877533 
4842.000000	64.854788 
4841.000000	64.843797 
4840.000000	64.848661 
4839.000000	64.869952 
4838.000000	64.904522 
4837.000000	64.946627 
4836.000000	64.988899 
4835.000000	65.024304 
4834.000000	65.047550 
4833.000000	65.056562 
4832.000000	65.052103 
4831.000000	65.037703 
4830.000000	65.017628 
4829.000000	64.995336 
4828.000000	64.972686 
4827.000000	64.949369 
4826.000000	64.924097 
4825.000000	64.895772 
4824.000000	64.864945 
4823.000000	64.834570 
4822.000000	64.809036 
4821.000000	64.793109 
4820.000000	64.790272 
4819.000000	64.801192 
4818.000000	64.823031 
4817.000000	64.849686 
4816.000000	64.873075 
4815.000000	64.885258 
4814.000000	64.880371 
4813.000000	64.856410 
4812.000000	64.815425 
4811.000000	64.763450 
4810.000000	64.708757 
4809.000000	64.660286 
4808.000000	64.625000 
4807.000000	64.607191 
4806.000000	64.607858 
4805.000000	64.624714 
4804.000000	64.653110 
4803.000000	64.687108 
4802.000000	64.720964 
4801.000000	64.749932 
4800.000000	64.770412 
4799.000000	64.780926 
4798.000000	64.781498 
4797.000000	64.774012 
4796.000000	64.761519 
4795.000000	64.747381 
4794.000000	64.734435 
4793.000000	64.725112 
4792.000000	64.721107 
4791.000000	64.723110 
4790.000000	64.731001 
4789.000000	64.744138 
4788.000000	64.761209 
4787.000000	64.780211 
4786.000000	64.798498 
4785.000000	64.813327 
4784.000000	64.821815 
4783.000000	64.821410 
4782.000000	64.810156 
4781.000000	64.787483 
4780.000000	64.753675 
4779.000000	64.709687 
4778.000000	64.657115 
4777.000000	64.598250 
4776.000000	64.535975 
4775.000000	64.473247 
4774.000000	64.413952 
4773.000000	64.362239 
4772.000000	64.323043 
4771.000000	64.301204 
4770.000000	64.300751 
4769.000000	64.323878 
4768.000000	64.370465 
4767.000000	64.437460 
4766.000000	64.518833 
4765.000000	64.606261 
4764.000000	64.690804 
4763.000000	64.764738 
4762.000000	64.822602 
4761.000000	64.862442 
4760.000000	64.886260 
4759.000000	64.899158 
4758.000000	64.907932 
4757.000000	64.919281 
4756.000000	64.938688 
4755.000000	64.968729 
4754.000000	65.009117 
4753.000000	65.056514 
4752.000000	65.106034 
4751.000000	65.152335 
4750.000000	65.191197 
4749.000000	65.220308 
4748.000000	65.240025 
4747.000000	65.252566 
4746.000000	65.261673 
4745.000000	65.270519 
4744.000000	65.280890 
4743.000000	65.292239 
4742.000000	65.302085 
4741.000000	65.306210 
4740.000000	65.299987 
4739.000000	65.279817 
4738.000000	65.244245 
4737.000000	65.194344 
4736.000000	65.133547 
4735.000000	65.066885 
4734.000000	64.999485 
4733.000000	64.936232 
4732.000000	64.880323 
4731.000000	64.832854 
4730.000000	64.792776 
4729.000000	64.758133 
4728.000000	64.726781 
4727.000000	64.696931 
4726.000000	64.667963 
4725.000000	64.640283 
4724.000000	64.615535 
4723.000000	64.595437 
4722.000000	64.582061 
4721.000000	64.576601 
4720.000000	64.579653 
4719.000000	64.590239 
4718.000000	64.606595 
4717.000000	64.626455 
4716.000000	64.647507 
4715.000000	64.667701 
4714.000000	64.686036 
4713.000000	64.702510 
4712.000000	64.718103 
4711.000000	64.734125 
4710.000000	64.751529 
4709.000000	64.770054 
4708.000000	64.787983 
4707.000000	64.802217 
4706.000000	64.808535 
4705.000000	64.803147 
4704.000000	64.783859 
4703.000000	64.751434 
4702.000000	64.709711 
4701.000000	64.665436 
4700.000000	64.627456 
4699.000000	64.604306 
4698.000000	64.601898 
4697.000000	64.622044 
4696.000000	64.661812 
4695.000000	64.714026 
4694.000000	64.768600 
4693.000000	64.815402 
4692.000000	64.846467 
4691.000000	64.857912 
4690.000000	64.850592 
4689.000000	64.829516 
4688.000000	64.802169 
4687.000000	64.776182 
4686.000000	64.757227 
4685.000000	64.747667 
4684.000000	64.746212 
4683.000000	64.748978 
4682.000000	64.750623 
4681.000000	64.746546 
4680.000000	64.734125 
4679.000000	64.713430 
4678.000000	64.687299 
4677.000000	64.659833 
4676.000000	64.636254 
4675.000000	64.620804 
4674.000000	64.616870 
4673.000000	64.625954 
4672.000000	64.648056 
4671.000000	64.681911 
4670.000000	64.725184 
4669.000000	64.775061 
4668.000000	64.827847 
4667.000000	64.879059 
4666.000000	64.924192 
4665.000000	64.958667 
4664.000000	64.979434 
4663.000000	64.985513 
4662.000000	64.978623 
4661.000000	64.962863 
4660.000000	64.944267 
4659.000000	64.929580 
4658.000000	64.924359 
4657.000000	64.931583 
4656.000000	64.950966 
4655.000000	64.979243 
4654.000000	65.011024 
4653.000000	65.040206 
4652.000000	65.061759 
4651.000000	65.072965 
4650.000000	65.073704 
4649.000000	65.066552 
4648.000000	65.055465 
4647.000000	65.044832 
4646.000000	65.038204 
4645.000000	65.037584 
4644.000000	65.043354 
4643.000000	65.054321 
4642.000000	65.068984 
4641.000000	65.085482 
4640.000000	65.102648 
4639.000000	65.119075 
4638.000000	65.133357 
4637.000000	65.143442 
4636.000000	65.146923 
4635.000000	65.140652 
4634.000000	65.121531 
4633.000000	65.087461 
4632.000000	65.038061 
4631.000000	64.975309 
4630.000000	64.903473 
4629.000000	64.828324 
4628.000000	64.756274 
4627.000000	64.692902 
4626.000000	64.642596 
4625.000000	64.607596 
4624.000000	64.588522 
4623.000000	64.584326 
4622.000000	64.593291 
4621.000000	64.613533 
4620.000000	64.643406 
4619.000000	64.681100 
4618.000000	64.724397 
4617.000000	64.770197 
4616.000000	64.814114 
4615.000000	64.850926 
4614.000000	64.874553 
4613.000000	64.879274 
4612.000000	64.860916 
4611.000000	64.818239 
4610.000000	64.753413 
4609.000000	64.672183 
4608.000000	64.583301 
4607.000000	64.497137 
4606.000000	64.424538 
4605.000000	64.374732 
4604.000000	64.353895 
4603.000000	64.363861 
4602.000000	64.401507 
4601.000000	64.459323 
4600.000000	64.526700 
4599.000000	64.592361 
4598.000000	64.646077 
4597.000000	64.681148 
4596.000000	64.695215 
4595.000000	64.690637 
4594.000000	64.672970 
4593.000000	64.649653 
4592.000000	64.628076 
4591.000000	64.614129 
4590.000000	64.611411 
4589.000000	64.620780 
4588.000000	64.641118 
4587.000000	64.669561 
4586.000000	64.703273 
4585.000000	64.738941 
4584.000000	64.773273 
4583.000000	64.803004 
4582.000000	64.825153 
4581.000000	64.836668 
4580.000000	64.834880 
4579.000000	64.818763 
4578.000000	64.789247 
4577.000000	64.750242 
4576.000000	64.707875 
4575.000000	64.669132 
4574.000000	64.640522 
4573.000000	64.626789 
4572.000000	64.629840 
4571.000000	64.648246 
4570.000000	64.677786 
4569.000000	64.712691 
4568.000000	64.746713 
4567.000000	64.775109 
4566.000000	64.794754 
4565.000000	64.804339 
4564.000000	64.803886 
4563.000000	64.794158 
4562.000000	64.775371 
4561.000000	64.747285 
4560.000000	64.708375 
4559.000000	64.656996 
4558.000000	64.591383 
4557.000000	64.511394 
4556.000000	64.418601 
4555.000000	64.316916 
4554.000000	64.212441 
4553.000000	64.112591 
4552.000000	64.025759 
4551.000000	63.960170 
4550.000000	63.922524 
4549.000000	63.917040 
4548.000000	63.944673 
4547.000000	64.002704 
4546.000000	64.084911 
4545.000000	64.182257 
4544.000000	64.283251 
4543.000000	64.376521 
4542.000000	64.451885 
4541.000000	64.502692 
4540.000000	64.526581 
4539.000000	64.525628 
4538.000000	64.505648 
4537.000000	64.474391 
4536.000000	64.439845 
4535.000000	64.408016 
4534.000000	64.382338 
4533.000000	64.363002 
4532.000000	64.348316 
4531.000000	64.335632 
4530.000000	64.323472 
4529.000000	64.311528 
4528.000000	64.300847 
4527.000000	64.293265 
4526.000000	64.290452 
4525.000000	64.292740 
4524.000000	64.298820 
4523.000000	64.306068 
4522.000000	64.311504 
4521.000000	64.313626 
4520.000000	64.312958 
4519.000000	64.312481 
4518.000000	64.316463 
4517.000000	64.329028 
4516.000000	64.351844 
4515.000000	64.382505 
4514.000000	64.414787 
4513.000000	64.440155 
4512.000000	64.449930 
4511.000000	64.437961 
4510.000000	64.402675 
4509.000000	64.348244 
4508.000000	64.283609 
4507.000000	64.220190 
4506.000000	64.169907 
4505.000000	64.142251 
4504.000000	64.142179 
4503.000000	64.169335 
4502.000000	64.217376 
4501.000000	64.275860 
4500.000000	64.332509 
4499.000000	64.376306 
4498.000000	64.399456 
4497.000000	64.398789 
4496.000000	64.375734 
4495.000000	64.335107 
4494.000000	64.281916 
4493.000000	64.219975 
4492.000000	64.151215 
4491.000000	64.076566 
4490.000000	63.997364 
4489.000000	63.916873 
4488.000000	63.842034 
4487.000000	63.781762 
4486.000000	63.745474 
4485.000000	63.739800 
4484.000000	63.766145 
4483.000000	63.819360 
4482.000000	63.887095 
4481.000000	63.953828 
4480.000000	64.003419 
4479.000000	64.024662 
4478.000000	64.013719 
4477.000000	63.975834 
4476.000000	63.923335 
4475.000000	63.872933 
4474.000000	63.840818 
4473.000000	63.837957 
4472.000000	63.866829 
4471.000000	63.923883 
4470.000000	64.000868 
4469.000000	64.090323 
4468.000000	64.188027 
4467.000000	64.288234 
4466.000000	64.384984 
4465.000000	64.476251 
4464.000000	64.562654 
4463.000000	64.641499 
4462.000000	64.709162 
4461.000000	64.765787 
4460.000000	64.812350 
4459.000000	64.850497 
4458.000000	64.882445 
4457.000000	64.907312 
4456.000000	64.925742 
4455.000000	64.946293 
4454.000000	64.977383 
4453.000000	65.027165 
4452.000000	65.095663 
4451.000000	65.177774 
4450.000000	65.253758 
4449.000000	65.293526 
4448.000000	65.262031 
4447.000000	65.128564 
4446.000000	64.880156 
4445.000000	64.528393 
4444.000000	64.122796 
4443.000000	63.746571 
4442.000000	63.508558 
4441.000000	63.522958 
4440.000000	63.889455 
4439.000000	64.667582 
4438.000000	65.862035 
4437.000000	67.408895 
4436.000000	69.190120 
4435.000000	71.035075 
4434.000000	72.757625 
4433.000000	74.166679 
4432.000000	75.100660 
4431.000000	75.443124 
4430.000000	75.143885 
4429.000000	74.224972 
4428.000000	72.783398 
4427.000000	70.974469 
4426.000000	69.001913 
4425.000000	67.073893 
4424.000000	65.383720 
4423.000000	64.070248 
4422.000000	63.209891 
4421.000000	62.804532 
4420.000000	62.796235 
4419.000000	63.082504 
4418.000000	63.542056 
4417.000000	64.062452 
4416.000000	64.558529 
4415.000000	64.978981 
4414.000000	65.305256 
4413.000000	65.544581 
4412.000000	65.717124 
4411.000000	65.841269 
4410.000000	65.925168 
4409.000000	65.967822 
4408.000000	65.958523 
4407.000000	65.888738 
4406.000000	65.753507 
4405.000000	65.564894 
4404.000000	65.344619 
4403.000000	65.120005 
4402.000000	64.918255 
4401.000000	64.763426 
4400.000000	64.668583 
4399.000000	64.632582 
4398.000000	64.642405 
4397.000000	64.676547 
4396.000000	64.713001 
4395.000000	64.738130 
4394.000000	64.743328 
4393.000000	64.722847 
4392.000000	64.679121 
4391.000000	64.620828 
4390.000000	64.556241 
4389.000000	64.490222 
4388.000000	64.426612 
4387.000000	64.367556 
4386.000000	64.315509 
4385.000000	64.273571 
4384.000000	64.243650 
4383.000000	64.226627 
4382.000000	64.223122 
4381.000000	64.232873 
4380.000000	64.252686 
4379.000000	64.278316 
4378.000000	64.304375 
4377.000000	64.326643 
4376.000000	64.342379 
4375.000000	64.351797 
4374.000000	64.357161 
4373.000000	64.362668 
4372.000000	64.373207 
4371.000000	64.392828 
4370.000000	64.422869 
4369.000000	64.462423 
4368.000000	64.508867 
4367.000000	64.558053 
4366.000000	64.605379 
4365.000000	64.646840 
4364.000000	64.679932 
4363.000000	64.703655 
4362.000000	64.718317 
4361.000000	64.725255 
4360.000000	64.725947 
4359.000000	64.721679 
4358.000000	64.713239 
4357.000000	64.701342 
4356.000000	64.686560 
4355.000000	64.669537 
4354.000000	64.651179 
4353.000000	64.632987 
4352.000000	64.616847 
4351.000000	64.604973 
4350.000000	64.599680 
4349.000000	64.602589 
4348.000000	64.614200 
4347.000000	64.633393 
4346.000000	64.657473 
4345.000000	64.682102 
4344.000000	64.702677 
4343.000000	64.715385 
4342.000000	64.718127 
4341.000000	64.711070 
4340.000000	64.696836 
4339.000000	64.679956 
4338.000000	64.665627 
4337.000000	64.658212 
4336.000000	64.660358 
4335.000000	64.672255 
4334.000000	64.691376 
4333.000000	64.713120 
4332.000000	64.732050 
4331.000000	64.743208 
4330.000000	64.743399 
4329.000000	64.731740 
4328.000000	64.709424 
4327.000000	64.679360 
4326.000000	64.645123 
4325.000000	64.610481 
4324.000000	64.578461 
4323.000000	64.551019 
4322.000000	64.529180 
4321.000000	64.512920 
4320.000000	64.501476 
4319.000000	64.493775 
4318.000000	64.488816 
4317.000000	64.485740 
4316.000000	64.483904 
4315.000000	64.482688 
4314.000000	64.481568 
4313.000000	64.479589 
4312.000000	64.475250 
4311.000000	64.466810 
4310.000000	64.452433 
4309.000000	64.431309 
4308.000000	64.404201 
4307.000000	64.373874 
4306.000000	64.344787 
4305.000000	64.322829 
4304.000000	64.313983 
4303.000000	64.322662 
4302.000000	64.350461 
4301.000000	64.395427 
4300.000000	64.452123 
4299.000000	64.512085 
4298.000000	64.566445 
4297.000000	64.607429 
4296.000000	64.631128 
4295.000000	64.637684 
4294.000000	64.631938 
4293.000000	64.621686 
4292.000000	64.615964 
4291.000000	64.622569 
4290.000000	64.646196 
4289.000000	64.687275 
4288.000000	64.741873 
4287.000000	64.803361 
4286.000000	64.863157 
4285.000000	64.913034 
4284.000000	64.946651 
4283.000000	64.960694 
4282.000000	64.954948 
4281.000000	64.931631 
4280.000000	64.894604 
4279.000000	64.848232 
4278.000000	64.796519 
4277.000000	64.742541 
4276.000000	64.688730 
4275.000000	64.636683 
4274.000000	64.587831 
4273.000000	64.543533 
4272.000000	64.505386 
4271.000000	64.474844 
4270.000000	64.452791 
4269.000000	64.439439 
4268.000000	64.433550 
4267.000000	64.433288 
4266.000000	64.436030 
4265.000000	64.439558 
4264.000000	64.441871 
4263.000000	64.442634 
4262.000000	64.443087 
4261.000000	64.445996 
4260.000000	64.454627 
4259.000000	64.471817 
4258.000000	64.499068 
4257.000000	64.535641 
4256.000000	64.578413 
4255.000000	64.622259 
4254.000000	64.661121 
4253.000000	64.688968 
4252.000000	64.701557 
4251.000000	64.697003 
4250.000000	64.676403 
4249.000000	64.643907 
4248.000000	64.605903 
4247.000000	64.569592 
4246.000000	64.542031 
4245.000000	64.529204 
4244.000000	64.534831 
4243.000000	64.559817 
4242.000000	64.602088 
4241.000000	64.657545 
4240.000000	64.720249 
4239.000000	64.783549 
4238.000000	64.840793 
4237.000000	64.886212 
4236.000000	64.915823 
4235.000000	64.927744 
4234.000000	64.922451 
4233.000000	64.902353 
4232.000000	64.871716 
4231.000000	64.835667 
4230.000000	64.799618 
4229.000000	64.768457 
4228.000000	64.746093 
4227.000000	64.735126 
4226.000000	64.736461 
4225.000000	64.749479 
4224.000000	64.772510 
4223.000000	64.803194 
4222.000000	64.838528 
4221.000000	64.875745 
4220.000000	64.912700 
4219.000000	64.948225 
4218.000000	64.981770 
4217.000000	65.013170 
4216.000000	65.042614 
4215.000000	65.069556 
4214.000000	65.093326 
4213.000000	65.112209 
4212.000000	65.123939 
4211.000000	65.126109 
4210.000000	65.116953 
4209.000000	65.095901 
4208.000000	65.064358 
4207.000000	65.025448 
4206.000000	64.983677 
4205.000000	64.943981 
4204.000000	64.910960 
4203.000000	64.887762 
4202.000000	64.875602 
4201.000000	64.873743 
4200.000000	64.879894 
4199.000000	64.890933 
4198.000000	64.903640 
4197.000000	64.915013 
4196.000000	64.922475 
4195.000000	64.924216 
4194.000000	64.919018 
4193.000000	64.906430 
4192.000000	64.886832 
4191.000000	64.861297 
4190.000000	64.832067 
4189.000000	64.802598 
4188.000000	64.776897 
4187.000000	64.759063 
4186.000000	64.752364 
4185.000000	64.758324 
4184.000000	64.776349 
4183.000000	64.803147 
4182.000000	64.833903 
4181.000000	64.863133 
4180.000000	64.886236 
4179.000000	64.900088 
4178.000000	64.904117 
4177.000000	64.899826 
4176.000000	64.890646 
4175.000000	64.880537 
4174.000000	64.873242 
4173.000000	64.871382 
4172.000000	64.875960 
4171.000000	64.886355 
4170.000000	64.900779 
4169.000000	64.916801 
4168.000000	64.932155 
4167.000000	64.945220 
4166.000000	64.955425 
4165.000000	64.963126 
4164.000000	64.969444 
4163.000000	64.975690 
4162.000000	64.982867 
4161.000000	64.991259 
4160.000000	65.000605 
4159.000000	65.009355 
