PE IR       SPECTRUM    SPECTRUM    ASCII       PEDS        1.60        
  -1
BZ6132~1.ASC
17/04/07
13:57:25.00
17/04/07
13:57:25.00
tln
$BZ1503107-1_t0009$<tbV0>[-7.8,-13.0,8.0,0.0,27,1,0]
370.000000
64









2002,4.07    
MIRTGS : RIGHTBACK : INTERNAL 2
MIR : ON : INTERNAL 2
OPTKBR

0.200000
8
8.000000
FILLER
RATIO
SPECTRUM
UNLOCKED 256

DOUBLE
64
COMBINED
1
0
0


1.000000
RATIO


1
0
TRUE
51149
0
LEFT NOT FITTED RIGHT NOT FITTED 0
NONE
NONE
15600
12.000000
4.427000
51148
TRUE
1 0 8 72 0 0 0 0 

15798.010000






#HDR
-1
-1
#GR
CM-1
%T
0.00002384185791015625
0.0
5000.000000
-1.000000
4631
8
91.746520
56.467461
#DATA
5000.000000	64.022064 
4999.000000	64.100503 
4998.000000	64.188647 
4997.000000	64.287090 
4996.000000	64.396691 
4995.000000	64.515280 
4994.000000	64.640617 
4993.000000	64.769172 
4992.000000	64.899301 
4991.000000	65.031504 
4990.000000	65.168738 
4989.000000	65.315651 
4988.000000	65.475034 
4987.000000	65.645837 
4986.000000	65.821599 
4985.000000	65.991759 
4984.000000	66.139507 
4983.000000	66.244769 
4982.000000	66.289973 
4981.000000	66.263413 
4980.000000	66.160869 
4979.000000	65.986394 
4978.000000	65.753126 
4977.000000	65.479731 
4976.000000	65.188121 
4975.000000	64.898467 
4974.000000	64.627480 
4973.000000	64.385128 
4972.000000	64.176559 
4971.000000	64.000940 
4970.000000	63.853764 
4969.000000	63.729166 
4968.000000	63.620686 
4967.000000	63.525128 
4966.000000	63.438820 
4965.000000	63.364624 
4964.000000	63.306999 
4963.000000	63.277006 
4962.000000	63.284754 
4961.000000	63.345432 
4960.000000	63.473558 
4959.000000	63.681530 
4958.000000	63.973760 
4957.000000	64.345383 
4956.000000	64.779329 
4955.000000	65.246248 
4954.000000	65.706634 
4953.000000	66.116189 
4952.000000	66.431570 
4951.000000	66.618037 
4950.000000	66.655182 
4949.000000	66.541337 
4948.000000	66.293907 
4947.000000	65.948438 
4946.000000	65.551638 
4945.000000	65.154695 
4944.000000	64.804148 
4943.000000	64.539957 
4942.000000	64.384984 
4941.000000	64.344930 
4940.000000	64.406156 
4939.000000	64.542579 
4938.000000	64.718055 
4937.000000	64.892935 
4936.000000	65.032315 
4935.000000	65.109062 
4934.000000	65.112185 
4933.000000	65.045452 
4932.000000	64.928054 
4931.000000	64.787960 
4930.000000	64.657497 
4929.000000	64.564847 
4928.000000	64.527559 
4927.000000	64.547777 
4926.000000	64.611959 
4925.000000	64.694285 
4924.000000	64.761352 
4923.000000	64.782547 
4922.000000	64.738225 
4921.000000	64.626979 
4920.000000	64.464187 
4919.000000	64.281630 
4918.000000	64.118862 
4917.000000	64.015054 
4916.000000	63.999104 
4915.000000	64.082551 
4914.000000	64.256453 
4913.000000	64.493465 
4912.000000	64.756703 
4911.000000	65.005016 
4910.000000	65.202236 
4909.000000	65.324020 
4908.000000	65.361595 
4907.000000	65.321660 
4906.000000	65.222358 
4905.000000	65.088272 
4904.000000	64.943647 
4903.000000	64.809250 
4902.000000	64.698982 
4901.000000	64.619803 
4900.000000	64.572525 
4899.000000	64.553165 
4898.000000	64.555454 
4897.000000	64.572787 
4896.000000	64.600110 
4895.000000	64.632654 
4894.000000	64.667654 
4893.000000	64.702391 
4892.000000	64.735770 
4891.000000	64.767098 
4890.000000	64.797019 
4889.000000	64.826440 
4888.000000	64.856743 
4887.000000	64.889550 
4886.000000	64.925861 
4885.000000	64.966130 
4884.000000	65.009427 
4883.000000	65.054345 
4882.000000	65.097665 
4881.000000	65.135550 
4880.000000	65.163230 
4879.000000	65.176391 
4878.000000	65.170884 
4877.000000	65.144038 
4876.000000	65.096068 
4875.000000	65.030860 
4874.000000	64.956378 
4873.000000	64.883780 
4872.000000	64.825415 
4871.000000	64.792442 
4870.000000	64.793086 
4869.000000	64.830589 
4868.000000	64.902067 
4867.000000	64.998722 
4866.000000	65.107774 
4865.000000	65.214109 
4864.000000	65.303874 
4863.000000	65.365743 
4862.000000	65.392732 
4861.000000	65.382432 
4860.000000	65.336513 
4859.000000	65.260338 
4858.000000	65.161442 
4857.000000	65.049290 
4856.000000	64.933991 
4855.000000	64.826226 
4854.000000	64.736771 
4853.000000	64.674806 
4852.000000	64.647316 
4851.000000	64.656829 
4850.000000	64.700818 
4849.000000	64.771652 
4848.000000	64.857983 
4847.000000	64.946413 
4846.000000	65.024375 
4845.000000	65.082550 
4844.000000	65.116620 
4843.000000	65.127730 
4842.000000	65.121126 
4841.000000	65.104556 
4840.000000	65.084981 
4839.000000	65.066528 
4838.000000	65.049457 
4837.000000	65.030479 
4836.000000	65.005469 
4835.000000	64.971709 
4834.000000	64.930891 
4833.000000	64.889883 
4832.000000	64.860033 
4831.000000	64.854907 
4830.000000	64.885330 
4829.000000	64.955663 
4828.000000	65.061044 
4827.000000	65.187358 
4826.000000	65.314149 
4825.000000	65.419125 
4824.000000	65.484905 
4823.000000	65.503334 
4822.000000	65.478038 
4821.000000	65.422892 
4820.000000	65.358400 
4819.000000	65.305185 
4818.000000	65.276956 
4817.000000	65.276312 
4816.000000	65.293598 
4815.000000	65.310359 
4814.000000	65.305709 
4813.000000	65.263867 
4812.000000	65.179061 
4811.000000	65.059661 
4810.000000	64.926552 
4809.000000	64.808964 
4808.000000	64.735341 
4807.000000	64.727234 
4806.000000	64.793133 
4805.000000	64.926171 
4804.000000	65.106010 
4803.000000	65.303111 
4802.000000	65.486526 
4801.000000	65.630054 
4800.000000	65.717339 
4799.000000	65.745306 
4798.000000	65.722870 
4797.000000	65.668272 
4796.000000	65.602970 
4795.000000	65.547633 
4794.000000	65.517044 
4793.000000	65.519094 
4792.000000	65.553212 
4791.000000	65.611577 
4790.000000	65.680623 
4789.000000	65.744924 
4788.000000	65.789413 
4787.000000	65.801334 
4786.000000	65.772819 
4785.000000	65.700697 
4784.000000	65.588617 
4783.000000	65.445899 
4782.000000	65.286922 
4781.000000	65.128970 
4780.000000	64.988422 
4779.000000	64.879179 
4778.000000	64.808297 
4777.000000	64.775919 
4776.000000	64.773774 
4775.000000	64.787149 
4774.000000	64.798808 
4773.000000	64.792203 
4772.000000	64.757943 
4771.000000	64.695119 
4770.000000	64.613795 
4769.000000	64.531230 
4768.000000	64.471101 
4767.000000	64.456820 
4766.000000	64.505863 
4765.000000	64.624166 
4764.000000	64.803361 
4763.000000	65.020966 
4762.000000	65.244722 
4761.000000	65.438556 
4760.000000	65.570497 
4759.000000	65.619349 
4758.000000	65.579009 
4757.000000	65.459537 
4756.000000	65.283727 
4755.000000	65.082192 
4754.000000	64.886474 
4753.000000	64.722919 
4752.000000	64.608836 
4751.000000	64.549994 
4750.000000	64.543557 
4749.000000	64.578461 
4748.000000	64.640450 
4747.000000	64.714574 
4746.000000	64.788675 
4745.000000	64.853596 
4744.000000	64.902615 
4743.000000	64.931845 
4742.000000	64.938783 
4741.000000	64.923262 
4740.000000	64.886808 
4739.000000	64.833569 
4738.000000	64.769411 
4737.000000	64.701294 
4736.000000	64.636158 
4735.000000	64.579772 
4734.000000	64.536070 
4733.000000	64.507055 
4732.000000	64.492607 
4731.000000	64.491200 
4730.000000	64.500164 
4729.000000	64.516544 
4728.000000	64.536857 
4727.000000	64.556503 
4726.000000	64.571261 
4725.000000	64.576530 
4724.000000	64.569973 
4723.000000	64.551115 
4722.000000	64.523434 
4721.000000	64.492845 
4720.000000	64.468002 
4719.000000	64.458870 
4718.000000	64.472889 
4717.000000	64.513087 
4716.000000	64.576315 
4715.000000	64.653515 
4714.000000	64.731717 
4713.000000	64.797067 
4712.000000	64.838576 
4711.000000	64.850807 
4710.000000	64.835119 
4709.000000	64.799118 
4708.000000	64.754772 
4707.000000	64.715099 
4706.000000	64.690780 
4705.000000	64.687418 
4704.000000	64.705252 
4703.000000	64.738631 
4702.000000	64.778423 
4701.000000	64.813876 
4700.000000	64.835786 
4699.000000	64.838433 
4698.000000	64.820766 
4697.000000	64.786648 
4696.000000	64.742517 
4695.000000	64.697456 
4694.000000	64.660596 
4693.000000	64.639997 
4692.000000	64.640688 
4691.000000	64.664483 
4690.000000	64.709782 
4689.000000	64.772057 
4688.000000	64.845013 
4687.000000	64.921689 
4686.000000	64.995908 
4685.000000	65.063095 
4684.000000	65.120816 
4683.000000	65.169048 
4682.000000	65.209388 
4681.000000	65.244388 
4680.000000	65.275931 
4679.000000	65.305209 
4678.000000	65.331196 
4677.000000	65.352129 
4676.000000	65.364456 
4675.000000	65.364742 
4674.000000	65.349316 
4673.000000	65.316629 
4672.000000	65.266299 
4671.000000	65.199780 
4670.000000	65.119957 
4669.000000	65.030598 
4668.000000	64.936637 
4667.000000	64.843654 
4666.000000	64.757776 
4665.000000	64.684963 
4664.000000	64.630508 
4663.000000	64.598417 
4662.000000	64.590191 
4661.000000	64.604520 
4660.000000	64.637255 
4659.000000	64.682054 
4658.000000	64.730978 
4657.000000	64.776277 
4656.000000	64.812612 
4655.000000	64.838171 
4654.000000	64.854431 
4653.000000	64.865636 
4652.000000	64.877676 
4651.000000	64.895844 
4650.000000	64.923048 
4649.000000	64.958620 
4648.000000	64.998865 
4647.000000	65.037393 
4646.000000	65.067863 
4645.000000	65.084743 
4644.000000	65.085411 
4643.000000	65.070390 
4642.000000	65.043735 
4641.000000	65.011358 
4640.000000	64.979219 
4639.000000	64.951992 
4638.000000	64.932227 
4637.000000	64.919304 
4636.000000	64.909934 
4635.000000	64.899444 
4634.000000	64.883589 
4633.000000	64.859175 
4632.000000	64.825177 
4631.000000	64.782857 
4630.000000	64.735364 
4629.000000	64.686965 
4628.000000	64.642000 
4627.000000	64.603495 
4626.000000	64.572668 
4625.000000	64.548945 
4624.000000	64.530420 
4623.000000	64.514350 
4622.000000	64.498686 
4621.000000	64.482402 
4620.000000	64.466619 
4619.000000	64.453864 
4618.000000	64.448475 
4617.000000	64.454340 
4616.000000	64.474773 
4615.000000	64.510655 
4614.000000	64.560723 
4613.000000	64.621186 
4612.000000	64.686536 
4611.000000	64.750361 
4610.000000	64.806842 
4609.000000	64.851784 
4608.000000	64.882993 
4607.000000	64.900302 
4606.000000	64.904785 
4605.000000	64.897918 
4604.000000	64.881110 
4603.000000	64.855575 
4602.000000	64.822602 
4601.000000	64.783906 
4600.000000	64.742422 
4599.000000	64.702439 
4598.000000	64.669418 
4597.000000	64.649319 
4596.000000	64.647412 
4595.000000	64.667367 
4594.000000	64.710044 
4593.000000	64.773344 
4592.000000	64.852070 
4591.000000	64.938402 
4590.000000	65.023541 
4589.000000	65.098285 
4588.000000	65.154623 
4587.000000	65.186309 
4586.000000	65.189933 
4585.000000	65.165233 
4584.000000	65.115094 
4583.000000	65.045809 
4582.000000	64.966297 
4581.000000	64.886951 
4580.000000	64.818024 
4579.000000	64.767313 
4578.000000	64.738941 
4577.000000	64.732146 
4576.000000	64.741873 
4575.000000	64.759778 
4574.000000	64.776492 
4573.000000	64.784073 
4572.000000	64.777994 
4571.000000	64.757156 
4570.000000	64.724349 
4569.000000	64.684867 
4568.000000	64.644813 
4567.000000	64.608812 
4566.000000	64.579272 
4565.000000	64.555811 
4564.000000	64.535903 
4563.000000	64.516305 
4562.000000	64.494204 
4561.000000	64.468073 
4560.000000	64.438581 
4559.000000	64.408302 
4558.000000	64.380979 
4557.000000	64.359641 
4556.000000	64.346861 
4555.000000	64.343833 
4554.000000	64.350628 
4553.000000	64.365983 
4552.000000	64.388895 
4551.000000	64.418983 
4550.000000	64.456534 
4549.000000	64.502382 
4548.000000	64.556956 
4547.000000	64.619922 
4546.000000	64.690065 
4545.000000	64.765167 
4544.000000	64.842748 
4543.000000	64.919877 
4542.000000	64.994597 
4541.000000	65.064454 
4540.000000	65.126609 
4539.000000	65.176844 
4538.000000	65.210843 
4537.000000	65.224123 
4536.000000	65.213608 
4535.000000	65.178275 
4534.000000	65.121603 
4533.000000	65.049386 
4532.000000	64.969778 
4531.000000	64.890432 
4530.000000	64.818120 
4529.000000	64.755153 
4528.000000	64.699316 
4527.000000	64.645171 
4526.000000	64.586615 
4525.000000	64.518761 
4524.000000	64.439964 
4523.000000	64.354920 
4522.000000	64.273858 
4521.000000	64.208102 
4520.000000	64.168024 
4519.000000	64.159154 
4518.000000	64.182066 
4517.000000	64.232587 
4516.000000	64.303541 
4515.000000	64.387965 
4514.000000	64.479470 
4513.000000	64.570689 
4512.000000	64.655780 
4511.000000	64.729285 
4510.000000	64.788484 
4509.000000	64.833617 
4508.000000	64.867544 
4507.000000	64.894247 
4506.000000	64.918756 
4505.000000	64.946103 
4504.000000	64.980483 
4503.000000	65.022301 
4502.000000	65.074396 
4501.000000	65.142130 
4500.000000	65.235567 
4499.000000	65.366911 
4498.000000	65.551185 
4497.000000	65.800905 
4496.000000	66.118860 
4495.000000	66.494178 
4494.000000	66.899037 
4493.000000	67.295026 
4492.000000	67.637133 
4491.000000	67.889261 
4490.000000	68.038153 
4489.000000	68.097519 
4488.000000	68.110847 
4487.000000	68.133187 
4486.000000	68.220067 
4485.000000	68.401408 
4484.000000	68.673706 
4483.000000	68.992543 
4482.000000	69.289398 
4481.000000	69.481515 
4480.000000	69.499659 
4479.000000	69.301819 
4478.000000	68.892669 
4477.000000	68.314051 
4476.000000	67.635416 
4475.000000	66.936659 
4474.000000	66.288590 
4473.000000	65.741991 
4472.000000	65.323328 
4471.000000	65.021181 
4470.000000	64.793848 
4469.000000	64.598107 
4468.000000	64.403963 
4467.000000	64.193916 
4466.000000	63.968873 
4465.000000	63.741755 
4464.000000	63.532662 
4463.000000	63.358283 
4462.000000	63.227677 
4461.000000	63.131666 
4460.000000	63.050198 
4459.000000	62.967205 
4458.000000	62.865614 
4457.000000	62.739539 
4456.000000	62.579083 
4455.000000	62.380957 
4454.000000	62.126159 
4453.000000	61.777544 
4452.000000	61.292457 
4451.000000	60.619783 
4450.000000	59.754872 
4449.000000	58.728766 
4448.000000	57.679867 
4447.000000	56.827640 
4446.000000	56.467461 
4445.000000	56.898069 
4444.000000	58.354973 
4443.000000	60.930323 
4442.000000	64.523577 
4441.000000	68.830180 
4440.000000	73.379778 
4439.000000	77.616548 
4438.000000	81.012797 
4437.000000	83.167982 
4436.000000	83.889579 
4435.000000	83.214282 
4434.000000	81.400609 
4433.000000	78.841733 
4432.000000	75.984096 
4431.000000	73.215723 
4430.000000	70.828795 
4429.000000	68.953776 
4428.000000	67.606449 
4427.000000	66.689300 
4426.000000	66.084694 
4425.000000	65.669131 
4424.000000	65.357327 
4423.000000	65.110087 
4422.000000	64.909482 
4421.000000	64.769625 
4420.000000	64.696788 
4419.000000	64.697146 
4418.000000	64.754891 
4417.000000	64.848208 
4416.000000	64.949417 
4415.000000	65.034008 
4414.000000	65.084886 
4413.000000	65.096497 
4412.000000	65.074896 
4411.000000	65.025067 
4410.000000	64.951920 
4409.000000	64.867448 
4408.000000	64.785552 
4407.000000	64.712429 
4406.000000	64.650678 
4405.000000	64.608907 
4404.000000	64.593601 
4403.000000	64.606022 
4402.000000	64.643335 
4401.000000	64.692592 
4400.000000	64.741253 
4399.000000	64.788246 
4398.000000	64.834737 
4397.000000	64.877009 
4396.000000	64.914345 
4395.000000	64.949297 
4394.000000	64.983940 
4393.000000	65.018224 
4392.000000	65.051770 
4391.000000	65.083956 
4390.000000	65.113043 
4389.000000	65.136551 
4388.000000	65.152049 
4387.000000	65.157580 
4386.000000	65.151834 
4385.000000	65.134263 
4384.000000	65.105009 
4383.000000	65.065073 
4382.000000	65.016651 
4381.000000	64.963269 
4380.000000	64.909148 
4379.000000	64.859223 
4378.000000	64.818358 
4377.000000	64.791131 
4376.000000	64.781141 
4375.000000	64.790582 
4374.000000	64.819431 
4373.000000	64.865493 
4372.000000	64.924621 
4371.000000	64.990758 
4370.000000	65.056610 
4369.000000	65.114593 
4368.000000	65.157532 
4367.000000	65.180444 
4366.000000	65.181398 
4365.000000	65.161705 
4364.000000	65.125560 
4363.000000	65.079307 
4362.000000	65.030050 
4361.000000	64.983797 
4360.000000	64.944410 
4359.000000	64.913034 
4358.000000	64.888358 
4357.000000	64.867162 
4356.000000	64.845776 
4355.000000	64.821314 
4354.000000	64.793038 
4353.000000	64.762115 
4352.000000	64.732360 
4351.000000	64.708900 
4350.000000	64.697480 
4349.000000	64.702391 
4348.000000	64.725661 
4347.000000	64.765977 
4346.000000	64.819073 
4345.000000	64.878511 
4344.000000	64.936947 
4343.000000	64.987421 
4342.000000	65.024828 
4341.000000	65.046858 
4340.000000	65.053462 
4339.000000	65.046477 
4338.000000	65.028572 
4337.000000	65.002799 
4336.000000	64.971280 
4335.000000	64.935231 
4334.000000	64.895415 
4333.000000	64.852643 
4332.000000	64.808201 
4331.000000	64.763665 
4330.000000	64.721059 
4329.000000	64.682316 
4328.000000	64.648151 
4327.000000	64.618206 
4326.000000	64.590144 
4325.000000	64.561462 
4324.000000	64.529895 
4323.000000	64.495205 
4322.000000	64.459085 
4321.000000	64.425849 
4320.000000	64.401102 
4319.000000	64.391040 
4318.000000	64.400076 
4317.000000	64.430379 
4316.000000	64.480352 
4315.000000	64.546036 
4314.000000	64.621114 
4313.000000	64.699649 
4312.000000	64.777088 
4311.000000	64.851164 
4310.000000	64.921736 
4309.000000	64.989662 
4308.000000	65.055656 
4307.000000	65.118813 
4306.000000	65.176033 
4305.000000	65.222167 
4304.000000	65.250682 
4303.000000	65.256404 
4302.000000	65.236020 
4301.000000	65.189599 
4300.000000	65.120434 
4299.000000	65.035057 
4298.000000	64.942002 
4297.000000	64.850020 
4296.000000	64.767408 
4295.000000	64.700555 
4294.000000	64.653754 
4293.000000	64.629244 
4292.000000	64.627027 
4291.000000	64.645195 
4290.000000	64.680147 
4289.000000	64.726591 
4288.000000	64.778256 
4287.000000	64.827990 
4286.000000	64.869475 
4285.000000	64.897727 
4284.000000	64.910364 
4283.000000	64.907622 
4282.000000	64.892411 
4281.000000	64.869523 
4280.000000	64.844131 
4279.000000	64.820718 
4278.000000	64.802408 
4277.000000	64.790320 
4276.000000	64.784002 
4275.000000	64.781737 
4274.000000	64.781665 
4273.000000	64.782166 
4272.000000	64.782333 
4271.000000	64.782047 
4270.000000	64.781093 
4269.000000	64.779257 
4268.000000	64.775729 
4267.000000	64.769577 
4266.000000	64.759421 
4265.000000	64.744448 
4264.000000	64.725232 
4263.000000	64.703440 
4262.000000	64.681577 
4261.000000	64.662671 
4260.000000	64.649438 
4259.000000	64.644074 
4258.000000	64.647626 
4257.000000	64.660120 
4256.000000	64.680290 
4255.000000	64.706373 
4254.000000	64.736294 
4253.000000	64.767885 
4252.000000	64.799189 
4251.000000	64.828658 
4250.000000	64.855337 
4249.000000	64.878726 
4248.000000	64.898729 
4247.000000	64.915680 
4246.000000	64.930248 
4245.000000	64.943623 
4244.000000	64.956974 
4243.000000	64.971399 
4242.000000	64.987421 
4241.000000	65.005183 
4240.000000	65.024137 
4239.000000	65.043139 
4238.000000	65.060567 
4237.000000	65.074825 
4236.000000	65.084528 
4235.000000	65.089011 
4234.000000	65.088295 
4233.000000	65.083312 
4232.000000	65.075564 
4231.000000	65.067005 
4230.000000	65.059471 
4229.000000	65.054464 
4228.000000	65.052509 
4227.000000	65.053224 
4226.000000	65.055108 
4225.000000	65.055775 
4224.000000	65.052342 
4223.000000	65.042257 
4222.000000	65.023612 
4221.000000	64.996290 
4220.000000	64.962339 
4219.000000	64.925932 
4218.000000	64.892554 
4217.000000	64.867806 
4216.000000	64.856219 
4215.000000	64.859819 
4214.000000	64.877533 
4213.000000	64.905214 
4212.000000	64.936566 
4211.000000	64.964604 
4210.000000	64.983463 
4209.000000	64.989948 
4208.000000	64.984154 
4207.000000	64.969491 
4206.000000	64.951348 
4205.000000	64.935517 
4204.000000	64.926147 
4203.000000	64.924931 
4202.000000	64.930486 
4201.000000	64.939498 
4200.000000	64.947938 
4199.000000	64.952659 
4198.000000	64.952325 
4197.000000	64.947867 
4196.000000	64.942049 
4195.000000	64.938116 
4194.000000	64.939260 
4193.000000	64.947175 
4192.000000	64.962029 
4191.000000	64.982604 
4190.000000	65.006899 
4189.000000	65.033030 
4188.000000	65.059447 
4187.000000	65.085625 
4186.000000	65.111374 
4185.000000	65.136361 
4184.000000	65.160083 
4183.000000	65.181159 
4182.000000	65.198373 
4181.000000	65.210962 
4180.000000	65.218877 
4179.000000	65.223407 
4178.000000	65.226054 
4177.000000	65.228605 
4176.000000	65.231680 
4175.000000	65.234684 
4174.000000	65.235304 
4173.000000	65.230321 
4172.000000	65.216875 
4171.000000	65.193676 
4170.000000	65.161752 
4169.000000	65.124630 
4168.000000	65.087556 
4167.000000	65.056324 
4166.000000	65.035510 
4165.000000	65.027451 
4164.000000	65.031075 
4163.000000	65.042781 
4162.000000	65.057635 
4161.000000	65.070915 
4160.000000	65.079498 
4159.000000	65.082216 
